SpectraSmart Spectrum 2.9.0.0
--------- Device Information -----------
Spectrum Name :  反射率_0
Saving Time :  2024/04/30 00:41:47
Spectro-Module Model Name : SE2030-DUVN
Spectro-Module Serial Number : OS361AC55029948
Wavelength Start : 200
Wavelength End : 1025
Wavelength Unit : Wavelength(nm)
Spectrum Unit : Reflectance(%)
-----------Spectrum Setting ------------
Integration Time : 20ms
Average : 10
Boxcar : 0
Background removal :  enabled
linearity correction :  enabled
SC :  disabled
Intensity correction :  disabled
DWT denoise :  enabled
savitzky-golay :  disabled
FFT :  disabled
Running average :  disabled
Kalman :  disabled
High pass :  disabled
---------------BEGIN--------------------
Wavelength(nm)             Reflectance(%)
200.29               0
200.75        51.94407
201.21         46.0164
201.67         37.5876
202.13        29.25031
202.58        22.50975
203.04        16.38219
203.50        13.01635
203.96        17.50805
204.42        30.71061
204.88        50.52197
205.34        69.09672
205.80        74.86404
206.26        68.73964
206.72        57.99913
207.18        47.50788
207.64        39.83659
208.10         34.4729
208.55        29.73126
209.01         26.4109
209.47        27.34731
209.93        32.16075
210.39        39.04378
210.85        44.83249
211.31        46.94349
211.77        45.42972
212.23        40.35485
212.69        32.84862
213.14         30.0509
213.60        34.90063
214.06        43.21163
214.52        50.84339
214.98        55.68149
215.44         58.3855
215.90         60.2019
216.36        61.68752
216.81        63.52523
217.27        66.39196
217.73        70.46897
218.19          76.063
218.65        81.96541
219.11        85.93616
219.57        86.99878
220.02        86.83355
220.48        88.24323
220.94        91.30305
221.40        96.06106
221.86        100.2657
222.32        97.46146
222.77        87.84926
223.23        77.99248
223.69        71.14285
224.15        68.21653
224.61        68.40499
225.06        70.95284
225.52        75.81844
225.98        81.48422
226.44        85.98998
226.90        88.89831
227.36        90.76408
227.81        92.43904
228.27         94.3842
228.73        96.37879
229.19        97.44461
229.65         95.8373
230.10        91.93816
230.56        87.63585
231.02        84.25405
231.48        82.85056
231.93        83.12762
232.39        84.64214
232.85        86.89374
233.31        89.06406
233.77        90.71873
234.22        92.21613
234.68        93.01146
235.14        92.37252
235.60        90.34597
236.05        87.11857
236.51        84.07552
236.97        82.94836
237.43        84.08543
237.88        87.70786
238.34        92.58363
238.80        95.49863
239.26        94.33892
239.71         89.9864
240.17        84.43063
240.63         80.4315
241.08        78.56222
241.54        77.97543
242.00        78.77572
242.46        80.15501
242.91        81.33656
243.37        82.40045
243.83         83.2447
244.28        83.70274
244.74        83.53834
245.20         81.9019
245.66        79.78018
246.11        79.88797
246.57        83.44571
247.03        90.99493
247.48        98.01579
247.94        94.91855
248.40        83.71534
248.85          70.699
249.31        62.50527
249.77        62.05518
250.22        69.06082
250.68        84.64118
251.14        108.3119
251.59        120.6117
252.05        108.8807
252.51         89.2185
252.96        74.04709
253.42        66.91814
253.88        65.06173
254.33         65.8556
254.79         69.0151
255.25        72.90181
255.70        75.70049
256.16        77.95773
256.62        79.41241
257.07         79.9595
257.53        80.30949
257.99        80.33014
258.44        79.76244
258.90        79.12811
259.35        78.15045
259.81        77.33923
260.27        76.75404
260.72        76.48431
261.18        76.70438
261.63        76.95972
262.09        77.10072
262.55        76.48627
263.00        75.10346
263.46        73.52847
263.91        71.96143
264.37        71.06683
264.83        70.73217
265.28        70.68531
265.74        70.80239
266.19        70.58949
266.65        70.06596
267.11        69.33318
267.56        68.55048
268.02         67.9813
268.47        67.62096
268.93        67.38939
269.38        67.13225
269.84        66.70743
270.30        66.05683
270.75        65.24184
271.21        64.36293
271.66        63.46932
272.12        62.59977
272.57        61.68146
273.03        60.74702
273.48        59.74331
273.94        58.76309
274.39        57.78361
274.85        56.88539
275.31        56.02397
275.76        55.15854
276.22        54.33939
276.67        53.53586
277.13        52.87346
277.58        52.27249
278.04        51.76846
278.49        51.18729
278.95        50.43977
279.40        49.45667
279.86        48.39105
280.31         47.3131
280.77        46.50032
281.22        45.93517
281.68        45.57808
282.13        45.30248
282.59        45.03334
283.04        44.68007
283.50        44.28432
283.95        43.78107
284.41        43.12695
284.86        42.31819
285.32        41.44858
285.77        40.55891
286.22        39.80682
286.68        39.23999
287.13        38.77776
287.59        38.44106
288.04        38.17747
288.50        37.98322
288.95         37.8157
289.41        37.64136
289.86        37.34301
290.32        36.93464
290.77        36.43975
291.22        35.91195
291.68        35.44208
292.13        35.05622
292.59        34.76314
293.04        34.60587
293.50        34.68621
293.95        34.98162
294.40        35.46005
294.86        35.96479
295.31        36.26445
295.77        36.30504
296.22        36.14338
296.68        35.92406
297.13        35.85475
297.58        36.00132
298.04        36.27234
298.49        36.58414
298.95        36.80617
299.40        36.89046
299.85        36.88726
300.31        36.82663
300.76        36.68773
301.21        36.51366
301.67        36.31883
302.12        36.11218
302.58         36.0527
303.03        36.14514
303.48        36.23239
303.94        36.24749
304.39        36.74601
304.84        36.58723
305.30        36.68282
305.75        36.69403
306.20        36.68801
306.66        36.67414
307.11        36.62858
307.57        36.55417
308.02        36.37645
308.47         36.1081
308.93        35.78392
309.38        35.44128
309.83        35.18865
310.29         35.0503
310.74          34.993
311.19        34.95604
311.65        34.83503
312.10         34.6037
312.55        34.29916
313.00        33.98917
313.46        33.77786
313.91        33.67535
314.36        33.64618
314.82        33.63008
315.27        33.55369
315.72        33.38387
316.18        33.15433
316.63           32.88
317.08         32.5953
317.53        32.32282
317.99        32.06349
318.44        31.82683
318.89        31.63244
319.35        31.48316
319.80        31.37445
320.25        31.30886
320.70        31.28754
321.16        31.28974
321.61        31.32067
322.06        31.33118
322.51        31.25369
322.97        31.07439
323.42        30.81833
323.87        30.53235
324.32        30.29878
324.78        30.13231
325.23        30.02645
325.68        29.94639
326.13        29.83687
326.59        29.67518
327.04        29.49014
327.49        29.29808
327.94        29.13602
328.39        29.00804
328.85        28.88659
329.30        28.76224
329.75        28.57643
330.20        28.32569
330.66        28.03769
331.11        27.75904
331.56        27.53563
332.01        27.38592
332.46        27.29415
332.92        27.25731
333.37        27.29923
333.82        27.40153
334.27        27.55422
334.72        27.70161
335.17        27.75512
335.63        27.68875
336.08        27.52861
336.53        27.31925
336.98        27.15896
337.43        27.08222
337.88        27.06915
338.34        27.08569
338.79        27.09435
339.24         27.0769
339.69        27.05662
340.14        27.04926
340.59        27.07696
341.05        27.14435
341.50        27.22979
341.95        27.32139
342.40        27.41315
342.85        27.49236
343.30        27.54902
343.75        27.55884
344.20        27.48779
344.66        27.34377
345.11        27.14084
345.56        26.90663
346.01        26.67978
346.46        26.49061
346.91        26.34603
347.36        26.26935
347.81        26.29209
348.26        26.40665
348.72        26.58348
349.17         26.7892
349.62        26.96284
350.07        27.07229
350.52        27.13107
350.97         27.1081
351.42        26.96104
351.87         26.7062
352.32        26.37104
352.77         26.0578
353.22        25.93231
353.67        26.02694
354.13        26.28353
354.58        26.60535
355.03        26.83106
355.48         26.9028
355.93        26.86272
356.38        26.72861
356.83        26.53185
357.28        26.29886
357.73        26.02455
358.18        25.75072
358.63        25.54881
359.08        25.43114
359.53        25.37855
359.98        25.35757
360.43        25.30602
360.88        25.20326
361.33        25.07043
361.78        24.90122
362.23        24.68712
362.68        24.43934
363.13        24.16409
363.58        23.91014
364.03        23.75567
364.48        23.71301
364.93        23.75632
365.38        23.83131
365.83        23.84839
366.28        23.77914
366.73        23.64534
367.18        23.47245
367.63        23.30297
368.08        23.15264
368.53        23.01037
368.98         22.8714
369.43         22.7291
369.88        22.58538
370.33        22.45085
370.78        22.33616
371.23        22.25473
371.68        22.20496
372.13        22.17253
372.58        22.14426
373.03        22.10101
373.48        22.03175
373.93        21.93986
374.38        21.81129
374.83        21.62804
375.28        21.39898
375.72        21.13143
376.17        20.88547
376.62        20.70539
377.07        20.59782
377.52          20.545
377.97        20.52142
378.42        20.48384
378.87        20.41862
379.32        20.34019
379.77         20.2512
380.22         20.1554
380.67        20.05493
381.11        19.94289
381.56        19.83774
382.01        19.76962
382.46        19.74633
382.91        19.76624
383.36        19.79489
383.81        19.77742
384.26        19.70491
384.71        19.58846
385.15        19.47007
385.60        19.44565
386.05        19.51134
386.50        19.62626
386.95         19.7199
387.40         19.6843
387.85        19.50591
388.29        19.22687
388.74        18.92687
389.19        18.64812
389.64         18.4108
390.09        18.19363
390.54        18.03416
390.98        17.99327
391.43        18.07478
391.88        18.24953
392.33        18.41819
392.78        18.45819
393.23        18.35482
393.67        18.10535
394.12        17.81326
394.57        17.74705
395.02        17.67414
395.47        17.75923
395.91        17.86173
396.36         17.8643
396.81        17.74632
397.26         17.5581
397.71        17.36251
398.15        17.23886
398.60        17.22841
399.05        17.26036
399.50        17.30147
399.95        17.38455
400.39         17.4064
400.84        17.37317
401.29        17.27942
401.74        17.22217
402.18        17.21486
402.63        17.19459
403.08        17.16645
403.53        17.15302
403.97        17.15287
404.42        17.16729
404.87        17.16349
405.32        17.08709
405.76        16.93025
406.21        16.71715
406.66        16.51452
407.11        16.42951
407.55        16.48629
408.00        16.65221
408.45        16.84018
408.90        16.89059
409.34        16.76313
409.79        16.50953
410.24        16.24364
410.68        16.13667
411.13        16.22682
411.58        16.45977
412.03        16.73319
412.47        16.87301
412.92        16.81778
413.37        16.63394
413.81        16.40548
414.26        16.28224
414.71        16.28508
415.15        16.37098
415.60        16.47461
416.05        16.50962
416.49        16.45123
416.94        16.33824
417.39          16.203
417.83        16.08942
418.28        16.01823
418.73        15.96528
419.17        15.93999
419.62        15.96004
420.07        16.01907
420.51        16.11227
420.96          16.193
421.41        16.17871
421.85         16.0557
422.30        15.86769
422.74         15.6727
423.19        15.58295
423.64        15.61214
424.08        15.73674
424.53        15.89047
424.98        15.98418
425.42          15.989
425.87        15.91721
426.31        15.80629
426.76        15.74116
427.21        15.68894
427.65        15.65701
428.10         15.6188
428.54         15.5109
428.99        15.34562
429.44        15.25311
429.88         15.2219
430.33        15.03626
430.77        14.80569
431.22        14.99556
431.66        15.52975
432.11        15.80317
432.56        15.71729
433.00        15.61365
433.45        15.51179
433.89        15.18167
434.34        14.79452
434.78        14.77673
435.23        15.05903
435.67        15.16677
436.12        15.06965
436.57        15.03894
437.01        15.08717
437.46        15.11032
437.90        15.10429
438.35        15.08817
438.79        15.07127
439.24        15.04454
439.68        15.03177
440.13        15.09463
440.57        15.17656
441.02        15.18882
441.46        15.12268
441.91        14.90761
442.35        14.64676
442.80          14.795
443.24        15.22369
443.69        15.18643
444.13        14.73495
444.58        14.57636
445.02        14.71121
445.47        14.75815
445.91        14.69696
446.36        14.68819
446.80         14.7253
447.24        14.77097
447.69        14.80868
448.13        14.81465
448.58        14.78618
449.02        14.73113
449.47        14.68124
449.91        14.67549
450.36        14.72316
450.80        14.81216
451.25        14.90246
451.69        14.92838
452.13        14.87565
452.58        14.77064
453.02        14.65748
453.47        14.60581
453.91        14.62719
454.36        14.74156
454.80        14.83133
455.24        14.87822
455.69        14.84848
456.13        14.76611
456.58         14.6784
457.02        14.64325
457.46        14.67694
457.91        14.75205
458.35        14.83667
458.79        14.89147
459.24        14.91335
459.68        14.92347
460.13        14.92999
460.57        14.87474
461.01        14.87832
461.46         14.7938
461.90        14.69608
462.34        14.78575
462.79        15.00056
463.23        15.01069
463.68        14.83569
464.12        14.78048
464.56        14.85208
465.01        14.89719
465.45        14.88191
465.89        14.82357
466.34        14.74748
466.78        14.71811
467.22        14.77423
467.67        14.74669
468.11        14.65034
468.55        14.55423
468.99         14.4878
469.44        14.45559
469.88        14.46299
470.32         14.5156
470.77        14.58448
471.21        14.63638
471.65        14.65451
472.10        14.65065
472.54        14.64459
472.98        14.68545
473.42        14.77718
473.87        14.89798
474.31        15.00556
474.75        15.03814
475.20        14.99119
475.64        14.88763
476.08         14.7661
476.52        14.68251
476.97        14.65374
477.41        14.65674
477.85        14.69323
478.29        14.76278
478.74         14.8597
479.18        14.97522
479.62        15.06474
480.06         15.0951
480.50        15.06828
480.95        14.86261
481.39        14.76777
481.83        14.73583
482.27          14.866
482.72         15.0049
483.16        15.28953
483.60        15.43269
484.04        15.45509
484.48        15.40524
484.93        15.36439
485.37        15.38592
485.81        15.40929
486.25        15.75094
486.69         15.2703
487.14        15.46905
487.58        15.80601
488.02        15.80619
488.46        15.96022
488.90        16.11455
489.34        15.48225
489.79        15.42344
490.23        15.64017
490.67        15.88156
491.11        16.04065
491.55        15.99494
491.99        15.81464
492.43        15.81705
492.88         16.0186
493.32         16.1896
493.76        16.29063
494.20        16.39794
494.64        16.50825
495.08        16.59518
495.52        16.65233
495.96        16.71541
496.41        16.79597
496.85        16.78915
497.29        16.72894
497.73        16.96791
498.17        17.23742
498.61        17.26985
499.05        17.04522
499.49        16.98002
499.93        17.11119
500.37        17.27643
500.82        17.42395
501.26        17.51219
501.70         17.5258
502.14        17.50379
502.58        17.49712
503.02        17.56486
503.46        17.72055
503.90         17.9451
504.34        18.18177
504.78        18.33396
505.22        18.37504
505.66        18.33103
506.10        18.24243
506.54        18.19607
506.98        18.21936
507.42        18.25229
507.86        18.26214
508.30        18.40318
508.74        18.33029
509.18        18.33071
509.62        18.32728
510.06        18.36125
510.50        18.43718
510.94         18.5449
511.38        18.66137
511.82        18.74088
512.26        18.77131
512.70        18.76408
513.14        18.74319
513.58        18.74624
514.02        18.78343
514.46        18.84466
514.90         18.9087
515.34        18.94161
515.78         18.9348
516.22        18.89818
516.66        18.85653
517.10        18.84757
517.54        18.87759
517.98        18.93299
518.42        18.98251
518.86        18.97675
519.30        18.90648
519.74        18.79093
520.18        18.66441
520.62        18.57772
521.06        18.54607
521.50        18.55798
521.93        18.59364
522.37        18.61375
522.81        18.60898
523.25        18.58853
523.69        18.57088
524.13        18.58455
524.57        18.63156
525.01        18.69628
525.45        18.75099
525.89        18.75351
526.32          18.693
526.76        18.59169
527.20        18.47342
527.64        18.37495
528.08        18.30888
528.52        18.26638
528.96        18.24293
529.40        18.23071
529.83        18.22306
530.27        18.22316
530.71        18.22351
531.15        18.21392
531.59        18.18996
532.03        18.15088
532.46        18.09644
532.90        18.03398
533.34        17.96801
533.78        17.90445
534.22        17.84553
534.66         17.7929
535.09        17.74727
535.53        17.71314
535.97        17.70027
536.41        17.72879
536.85        17.79593
537.28        17.88961
537.72        17.97812
538.16          18.015
538.60        17.99118
539.04        17.92642
539.47        17.83992
539.91        17.77997
540.35        17.75677
540.79        17.76366
541.22        17.80306
541.66        17.88136
542.10        17.99123
542.54        18.12873
542.97        18.27592
543.41        18.40417
543.85        18.50592
544.29        18.59223
544.72        18.65755
545.16        18.71016
545.60        18.75465
546.04        18.78197
546.47        18.82339
546.91        18.95746
547.35        19.17589
547.79         19.3988
548.22        19.58037
548.66        19.75499
549.10        19.91809
549.53        19.97806
549.97        19.93484
550.41        20.20103
550.84        20.18404
551.28         20.3229
551.72        20.42026
552.15        20.63522
552.59        20.70014
553.03        20.81546
553.46        20.90984
553.90        20.99674
554.34        21.07231
554.77        21.14937
555.21        21.22556
555.65        21.24462
556.08        21.22657
556.52         21.2772
556.96        21.38549
557.39        21.48181
557.83        21.55725
558.27        21.60393
558.70        21.64562
559.14        21.74629
559.57        21.88975
560.01        22.03533
560.45        22.15903
560.88        22.16305
561.32        22.18377
561.75        22.23467
562.19        22.34222
562.63        22.39053
563.06        22.37584
563.50        22.37394
563.93        22.39457
564.37        22.44277
564.80        22.51561
565.24        22.61626
565.68        22.72406
566.11        22.82048
566.55        22.90084
566.98        22.94008
567.42        22.98256
567.85        23.05303
568.29        23.16245
568.72        23.36217
569.16        23.67211
569.60        23.62993
570.03         23.9568
570.47        24.10494
570.90        24.26599
571.34        24.34147
571.77        24.48471
572.21        24.55733
572.64        24.58627
573.08        24.68043
573.51        24.90679
573.95        24.76629
574.38        25.14293
574.82        25.22993
