SpectraSmart Spectrum 2.9.0.0
--------- Device Information -----------
Spectrum Name :  反射率_0
Saving Time :  2024/04/30 00:46:11
Spectro-Module Model Name : SE2030-DUVN
Spectro-Module Serial Number : OS361AC55029948
Wavelength Start : 200
Wavelength End : 1025
Wavelength Unit : Wavelength(nm)
Spectrum Unit : Reflectance(%)
-----------Spectrum Setting ------------
Integration Time : 20ms
Average : 10
Boxcar : 0
Background removal :  enabled
linearity correction :  enabled
SC :  disabled
Intensity correction :  disabled
DWT denoise :  enabled
savitzky-golay :  disabled
FFT :  disabled
Running average :  disabled
Kalman :  disabled
High pass :  disabled
---------------BEGIN--------------------
Wavelength(nm)             Reflectance(%)
200.29               0
200.75        34.99979
201.21        26.01745
201.67        14.33895
202.13        3.160537
202.58        -5.69808
203.04       -12.83694
203.50       -16.24461
203.96        -11.5316
204.42        1.944165
204.88        22.14551
205.34         41.9566
205.80         50.5875
206.26        47.92931
206.72        40.09093
207.18         31.1993
207.64        23.41795
208.10        16.46477
208.55        8.969709
209.01        2.243824
209.47       0.5892974
209.93        4.576391
210.39        12.15341
210.85        19.20868
211.31         22.3809
211.77        21.72084
212.23         17.2548
212.69        11.28439
213.14        13.10666
213.60        24.36893
214.06        38.35142
214.52        48.34933
214.98        50.67887
215.44          46.735
215.90        38.53342
216.36        28.70515
216.81        22.36991
217.27         22.3664
217.73        27.97507
218.19         39.7564
218.65        53.67367
219.11        63.24181
219.57        67.40022
220.02        67.16769
220.48        64.79926
220.94         60.4714
221.40        53.01885
221.86        41.94645
222.32        31.41061
222.77         26.2009
223.23        25.87938
223.69        27.46932
224.15        28.71612
224.61        29.43165
225.06        30.04807
225.52        31.42262
225.98        34.14966
226.44        37.52224
226.90        40.60807
227.36        42.61935
227.81        43.27763
228.27        42.87843
228.73        41.50721
229.19        40.03092
229.65        40.13454
230.10        41.87053
230.56        44.34786
231.02        46.19441
231.48         46.1932
231.93        44.39096
232.39        41.32639
232.85        37.95094
233.31        36.13789
233.77        36.51123
234.22        38.67443
234.68        41.48206
235.14          42.784
235.60        41.98295
236.05        39.79309
236.51        37.56613
236.97        37.03962
237.43        38.67707
237.88        42.37341
238.34        47.37254
238.80        51.26188
239.26        52.13219
239.71        50.49768
240.17        47.53157
240.63        45.11415
241.08        43.64557
241.54        42.40729
242.00        41.34581
242.46         40.8553
242.91        41.62287
243.37        43.99692
243.83        46.52798
244.28         47.3254
244.74        45.97678
245.20        42.41304
245.66        37.80609
246.11        35.45837
246.57        37.30204
247.03          42.739
247.48        49.45094
247.94        51.38448
248.40        48.32725
248.85        43.74039
249.31        40.68934
249.77        40.47452
250.22        43.20215
250.68        49.21674
251.14        59.59786
251.59        69.48079
252.05        71.68406
252.51        68.74193
252.96        64.77535
253.42        62.14687
253.88        60.21475
254.33        58.03724
254.79        55.75941
255.25        53.64476
255.70        52.11787
256.16        51.59525
256.62        51.59756
257.07        51.66834
257.53        52.04139
257.99        52.59256
258.44        53.09437
258.90        53.80177
259.35        54.22118
259.81        54.53236
260.27        54.63227
260.72        54.52024
261.18        54.36571
261.63        53.93306
262.09        53.30753
262.55        52.28145
263.00        50.91933
263.46        49.60316
263.91        48.29037
264.37        47.18106
264.83        46.21749
265.28        45.28316
265.74        44.63428
266.19        44.44219
266.65        44.72185
267.11         45.2944
267.56        45.77703
268.02         45.6385
268.47        44.76776
268.93        43.34456
269.38        41.65457
269.84        40.33068
270.30        39.56644
270.75        39.19756
271.21        39.02404
271.66        38.70669
272.12        38.15597
272.57        37.46379
273.03        36.74144
273.48        36.06391
273.94         35.5213
274.39        35.02187
274.85        34.57431
275.31        34.12697
275.76        33.64512
276.22        33.17539
276.67        32.70562
277.13        32.30904
277.58        31.94682
278.04        31.64935
278.49         31.3185
278.95        30.91456
279.40        30.39312
279.86        29.84316
280.31        29.30984
280.77        28.98076
281.22        28.83269
281.68         28.8339
282.13        28.86489
282.59        28.81391
283.04        28.63077
283.50        28.35652
283.95        28.02203
284.41         27.6937
284.86        27.38499
285.32        27.11971
285.77        26.84763
286.22        26.57019
286.68        26.30208
287.13        26.01688
287.59         25.7927
288.04        25.68421
288.50        25.70826
288.95        25.80823
289.41          25.905
289.86        25.83938
290.32         25.6173
290.77        25.29527
291.22        24.97613
291.68        24.81978
292.13        24.85748
292.59        25.05026
293.04        25.38646
293.50        25.87838
293.95        26.49777
294.40        27.24874
294.86        28.00435
295.31         28.5798
295.77        28.93859
296.22        29.11749
296.68        29.28641
297.13        29.69657
297.58         30.4043
298.04        31.29776
298.49        32.20969
298.95        32.87477
299.40        33.23035
299.85        33.37873
300.31        33.44334
300.76        33.55186
301.21        33.78196
301.67         34.0952
302.12        34.45589
302.58        34.95362
303.03        35.56222
303.48        36.13966
303.94        36.60854
304.39        37.49758
304.84        37.68115
305.30        38.07049
305.75        38.35304
306.20        38.63331
306.66        38.93207
307.11        39.21071
307.57         39.4788
308.02        39.66981
308.47        39.79138
308.93        39.87053
309.38        39.90653
309.83        39.94909
310.29        40.00969
310.74         40.0714
311.19        40.10614
311.65        40.06206
312.10        39.93062
312.55        39.74131
313.00        39.55667
313.46        39.47007
313.91        39.48823
314.36        39.58276
314.82        39.69502
315.27        39.75254
315.72        39.71591
316.18         39.6081
316.63        39.43381
317.08        39.21524
317.53         38.9722
317.99         38.7137
318.44        38.44725
318.89        38.19054
319.35        37.95397
319.80        37.73948
320.25        37.57919
320.70        37.51977
321.16        37.54693
321.61        37.65507
322.06        37.75686
322.51        37.71979
322.97        37.50948
323.42        37.16753
323.87        36.76624
324.32        36.43125
324.78        36.18936
325.23        36.02563
325.68        35.89371
326.13        35.71978
326.59        35.47997
327.04        35.22149
327.49        34.97306
327.94        34.79038
328.39        34.67963
328.85        34.59483
329.30        34.52829
329.75         34.4144
330.20        34.23713
330.66        34.02065
331.11        33.77433
331.56        33.48377
332.01        33.16043
332.46        32.80431
332.92        32.47605
333.37        32.32251
333.82         32.3602
334.27        32.55482
334.72        32.78789
335.17         32.8568
335.63        32.69976
336.08         32.3791
336.53         31.9868
336.98        31.70535
337.43        31.59277
337.88        31.59482
338.34        31.64184
338.79        31.64375
339.24        31.56591
339.69        31.45426
340.14         31.3353
340.59        31.24679
341.05        31.20677
341.50        31.19031
341.95        31.20284
342.40        31.26679
342.85        31.37007
343.30        31.49176
343.75        31.57941
344.20        31.55113
344.66        31.40147
345.11        31.15768
345.56         30.8588
346.01        30.56643
346.46        30.31919
346.91        30.11293
347.36        29.98301
347.81        29.97739
348.26        30.09066
348.72        30.29904
349.17        30.53515
349.62        30.67753
350.07        30.68611
350.52         30.5884
350.97        30.42715
351.42        30.27251
351.87        30.15474
352.32        30.06531
352.77        30.00114
353.22        29.95836
353.67        29.93218
354.13        29.91545
354.58        29.92668
355.03        29.99215
355.48        30.09821
355.93        30.22471
356.38        30.28864
356.83        30.16686
357.28        29.85258
357.73        29.40108
358.18        28.92299
358.63        28.59349
359.08        28.45387
359.53        28.44301
359.98         28.5001
360.43        28.52404
360.88          28.475
361.33        28.38937
361.78        28.24767
362.23        28.01615
362.68        27.70928
363.13        27.34351
363.58        27.00021
364.03        26.81323
364.48        26.80688
364.93        26.93494
365.38        27.12505
365.83         27.2551
366.28        27.28035
366.73        27.23132
367.18        27.11262
367.63        26.93664
368.08        26.71771
368.53        26.44867
368.98        26.17369
369.43        25.96736
369.88        25.85139
370.33        25.82304
370.78        25.82977
371.23        25.77725
371.68        25.64088
372.13        25.43614
372.58        25.23304
373.03        25.14702
373.48        25.19266
373.93        25.32625
374.38         25.4365
374.83        25.34521
375.28        25.02635
375.72        24.55009
376.17        24.06414
376.62        23.73321
377.07        23.59422
377.52        23.58381
377.97         23.6511
378.42        23.71189
378.87        23.72766
379.32          23.727
379.77        23.68532
380.22        23.56257
380.67        23.36063
381.11        23.08451
381.56        22.80383
382.01        22.63925
382.46        22.62227
382.91        22.72644
383.36        22.87079
383.81        22.92749
384.26         22.8653
384.71        22.71215
385.15        22.53629
385.60        22.47601
386.05        22.53805
386.50         22.6702
386.95         22.7725
387.40        22.69418
387.85        22.42153
388.29        22.01786
388.74        21.61561
389.19        21.32056
389.64         21.1605
390.09        21.09106
390.54        21.09948
390.98        21.15992
391.43        21.25567
391.88        21.38672
392.33        21.49491
392.78        21.51983
393.23        21.45953
393.67        21.27979
394.12        21.06748
394.57         21.0924
395.02         21.0656
395.47        21.20018
395.91        21.34042
396.36        21.36444
396.81        21.25209
397.26        21.05312
397.71        20.83698
398.15        20.69439
398.60        20.67287
399.05         20.6914
399.50         20.7147
399.95        20.78605
400.39         20.7833
400.84        20.71499
401.29        20.57086
401.74        20.46001
402.18        20.40202
402.63        20.33005
403.08        20.26464
403.53        20.25287
403.97         20.2945
404.42        20.38023
404.87         20.4594
405.32        20.44828
405.76        20.32806
406.21        20.13117
406.66        19.92797
407.11        19.83298
407.55        19.87702
408.00        20.02555
408.45        20.20064
408.90        20.25846
409.34        20.16062
409.79        19.95129
410.24         19.7363
410.68        19.67397
411.13        19.79722
411.58        20.05568
412.03        20.33608
412.47        20.44841
412.92        20.33118
413.37        20.05822
413.81        19.74211
414.26         19.5764
414.71        19.58873
415.15        19.72906
415.60        19.90008
416.05        19.96106
416.49        19.87422
416.94         19.6922
417.39        19.48754
417.83        19.36847
418.28        19.36793
418.73        19.43914
419.17        19.54388
419.62        19.62699
420.07        19.66579
420.51        19.68047
420.96        19.66836
421.41        19.61302
421.85        19.51601
422.30        19.40077
422.74        19.29294
423.19        19.26497
423.64        19.31895
424.08        19.44608
424.53        19.59621
424.98        19.70941
425.42        19.76619
425.87        19.76673
426.31        19.72745
426.76        19.70844
427.21        19.65738
427.65        19.59461
428.10        19.52033
428.54        19.40878
428.99         19.2805
429.44        19.27933
429.88        19.34531
430.33         19.1326
430.77        18.77457
431.22        18.89279
431.66        19.43251
432.11        19.71475
432.56        19.64135
433.00        19.62211
433.45        19.64573
433.89        19.33224
434.34        18.87568
434.78        18.88626
435.23        19.28051
435.67        19.42152
436.12        19.27781
436.57        19.21065
437.01        19.26127
437.46        19.33136
437.90        19.41902
438.35        19.53822
438.79        19.65379
439.24        19.67974
439.68        19.63221
440.13        19.61501
440.57        19.59919
441.02        19.54489
441.46        19.46277
441.91         19.2357
442.35         18.9664
442.80        19.20637
443.24        19.77966
443.69        19.72868
444.13        19.12967
444.58        18.91177
445.02        19.08142
445.47        19.14122
445.91        19.06146
446.36        19.04553
446.80         19.0854
447.24        19.13325
447.69        19.18431
448.13        19.22965
448.58        19.26737
449.02         19.2994
449.47        19.33422
449.91        19.37125
450.36        19.41345
450.80        19.45812
451.25        19.49532
451.69        19.50495
452.13        19.48289
452.58        19.44308
453.02        19.39938
453.47         19.3712
453.91        19.35931
454.36        19.41514
454.80        19.42668
455.24        19.43899
455.69        19.42191
456.13        19.37869
456.58        19.33863
457.02        19.32868
457.46        19.35752
457.91        19.41363
458.35        19.46334
458.79        19.46667
459.24        19.43024
459.68        19.38056
460.13        19.34966
460.57        19.30088
461.01         19.3899
461.46        19.40841
461.90        19.41712
462.34        19.62634
462.79        19.93923
463.23        19.93516
463.68        19.64922
464.12        19.50285
464.56        19.52041
465.01        19.49797
465.45        19.42432
465.89          19.368
466.34        19.36422
466.78        19.48624
467.22        19.74084
467.67          19.816
468.11        19.70428
468.55        19.52002
468.99         19.3477
469.44        19.26957
469.88        19.31239
470.32        19.45674
470.77        19.63415
471.21        19.74773
471.65        19.76352
472.10        19.72048
472.54        19.66321
472.98        19.67871
473.42        19.78348
473.87        19.94191
474.31        20.10367
474.75        20.20059
475.20        20.22111
475.64        20.18482
476.08        20.12415
476.52         20.0827
476.97        20.07613
477.41        20.08779
477.85        20.11881
478.29        20.16952
478.74          20.242
479.18        20.32389
479.62        20.39516
480.06        20.47224
480.50        20.56245
480.95        20.47714
481.39        20.54869
481.83        20.60704
482.27        20.76588
482.72         20.8353
483.16        21.06985
483.60        21.19407
484.04        21.28525
484.48        21.30811
484.93        21.30345
485.37        21.44521
485.81        21.64753
486.25        21.59839
486.69        21.12747
487.14        21.25725
487.58         21.9308
488.02        22.04973
488.46        22.49346
488.90        22.65114
489.34        22.27312
489.79        22.30267
490.23        22.56289
490.67        22.97055
491.11        23.36404
491.55        23.34035
491.99        23.00478
492.43        22.98876
492.88        23.32772
493.32        23.61471
493.76        23.79835
494.20        24.02481
494.64        24.28765
495.08         24.5374
495.52        24.74094
495.96        24.91241
496.41        25.05941
496.85        25.03599
497.29        24.91617
497.73        25.26126
498.17         25.6846
498.61        25.78299
499.05        25.51065
499.49        25.46523
499.93        25.69604
500.37        25.96356
500.82        26.20984
501.26         26.4023
501.70        26.51894
502.14        26.60428
502.58        26.69497
503.02        26.81752
503.46         26.9834
503.90        27.18921
504.34        27.39774
504.78         27.5432
505.22        27.61065
505.66        27.61701
506.10        27.59647
506.54         27.6353
506.98        27.75578
507.42        27.87628
507.86        27.94468
508.30        28.19454
508.74        28.09812
509.18        28.09285
509.62        28.06462
510.06        28.08701
510.50         28.1724
510.94        28.30625
511.38        28.46117
511.82        28.57765
512.26        28.63885
512.70        28.66025
513.14        28.66559
513.58        28.69137
514.02        28.74761
514.46        28.82255
514.90        28.89547
515.34        28.93477
515.78        28.93302
516.22         28.9008
516.66         28.8628
517.10        28.85634
517.54        28.88753
517.98        28.94212
518.42        28.99168
518.86        28.99067
519.30         28.9305
519.74        28.83106
520.18        28.71924
520.62        28.63379
521.06         28.5899
521.50        28.58089
521.93        28.60213
522.37        28.63633
522.81         28.6774
523.25        28.72126
523.69        28.76966
524.13        28.82663
524.57        28.88612
525.01        28.94037
525.45        28.96062
525.89        28.90434
526.32        28.76577
526.76        28.57384
527.20        28.37159
527.64        28.22537
528.08        28.15239
528.52        28.13524
528.96        28.14969
529.40        28.15471
529.83        28.13312
530.27        28.09798
530.71        28.05122
531.15        27.99973
531.59          27.945
532.03        27.88083
532.46        27.80356
532.90        27.72002
533.34        27.63347
533.78        27.55332
534.22        27.48245
534.66        27.42213
535.09        27.37163
535.53        27.33511
535.97         27.3219
536.41        27.35408
536.85        27.42811
537.28        27.53055
537.72        27.62453
538.16        27.65393
538.60        27.60951
539.04        27.51606
539.47        27.40253
539.91        27.33827
540.35        27.33691
540.79        27.39093
541.22        27.49267
541.66        27.63278
542.10        27.79879
542.54        27.98927
542.97        28.19728
543.41        28.41674
543.85        28.63773
544.29        28.86052
544.72        29.05179
545.16        29.18238
545.60        29.25123
546.04        29.26306
546.47        29.27455
546.91          29.421
547.35        29.70061
547.79        29.98524
548.22         30.2291
548.66        30.52481
549.10        30.86481
549.53         31.0944
549.97        31.16183
550.41        31.62862
550.84        31.54928
551.28        31.64187
551.72         31.6465
552.15         31.8759
552.59        31.94252
553.03        32.15705
553.46        32.38826
553.90        32.57314
554.34        32.68675
554.77        32.84221
555.21        33.05916
555.65        32.95864
556.08        33.08793
556.52        33.18654
556.96        33.38908
557.39        33.57756
557.83        33.73692
558.27        33.84785
558.70        33.92471
559.14        34.04554
559.57        34.18417
560.01        34.29495
560.45        34.36893
560.88        34.29626
561.32        34.29854
561.75        34.38257
562.19        34.58017
562.63        34.69741
563.06        34.71927
563.50        34.76842
563.93         34.8429
564.37         34.9241
564.80        35.00552
565.24        35.09914
565.68        35.20327
566.11        35.33813
566.55        35.50257
566.98        35.63931
567.42        35.78072
567.85        35.90596
568.29        36.02114
568.72        36.22726
569.16        36.55616
569.60        36.35569
570.03        36.76009
570.47        36.81731
570.90        36.82668
571.34        37.15673
571.77        37.15224
572.21        37.41074
572.64        37.52582
573.08        37.67644
573.51        37.86641
573.95        37.70499
574.38        38.19537
574.82        38.04359
