SpectraSmart Spectrum 2.9.0.0
--------- Device Information -----------
Spectrum Name :  反射率_0
Saving Time :  2024/04/30 01:16:00
Spectro-Module Model Name : SE2030-DUVN
Spectro-Module Serial Number : OS361AC55029948
Wavelength Start : 200
Wavelength End : 1025
Wavelength Unit : Wavelength(nm)
Spectrum Unit : Reflectance(%)
-----------Spectrum Setting ------------
Integration Time : 20ms
Average : 10
Boxcar : 0
Background removal :  enabled
linearity correction :  enabled
SC :  disabled
Intensity correction :  disabled
DWT denoise :  enabled
savitzky-golay :  disabled
FFT :  disabled
Running average :  disabled
Kalman :  disabled
High pass :  disabled
---------------BEGIN--------------------
Wavelength(nm)             Reflectance(%)
200.29               0
200.75        20.67904
201.21        15.49603
201.67        10.50315
202.13        8.177436
202.58        9.551019
203.04         14.5938
203.50        23.06054
203.96        34.16283
204.42        46.08929
204.88        57.39285
205.34        64.04009
205.80        61.79325
206.26        53.43919
206.72        43.65271
207.18         35.4817
207.64        30.39275
208.10        27.64226
208.55        25.86174
209.01        25.56299
209.47        28.17561
209.93        32.89496
210.39        38.72047
210.85        42.78213
211.31        42.52718
211.77         37.6685
212.23        27.16943
212.69        13.13514
213.14        8.281648
213.60        17.97192
214.06        34.50013
214.52         48.2401
214.98        53.22194
215.44        50.78321
215.90        43.47481
216.36        34.43732
216.81        29.65141
217.27        32.34844
217.73        42.09197
218.19        58.25882
218.65        72.72895
219.11        77.81461
219.57        75.12122
220.02        69.89835
220.48        66.89443
220.94        65.90791
221.40        65.57683
221.86         63.5835
222.32        56.36474
222.77        46.25431
223.23        38.21236
223.69        33.51101
224.15        31.79852
224.61        32.23755
225.06        34.24773
225.52         38.0715
225.98        42.75173
226.44        46.79547
226.90        49.87967
227.36        51.77436
227.81        52.65976
228.27        52.90827
228.73        52.39146
229.19        51.67908
229.65        51.87943
230.10        52.99608
230.56        54.62761
231.02        55.73167
231.48        55.34204
231.93         53.4816
232.39        50.56406
232.85        47.49649
233.31        46.09468
233.77        46.90607
234.22        49.54303
234.68        52.68464
235.14        53.88912
235.60        52.52608
236.05        49.44181
236.51        46.21387
236.97        44.83059
237.43        45.76291
237.88        48.76131
238.34        53.09605
238.80        56.63419
239.26         57.6246
239.71        56.64604
240.17         54.3209
240.63        51.67663
241.08        48.85421
241.54        44.78514
242.00        39.59504
242.46        37.01281
242.91        41.49239
243.37        52.33015
243.83        64.35226
244.28        72.99423
244.74        78.16273
245.20        80.49284
245.66        80.18739
246.11        78.18821
246.57        75.23674
247.03        71.44447
247.48        67.00755
247.94        62.73128
248.40        60.13894
248.85        59.15074
249.31        59.88634
249.77        61.91009
250.22        65.46728
250.68        71.45365
251.14        79.92789
251.59         84.6405
252.05        81.05381
252.51        74.16246
252.96        68.16145
253.42         64.5527
253.88         62.0657
254.33        59.57353
254.79        57.47541
255.25        56.30748
255.70        55.97375
256.16        56.45091
256.62          56.737
257.07        55.99691
257.53        54.72455
257.99        53.13533
258.44        51.63625
258.90         51.4447
259.35        52.08479
259.81         53.1405
260.27        54.07176
260.72        54.52527
261.18        54.67704
261.63         54.4602
262.09        53.98053
262.55         53.0411
263.00        51.71393
263.46        50.33942
263.91        48.97308
264.37        47.95118
264.83        47.19634
265.28        46.55163
265.74        46.09494
266.19        45.71544
266.65        45.43726
267.11        45.23819
267.56        44.98315
268.02        44.47735
268.47        43.67009
268.93        42.61896
269.38        41.48198
269.84        40.66004
270.30        40.23129
270.75         40.0787
271.21        39.98211
271.66        39.57876
272.12        38.80542
272.57        37.76521
273.03        36.65707
273.48        35.71257
273.94        35.06268
274.39        34.57363
274.85        34.21373
275.31        33.86095
275.76        33.45517
276.22        33.07055
276.67        32.65427
277.13        32.22176
277.58        31.73509
278.04        31.23125
278.49        30.70747
278.95        30.26379
279.40        29.86745
279.86        29.56349
280.31        29.26171
280.77        28.94605
281.22        28.57306
281.68        28.19155
282.13        27.84338
282.59        27.64009
283.04          27.561
283.50        27.55914
283.95        27.52337
284.41        27.30449
284.86        26.87248
285.32         26.3332
285.77        25.74573
286.22        25.26075
286.68        24.92808
287.13        24.67176
287.59        24.50915
288.04        24.41018
288.50        24.36607
288.95        24.34616
289.41        24.31372
289.86        24.17027
290.32        23.92662
290.77        23.61558
291.22        23.27914
291.68        22.98619
292.13        22.76303
292.59         22.6155
293.04        22.61467
293.50        22.88549
293.95        23.42192
294.40        24.18484
294.86        24.99254
295.31        25.57336
295.77        25.86024
296.22        25.91535
296.68        25.92047
297.13        26.14729
297.58         26.6645
298.04        27.35205
298.49        28.05538
298.95        28.53045
299.40        28.71731
299.85        28.70819
300.31        28.61473
300.76        28.54837
301.21        28.57858
301.67        28.67289
302.12        28.78567
302.58        28.98881
303.03        29.26847
303.48         29.4789
303.94        29.57426
304.39        30.21821
304.84        30.16402
305.30         30.4002
305.75        30.54939
306.20        30.66947
306.66        30.76537
307.11        30.82857
307.57        30.86608
308.02        30.81689
308.47        30.69387
308.93        30.52502
309.38        30.34601
309.83        30.25839
310.29        30.27707
310.74        30.36477
311.19        30.45037
311.65        30.41632
312.10        30.23556
312.55        29.94947
313.00        29.62966
313.46        29.38675
313.91        29.23934
314.36        29.15673
314.82        29.09303
315.27        28.99473
315.72        28.83369
316.18         28.6382
316.63         28.4126
317.08        28.17225
317.53        27.93153
317.99          27.694
318.44        27.46579
318.89        27.26272
319.35        27.08746
319.80        26.93295
320.25        26.81205
320.70        26.74369
321.16        26.71316
321.61        26.72407
322.06        26.71331
322.51        26.58704
322.97        26.32914
323.42        25.97441
323.87        25.59846
324.32        25.32656
324.78          25.181
325.23        25.13731
325.68        25.13021
326.13        25.05059
326.59        24.86191
327.04        24.61122
327.49        24.33492
327.94        24.10148
328.39        23.92759
328.85        23.77427
329.30        23.64066
329.75        23.49242
330.20        23.32388
330.66        23.15808
331.11        22.99065
331.56        22.78864
332.01        22.55214
332.46        22.27894
332.92        22.03028
333.37        21.93942
333.82        22.02285
334.27        22.24469
334.72        22.47917
335.17         22.5139
335.63        22.29731
336.08        21.90031
336.53        21.44566
336.98        21.15844
337.43        21.10852
337.88        21.22524
338.34         21.4275
338.79        21.60715
339.24        21.71094
339.69        21.77741
340.14        21.79826
340.59        21.75752
341.05        21.66275
341.50         21.5069
341.95        21.33543
342.40        21.23407
342.85        21.21802
343.30        21.26415
343.75        21.31848
344.20        21.28886
344.66        21.16595
345.11        20.98085
345.56        20.77429
346.01        20.60777
346.46        20.50675
346.91        20.44729
347.36         20.4382
347.81        20.49679
348.26        20.60961
348.72        20.76251
349.17        20.89464
349.62        20.90498
350.07        20.77211
350.52        20.53227
350.97        20.24487
351.42         19.9991
351.87        19.83019
352.32        19.72802
352.77        19.68679
353.22         19.6925
353.67        19.73474
354.13        19.80938
354.58        19.91817
355.03        20.06341
355.48        20.22615
355.93        20.38541
356.38        20.48652
356.83        20.45425
357.28        20.28518
357.73        20.01594
358.18        19.71142
358.63        19.47515
359.08        19.33591
359.53        19.25974
359.98        19.23082
360.43        19.21894
360.88         19.2044
361.33        19.20143
361.78        19.16533
362.23        19.02286
362.68        18.77275
363.13        18.44063
363.58        18.11345
364.03        17.93303
364.48        17.92701
364.93        18.04708
365.38        18.21549
365.83        18.30294
366.28        18.27048
366.73         18.1607
367.18        18.00036
367.63        17.83302
368.08        17.67923
368.53        17.51895
368.98        17.37882
369.43        17.30597
369.88        17.30445
370.33        17.36777
370.78        17.43669
371.23        17.40832
371.68        17.26064
372.13          17.021
372.58        16.75899
373.03        16.59068
373.48        16.54156
373.93        16.57136
374.38        16.62102
374.83        16.59227
375.28        16.46266
375.72         16.2715
376.17        16.06668
376.62        15.88095
377.07        15.72885
377.52        15.58861
377.97        15.48872
378.42        15.48008
378.87        15.56009
379.32        15.71045
379.77        15.84993
380.22        15.85598
380.67        15.70808
381.11        15.44025
381.56        15.14232
382.01        14.96387
382.46        14.94661
382.91        15.04824
383.36        15.18817
383.81        15.24277
384.26        15.18101
384.71        15.03753
385.15        14.87036
385.60        14.79372
386.05        14.81658
386.50        14.89674
386.95        14.96312
387.40         14.9092
387.85        14.72497
388.29        14.45658
388.74         14.1942
389.19        14.00627
389.64        13.91076
390.09        13.87389
390.54        13.89236
390.98        13.95933
391.43        14.05854
391.88        14.18274
392.33        14.27446
392.78        14.26759
393.23        14.16113
393.67        13.94709
394.12         13.7047
394.57        13.63811
395.02        13.57009
395.47        13.63316
395.91        13.72273
396.36        13.75052
396.81        13.69732
397.26        13.59079
397.71        13.47683
398.15        13.41483
398.60        13.43343
399.05        13.47839
399.50        13.50631
399.95        13.51604
400.39        13.42746
400.84        13.25637
401.29        13.03874
401.74        12.92068
402.18        12.93283
402.63        13.00618
403.08        13.10272
403.53        13.17308
403.97        13.19621
404.42        13.18999
404.87         13.1447
405.32         13.0449
405.76        12.89465
406.21        12.70404
406.66        12.52364
407.11        12.43668
407.55        12.46289
408.00        12.58234
408.45        12.72797
408.90        12.77329
409.34        12.68484
409.79        12.49959
410.24        12.30884
410.68        12.25199
411.13        12.35798
411.58        12.58167
412.03        12.82578
412.47        12.92622
412.92        12.83058
413.37        12.60345
413.81        12.33859
414.26        12.19507
414.71        12.19648
415.15        12.29818
415.60        12.42615
416.05        12.47556
416.49        12.41463
416.94        12.28458
417.39        12.12707
417.83        12.00205
418.28        11.93517
418.73        11.90132
419.17        11.89433
419.62        11.90671
420.07        11.93021
420.51        11.96813
420.96        12.00508
421.41        12.00885
421.85        11.97081
422.30         11.9099
422.74         11.8404
423.19        11.80635
423.64        11.80995
424.08        11.84538
424.53        11.88604
424.98        11.90936
425.42        11.90815
425.87        11.88049
426.31        11.83227
426.76        11.79245
427.21        11.72766
427.65         11.6562
428.10        11.57932
428.54        11.48072
428.99         11.3762
429.44        11.34721
429.88        11.36693
430.33        11.24954
430.77        11.07117
431.22        11.19089
431.66        11.55991
432.11        11.73039
432.56        11.63505
433.00        11.53924
433.45        11.46818
433.89        11.22005
434.34        10.94404
434.78         11.0465
435.23        11.42684
435.67          11.563
436.12        11.41394
436.57        11.26178
437.01        11.16779
437.46        11.11866
437.90        11.13335
438.35        11.20592
438.79        11.28923
439.24        11.28863
439.68         11.2041
440.13          11.111
440.57        11.01833
441.02        10.94807
441.46        10.91322
441.91         10.8273
442.35        10.72034
442.80        10.86834
443.24        11.16477
443.69        11.08308
444.13        10.68304
444.58        10.50735
445.02        10.56455
445.47        10.57227
445.91        10.51861
446.36        10.52496
446.80        10.58322
447.24        10.66242
447.69        10.74123
448.13        10.78764
448.58        10.79404
449.02        10.77224
449.47        10.73806
449.91        10.71095
450.36        10.70013
450.80        10.69937
451.25        10.70772
451.69        10.72368
452.13        10.74178
452.58        10.76754
453.02        10.78927
453.47         10.7883
453.91        10.75824
454.36        10.73593
454.80        10.67854
455.24        10.64191
455.69        10.61848
456.13        10.60185
456.58         10.5966
457.02        10.59796
457.46        10.60709
457.91        10.62473
458.35        10.64181
458.79        10.64645
459.24        10.64539
459.68         10.6459
460.13        10.66155
460.57         10.6629
461.01        10.73411
461.46         10.7591
461.90        10.77409
462.34        10.89538
462.79        11.06936
463.23        11.06349
463.68        10.89593
464.12        10.80055
464.56        10.79204
465.01        10.75997
465.45         10.7017
465.89        10.66037
466.34        10.65515
466.78        10.72307
467.22        10.86445
467.67        10.90214
468.11        10.82906
468.55        10.71078
468.99        10.59304
469.44        10.51876
469.88        10.50358
470.32        10.54006
470.77        10.59804
471.21        10.64196
471.65        10.65382
472.10        10.65073
472.54        10.64634
472.98        10.67458
473.42         10.7403
473.87        10.82783
474.31        10.91158
474.75        10.95443
475.20        10.95315
475.64        10.91748
476.08         10.8734
476.52        10.85864
476.97        10.88244
477.41        10.92967
477.85        10.98884
478.29        11.03935
478.74        11.07668
479.18        11.10208
479.62        11.11045
480.06        11.12212
480.50        11.14419
480.95        11.06897
481.39         11.0818
481.83        11.10375
482.27        11.20131
482.72        11.27518
483.16        11.43855
483.60        11.51579
484.04        11.54607
484.48        11.46524
484.93        11.36399
485.37        11.52131
485.81        11.83679
486.25        11.86944
486.69        11.58171
487.14        11.50083
487.58        12.09901
488.02        12.00036
488.46        12.05314
488.90        12.39155
489.34        11.95609
489.79         11.9732
490.23        12.05631
490.67        12.28985
491.11        12.56324
491.55        12.56243
491.99        12.35629
492.43        12.35738
492.88        12.58747
493.32        12.78017
493.76        12.90094
494.20         13.0423
494.64        13.19748
495.08        13.33399
495.52        13.43743
495.96        13.51365
496.41        13.56654
496.85        13.54478
497.29        13.48055
497.73        13.60593
498.17        13.73694
498.61        13.79504
499.05        13.74174
499.49        13.75466
499.93        13.85293
500.37        13.98619
500.82        14.13263
501.26        14.25544
501.70        14.34385
502.14        14.42489
502.58        14.51197
503.02        14.61017
503.46        14.72305
503.90        14.85006
504.34        14.97308
504.78        15.06145
505.22        15.10751
505.66        15.11625
506.10        15.10631
506.54         15.1253
506.98        15.18567
507.42        15.24613
507.86        15.27311
508.30        15.38484
508.74        15.29468
509.18        15.24613
509.62        15.19469
510.06        15.20783
510.50        15.29718
510.94        15.44655
511.38        15.61898
511.82        15.74439
512.26         15.8013
512.70        15.80567
513.14        15.78824
513.58         15.7986
514.02        15.84943
514.46        15.92517
514.90        15.99761
515.34        16.02237
515.78         15.9906
516.22         15.9201
516.66        15.84491
517.10        15.81564
517.54        15.84297
517.98        15.90926
518.42        15.98304
518.86        16.01375
519.30        15.98834
519.74        15.92437
520.18        15.84521
520.62        15.78577
521.06        15.75771
521.50        15.75166
521.93        15.75895
522.37        15.76145
522.81         15.7545
523.25        15.74188
523.69        15.73065
524.13        15.73043
524.57        15.74095
525.01        15.75645
525.45        15.76045
525.89        15.72893
526.32        15.65632
526.76        15.55459
527.20        15.44602
527.64        15.36495
528.08        15.31952
528.52        15.30261
528.96        15.29352
529.40        15.25806
529.83        15.18953
530.27        15.10225
530.71        15.01948
531.15        14.97958
531.59        14.98846
532.03        15.02858
532.46        15.07408
532.90         15.0901
533.34        15.06562
533.78        15.01462
534.22         14.9467
534.66        14.87573
535.09         14.8082
535.53        14.74625
535.97        14.69729
536.41        14.67846
536.85        14.69109
537.28        14.73018
537.72        14.78072
538.16        14.82008
538.60        14.84145
539.04        14.85379
539.47        14.85508
539.91        14.85973
540.35        14.86896
540.79        14.88305
541.22        14.91478
541.66        14.98781
542.10        15.10167
542.54        15.24855
542.97        15.40656
543.41        15.54053
543.85        15.64238
544.29        15.72482
544.72        15.79248
545.16        15.86698
545.60        15.95303
546.04        16.03676
546.47        16.12886
546.91        16.27137
547.35        16.45294
547.79        16.61527
548.22        16.73637
548.66         16.8709
549.10        17.02206
549.53        17.10402
549.97        17.11006
550.41        17.38179
550.84        17.40407
551.28        17.56048
551.72         17.6784
552.15        17.88665
552.59        17.95585
553.03        18.07086
553.46         18.1728
553.90        18.26918
554.34        18.35812
554.77        18.45626
555.21        18.55809
555.65        18.60388
556.08        18.60932
556.52         18.6705
556.96        18.78233
557.39        18.89159
557.83        18.99072
558.27        19.06707
558.70        19.13715
559.14         19.2501
559.57        19.38991
560.01        19.52579
560.45        19.63327
560.88        19.62072
561.32        19.61162
561.75        19.61963
562.19        19.68679
562.63        19.74009
563.06        19.77898
563.50        19.85993
563.93        19.96319
564.37        20.04788
564.80        20.10282
565.24        20.14646
565.68        20.18696
566.11        20.24972
566.55        20.34128
566.98        20.42471
567.42         20.5238
567.85        20.63752
568.29        20.76725
568.72        20.96417
569.16        21.24557
569.60        21.21438
570.03         21.5262
570.47        21.65313
570.90        21.75935
571.34        21.92749
571.77        22.00162
572.21        22.08553
572.64        22.13511
573.08        22.27683
573.51        22.54312
573.95        22.60159
574.38         22.8035
574.82        22.96575
