SpectraSmart Spectrum 2.9.0.0
--------- Device Information -----------
Spectrum Name :  反射率_0
Saving Time :  2024/04/30 00:55:42
Spectro-Module Model Name : SE2030-DUVN
Spectro-Module Serial Number : OS361AC55029948
Wavelength Start : 200
Wavelength End : 1025
Wavelength Unit : Wavelength(nm)
Spectrum Unit : Reflectance(%)
-----------Spectrum Setting ------------
Integration Time : 20ms
Average : 10
Boxcar : 0
Background removal :  enabled
linearity correction :  enabled
SC :  disabled
Intensity correction :  disabled
DWT denoise :  enabled
savitzky-golay :  disabled
FFT :  disabled
Running average :  disabled
Kalman :  disabled
High pass :  disabled
---------------BEGIN--------------------
Wavelength(nm)             Reflectance(%)
200.29               0
200.75         24.4377
201.21        11.50699
201.67        -3.92786
202.13       -15.43918
202.58       -19.87035
203.04       -17.35701
203.50       -8.988356
203.96        2.127657
204.42        13.28705
204.88        23.48146
205.34        32.14058
205.80        38.54876
206.26        42.08201
206.72        43.39181
207.18        41.47138
207.64        34.99809
208.10        24.39802
208.55        9.749634
209.01       -4.862701
209.47        -8.80756
209.93      -0.5117779
210.39        14.26043
210.85        27.54982
211.31        32.94134
211.77        30.28465
212.23        20.09843
212.69        4.827186
213.14       -1.366597
213.60        8.198829
214.06        24.69138
214.52        38.88819
214.98        45.55873
215.44         45.8984
215.90        42.39346
216.36        37.15294
216.81        33.82725
217.27        34.37782
217.73         37.9705
218.19        43.87612
218.65        48.07833
219.11        47.67743
219.57        44.58662
220.02         40.8769
220.48        37.71418
220.94        34.53792
221.40        30.27138
221.86        24.67387
222.32        19.83842
222.77        17.89196
223.23        18.57219
223.69        19.68893
224.15        19.68559
224.61         18.5616
225.06        16.39886
225.52        14.77131
225.98        16.31852
226.44        20.64421
226.90        25.67813
227.36        29.28701
227.81        30.13701
228.27        28.59963
228.73        25.29046
229.19        21.59225
229.65        20.46449
230.10        22.41009
230.56        25.69753
231.02        28.71628
231.48        30.15828
231.93        30.03172
232.39        28.99317
232.85        27.48713
233.31        26.34106
233.77        25.89032
234.22        25.90727
234.68        26.20019
235.14        26.43674
235.60        26.53605
236.05        26.70553
236.51        27.08176
236.97        27.77763
237.43        28.87236
237.88        30.40474
238.34        32.37712
238.80        34.86591
239.26        37.39035
239.71        39.71231
240.17        41.03691
240.63         40.8333
241.08        38.89757
241.54        34.43175
242.00        27.29359
242.46        21.66595
242.91        23.39182
243.37        32.62717
243.83        43.83502
244.28        51.11402
244.74        53.78976
245.20        52.66776
245.66        49.20623
246.11        47.06571
246.57        48.33737
247.03        52.61792
247.48        56.55791
247.94        53.39643
248.40        44.86578
248.85        35.91218
249.31        30.73314
249.77        31.14988
250.22         37.1278
250.68        49.90348
251.14        69.99315
251.59        83.58466
252.05        78.89742
252.51        66.17176
252.96        55.39209
253.42        50.17416
253.88         48.6647
254.33        48.77663
254.79        49.93657
255.25        50.58248
255.70        50.19375
256.16        49.83406
256.62        49.59516
257.07        49.42713
257.53        49.56501
257.99        49.72765
258.44        49.61144
258.90        49.45416
259.35        48.98848
259.81        48.57863
260.27        48.17506
260.72        47.77372
261.18        47.47924
261.63         47.0303
262.09        46.54102
262.55        45.89357
263.00        45.07092
263.46        44.31224
263.91        43.44225
264.37          42.474
264.83        41.37164
265.28          40.126
265.74        39.06276
266.19        38.48265
266.65        38.45592
267.11        38.77782
267.56        39.12632
268.02        39.04182
268.47        38.40626
268.93        37.37384
269.38        36.09803
269.84        34.97103
270.30        34.13071
270.75        33.49722
271.21        33.00038
271.66        32.50476
272.12        31.96393
272.57        31.40321
273.03        30.88908
273.48        30.43207
273.94         30.0768
274.39        29.75507
274.85        29.43194
275.31        29.00488
275.76        28.44815
276.22        27.82258
276.67         27.1791
277.13        26.67312
277.58         26.2855
278.04        26.00343
278.49        25.70855
278.95        25.30956
279.40        24.76092
279.86        24.17948
280.31        23.60069
280.77        23.18004
281.22        22.91459
281.68        22.77539
282.13        22.73002
282.59        22.77531
283.04        22.86659
283.50        22.98591
283.95        23.05235
284.41        22.94765
284.86        22.65623
285.32        22.26691
285.77        21.82671
286.22        21.46801
286.68        21.23941
287.13        21.07267
287.59        21.01523
288.04        21.08387
288.50        21.26811
288.95        21.52382
289.41        21.75407
289.86        21.77889
290.32        21.60046
290.77        21.28379
291.22        20.94239
291.68         20.7578
292.13        20.77682
292.59        20.95954
293.04         21.3107
293.50         21.8577
293.95        22.57445
294.40        23.45517
294.86        24.35334
295.31         25.0526
295.77        25.50077
296.22        25.73582
296.68        25.93039
297.13        26.34309
297.58        27.03851
298.04        27.91308
298.49        28.79678
298.95         29.4183
299.40        29.72044
299.85        29.80292
300.31        29.82953
300.76        29.99049
301.21        30.36033
301.67        30.87447
302.12        31.40929
302.58        31.92095
303.03          32.369
303.48        32.64973
303.94        32.78571
304.39        33.50784
304.84        33.64972
305.30        34.11945
305.75        34.50082
306.20        34.76744
306.66        34.91008
307.11        34.95127
307.57        34.94691
308.02         34.8993
308.47        34.83731
308.93        34.76401
309.38        34.68875
309.83        34.67477
310.29        34.72954
310.74        34.83828
311.19        34.93344
311.65        34.90054
312.10        34.71684
312.55        34.41517
313.00        34.10177
313.46        33.94477
313.91        33.96202
314.36        34.10151
314.82        34.23891
315.27        34.19422
315.72        33.91574
316.18        33.47695
316.63        32.97108
317.08         32.5555
317.53        32.28746
317.99        32.13393
318.44        32.04974
318.89        31.96743
319.35        31.85954
319.80        31.73942
320.25        31.64332
320.70        31.62579
321.16        31.67803
321.61        31.78921
322.06        31.85696
322.51        31.73045
322.97        31.38473
323.42        30.87694
323.87        30.34396
324.32        30.00552
324.78        29.90247
325.23        29.98537
325.68        30.12533
326.13        30.10255
326.59        29.84833
327.04        29.44585
327.49        28.98412
327.94        28.61979
328.39        28.39629
328.85        28.24473
329.30        28.14094
329.75        28.00191
330.20        27.80437
330.66        27.59072
331.11        27.36512
331.56        27.10074
332.01        26.80358
332.46        26.46588
332.92        26.15585
333.37        26.03049
333.82        26.10702
334.27        26.34171
334.72        26.59519
335.17        26.63048
335.63        26.38517
336.08         25.9398
336.53        25.41338
336.98        25.02891
337.43        24.86358
337.88         24.8522
338.34         24.9383
338.79        25.05042
339.24        25.14365
339.69        25.24907
340.14        25.33403
340.59        25.33993
341.05        25.25879
341.50        25.08858
341.95         24.8917
342.40        24.78322
342.85        24.78388
343.30        24.86056
343.75        24.93185
344.20        24.86514
344.66        24.64426
345.11        24.31307
345.56        23.95655
346.01        23.70429
346.46        23.59797
346.91        23.59979
347.36        23.66433
347.81        23.72436
348.26         23.7528
348.72        23.76043
349.17        23.75712
349.62        23.75869
350.07         23.7643
350.52        23.76158
350.97        23.72442
351.42        23.61648
351.87        23.44302
352.32        23.23322
352.77        23.03538
353.22        22.92411
353.67        22.91845
354.13        22.98796
354.58        23.11312
355.03        23.26145
355.48        23.40473
355.93        23.54204
356.38        23.62452
356.83        23.58202
357.28        23.41035
357.73        23.13205
358.18        22.81959
358.63        22.59159
359.08        22.47571
359.53        22.43895
359.98         22.4289
360.43         22.3563
360.88        22.19991
361.33        21.99802
361.78        21.77736
362.23        21.57718
362.68        21.41479
363.13        21.27394
363.58        21.16718
364.03        21.11679
364.48         21.1173
364.93        21.15862
365.38        21.19847
365.83        21.16831
366.28        21.05267
366.73        20.87003
367.18        20.65775
367.63        20.47766
368.08         20.3479
368.53        20.25299
368.98        20.17626
369.43        20.08754
369.88        19.98107
370.33        19.87459
370.78        19.77522
371.23        19.69333
371.68        19.62851
372.13        19.56174
372.58        19.50106
373.03        19.46343
373.48        19.44183
373.93        19.43113
374.38        19.37658
374.83        19.19085
375.28         18.8751
375.72        18.46955
376.17        18.08554
376.62        17.84476
377.07         17.7697
377.52        17.81489
377.97        17.92906
378.42        18.02286
378.87        18.06203
379.32        18.07527
379.77        18.05456
380.22        17.99022
380.67         17.8863
381.11        17.73136
381.56        17.58008
382.01        17.52531
382.46        17.58403
382.91        17.73792
383.36        17.89226
383.81        17.89894
384.26        17.73466
384.71        17.44205
385.15        17.13586
385.60        17.02344
386.05        17.12755
386.50        17.37467
386.95        17.62746
387.40        17.67225
387.85        17.47279
388.29        17.10903
388.74        16.72021
389.19        16.43587
389.64        16.29058
390.09        16.23199
390.54        16.24085
390.98        16.28609
391.43        16.34818
391.88        16.43249
392.33        16.49582
392.78        16.49033
393.23        16.41492
393.67        16.24514
394.12        16.04302
394.57        16.00683
395.02        15.91796
395.47        15.94007
395.91        15.97328
396.36        15.95527
396.81        15.87676
397.26        15.76383
397.71        15.64393
398.15         15.5475
398.60          15.505
399.05        15.46976
399.50        15.43095
399.95        15.44217
400.39        15.41846
400.84        15.35841
401.29        15.25547
401.74        15.19256
402.18        15.18123
402.63        15.17063
403.08        15.16259
403.53        15.17145
403.97        15.19323
404.42        15.22453
404.87        15.24038
405.32        15.20087
405.76        15.09691
406.21        14.94597
406.66        14.79079
407.11        14.70138
407.55        14.69721
408.00        14.75921
408.45        14.83288
408.90        14.81772
409.34        14.68985
409.79        14.48104
410.24        14.27713
410.68        14.20592
411.13        14.29167
411.58        14.49434
412.03        14.71459
412.47        14.78423
412.92        14.65375
413.37        14.39236
413.81        14.10163
414.26        13.95461
414.71        13.97549
415.15        14.11251
415.60        14.28911
416.05        14.39577
416.49        14.39481
416.94        14.32748
417.39        14.21764
417.83        14.09827
418.28        13.99242
418.73        13.88198
419.17        13.79344
419.62        13.77281
420.07        13.82128
420.51        13.92458
420.96        14.03232
421.41        14.05485
421.85        13.97194
422.30        13.82792
422.74          13.663
423.19        13.55987
423.64        13.53114
424.08        13.55972
424.53        13.61363
424.98        13.66339
425.42        13.69656
425.87        13.71225
426.31        13.70946
426.76        13.70776
427.21        13.66426
427.65        13.59986
428.10        13.51883
428.54        13.41049
428.99        13.29477
429.44        13.26519
429.88        13.28907
430.33        13.14553
430.77        12.92387
431.22        13.04619
431.66        13.45678
432.11        13.63968
432.56        13.51841
433.00        13.40287
433.45        13.31715
433.89        13.02069
434.34         12.6857
434.78        12.78657
435.23        13.21576
435.67        13.38337
436.12        13.24352
436.57        13.11745
437.01        13.06242
437.46         13.0388
437.90        13.06104
438.35        13.12747
438.79        13.19925
439.24        13.19279
439.68        13.11473
440.13        13.04853
440.57         12.9849
441.02        12.91503
441.46        12.85014
441.91        12.70195
442.35        12.53807
442.80        12.72454
443.24        13.14337
443.69        13.15897
444.13        12.79741
444.58         12.6478
445.02        12.71127
445.47        12.66583
445.91        12.52627
446.36        12.48156
446.80        12.53626
447.24        12.64257
447.69        12.76247
448.13        12.83676
448.58        12.85062
449.02        12.82392
449.47        12.78653
449.91        12.77722
450.36         12.8073
450.80         12.8599
451.25        12.91494
451.69        12.94091
452.13        12.92853
452.58        12.89828
453.02        12.85719
453.47        12.81514
453.91        12.77415
454.36        12.76574
454.80          12.735
455.24        12.74141
455.69        12.76807
456.13        12.80856
456.58        12.84814
457.02        12.85047
457.46        12.81491
457.91        12.75326
458.35        12.68517
458.79        12.64547
459.24        12.65031
459.68        12.69266
460.13        12.76325
460.57        12.78686
461.01        12.85447
461.46        12.84532
461.90        12.81471
462.34         12.9205
462.79        13.10663
463.23        13.08824
463.68        12.89582
464.12        12.81957
464.56        12.87226
465.01        12.91423
465.45        12.91471
465.89        12.88578
466.34        12.84667
466.78        12.85638
467.22        12.93829
467.67        12.92397
468.11        12.82267
468.55        12.70077
468.99        12.60346
469.44        12.56676
469.88        12.60092
470.32        12.69942
470.77        12.81932
471.21        12.90341
471.65        12.92821
472.10        12.91642
472.54         12.8906
472.98        12.90225
473.42        12.96202
473.87        13.04906
474.31        13.13846
474.75        13.19531
475.20        13.21474
475.64        13.20572
476.08        13.18428
476.52        13.17112
476.97        13.17363
477.41        13.18248
477.85        13.20034
478.29        13.22992
478.74        13.27393
479.18        13.32573
479.62        13.37101
480.06        13.41903
480.50        13.47528
480.95        13.41739
481.39        13.46729
481.83        13.52369
482.27        13.66081
482.72        13.74912
483.16        13.94739
483.60        14.05027
484.04        14.10409
484.48        14.12291
484.93         14.1385
485.37        14.22858
485.81        14.34951
486.25        14.45262
486.69        14.05867
487.14        14.33601
487.58        14.98004
488.02           15.06
488.46        15.07952
488.90        15.27004
489.34        14.86574
489.79        14.88466
490.23        15.02424
490.67        15.32731
491.11         15.6643
491.55        15.68282
491.99        15.46861
492.43        15.51836
492.88        15.85539
493.32        16.15495
493.76        16.35851
494.20        16.55524
494.64        16.73693
495.08        16.87352
495.52        16.96701
495.96        17.06981
496.41        17.19777
496.85        17.23749
497.29        17.22374
497.73        17.52008
498.17        17.85075
498.61        17.94282
499.05        17.76073
499.49        17.71547
499.93        17.84421
500.37        17.98301
500.82        18.10563
501.26        18.21359
501.70        18.29854
502.14        18.38749
502.58        18.49724
503.02        18.63057
503.46        18.78926
503.90         18.9725
504.34        19.15652
504.78        19.30005
505.22        19.39059
505.66        19.43344
506.10         19.4445
506.54        19.47357
506.98        19.53656
507.42         19.5855
507.86        19.59167
508.30        19.72981
508.74        19.63757
509.18        19.61928
509.62        19.60585
510.06        19.66483
510.50        19.80313
510.94         20.0025
511.38        20.21698
511.82        20.35982
512.26        20.40675
512.70        20.38052
513.14        20.31994
513.58        20.28735
514.02        20.30206
514.46        20.34726
514.90         20.4021
515.34        20.43292
515.78        20.43071
516.22         20.4088
516.66        20.38584
517.10        20.38834
517.54        20.41913
517.98        20.46337
518.42        20.49926
518.86        20.49386
519.30        20.44046
519.74        20.35494
520.18        20.25191
520.62        20.15164
521.06        20.06565
521.50         19.9921
521.93        19.94331
522.37        19.93242
522.81        19.96048
523.25        20.01845
523.69        20.08658
524.13         20.1342
524.57        20.15017
525.01        20.13861
525.45        20.09991
525.89        20.03899
526.32        19.95854
526.76        19.86284
527.20        19.76198
527.64        19.67324
528.08        19.60014
528.52        19.54066
528.96        19.48578
529.40        19.41843
529.83        19.33515
530.27        19.24659
530.71         19.1588
531.15        19.08358
531.59        19.02423
532.03        18.97439
532.46        18.93448
532.90        18.91171
533.34        18.90275
533.78        18.90712
534.22        18.90796
534.66        18.87908
535.09        18.81563
535.53        18.73086
535.97        18.64792
536.41         18.6107
536.85        18.62751
537.28        18.68359
537.72         18.7509
538.16        18.78679
538.60        18.78086
539.04        18.75163
539.47        18.71073
539.91        18.69403
540.35        18.70774
540.79        18.74809
541.22          18.817
541.66        18.92128
542.10        19.05581
542.54        19.21703
542.97        19.39477
543.41        19.57385
543.85        19.74716
544.29        19.91932
544.72        20.07451
545.16        20.20526
545.60        20.31121
546.04        20.38818
546.47        20.46737
546.91        20.63025
547.35        20.87098
547.79        21.10499
548.22        21.29916
548.66        21.51702
549.10        21.75791
549.53         21.9148
549.97        21.96728
550.41        22.33558
550.84        22.35542
551.28        22.52462
551.72        22.63827
552.15        22.88837
552.59        22.98793
553.03         23.1654
553.46        23.33325
553.90        23.48153
554.34        23.60316
554.77        23.72857
555.21        23.85567
555.65         23.9166
556.08        23.93476
556.52        24.02778
556.96        24.19227
557.39        24.36522
557.83        24.53544
558.27        24.68463
558.70        24.81963
559.14        24.98163
559.57        25.14489
560.01        25.27647
560.45        25.36343
560.88        25.31492
561.32        25.29639
561.75        25.32271
562.19        25.43053
562.63         25.4874
563.06         25.4932
563.50        25.55548
563.93        25.66133
564.37        25.75639
564.80         25.8309
565.24        25.91514
565.68        26.00751
566.11        26.11746
566.55        26.24629
566.98        26.34853
567.42        26.46564
567.85        26.61283
568.29        26.79595
568.72        27.07757
569.16        27.45232
569.60        27.38494
570.03        27.72177
570.47        27.75698
570.90        27.74449
571.34        28.00705
571.77        28.08189
572.21        28.32468
572.64         28.5278
573.08        28.70318
573.51        28.87704
573.95        28.86498
574.38        28.83633
574.82        29.12074
