SpectraSmart Spectrum 2.9.0.0
--------- Device Information -----------
Spectrum Name :  反射率_0
Saving Time :  2024/04/30 00:43:52
Spectro-Module Model Name : SE2030-DUVN
Spectro-Module Serial Number : OS361AC55029948
Wavelength Start : 200
Wavelength End : 1025
Wavelength Unit : Wavelength(nm)
Spectrum Unit : Reflectance(%)
-----------Spectrum Setting ------------
Integration Time : 20ms
Average : 10
Boxcar : 0
Background removal :  enabled
linearity correction :  enabled
SC :  disabled
Intensity correction :  disabled
DWT denoise :  enabled
savitzky-golay :  disabled
FFT :  disabled
Running average :  disabled
Kalman :  disabled
High pass :  disabled
---------------BEGIN--------------------
Wavelength(nm)             Reflectance(%)
200.29               0
200.75        37.08105
201.21         27.2758
201.67         15.2857
202.13        3.215565
202.58       -7.423782
203.04       -17.14644
203.50       -21.89437
203.96       -13.38004
204.42        9.845434
204.88        44.00209
205.34         75.1825
205.80        83.63313
206.26        71.56635
206.72        51.67084
207.18        33.23635
207.64        21.58945
208.10        15.47752
208.55        11.44082
209.01        9.679615
209.47        11.68041
209.93        16.46603
210.39        23.26564
210.85        28.04906
211.31        26.82542
211.77        18.99357
212.23        3.015993
212.69       -18.23685
213.14       -26.44101
213.60       -13.06027
214.06        10.50116
214.52        30.59245
214.98        38.88586
215.44        37.20383
215.90        29.15333
216.36        18.50963
216.81        12.35242
217.27        14.42324
217.73        23.63044
218.19        39.51686
218.65        54.45515
219.11        60.68377
219.57        59.83061
220.02        55.71054
220.48        51.78717
220.94        47.90261
221.40        42.27096
221.86        34.33768
222.32         26.7476
222.77        22.77783
223.23        22.66371
223.69        23.56732
224.15        23.15712
224.61        21.30781
225.06        18.17853
225.52        15.74269
225.98        17.52198
226.44        23.04806
226.90        29.54666
227.36          34.266
227.81        35.51009
228.27        33.76863
228.73        29.81166
229.19         25.2945
229.65        23.76951
230.10        25.89549
230.56        29.67263
231.02        33.17893
231.48        34.85808
231.93        34.70212
232.39        33.43345
232.85        31.64018
233.31        30.39012
233.77        30.09559
234.22        30.51771
234.68        31.14751
235.14        31.11679
235.60        30.26202
236.05        28.96365
236.51        27.99179
236.97        28.28262
237.43        30.08628
237.88         33.4705
238.34        37.84636
238.80        41.22846
239.26         42.0498
239.71        40.71848
240.17        38.17294
240.63        36.00106
241.08        34.54477
241.54        33.21901
242.00        32.49671
242.46        34.41743
242.91        40.34003
243.37        49.00332
243.83          56.447
244.28        59.76966
244.74        58.91792
245.20        53.72344
245.66         45.4478
246.11        38.23771
246.57        34.81308
247.03        34.60531
247.48        36.36386
247.94        36.42592
248.40        34.58214
248.85        32.87891
249.31        32.21035
249.77        32.67839
250.22        34.40041
250.68        37.51466
251.14        43.26341
251.59        50.84171
252.05        55.75076
252.51         57.3771
252.96        56.85373
253.42        55.71562
253.88         54.0328
254.33        51.29672
254.79        48.64825
255.25        47.86179
255.70        48.76893
256.16        50.51226
256.62        51.68105
257.07        51.23178
257.53        49.73359
257.99        47.61138
258.44        45.41642
258.90        44.55752
259.35        44.72221
259.81        45.43856
260.27        46.12456
260.72        46.37275
261.18         46.3058
261.63        45.90283
262.09        45.30962
262.55        44.43639
263.00        43.33021
263.46        42.21917
263.91        41.07399
264.37        40.07619
264.83        39.17011
265.28        38.27737
265.74        37.54383
266.19        36.99236
266.65          36.674
267.11        36.52945
267.56        36.41449
268.02        36.10798
268.47        35.55072
268.93        34.80634
269.38        33.98767
269.84        33.40762
270.30        33.11682
270.75        33.01566
271.21        32.93297
271.66        32.60319
272.12        31.97498
272.57        31.12221
273.03        30.20524
273.48        29.39772
273.94        28.81328
274.39        28.36281
274.85        28.01061
275.31         27.6448
275.76        27.21646
276.22        26.77429
276.67        26.32635
277.13         25.9582
277.58        25.63414
278.04        25.35637
278.49        25.01555
278.95        24.53827
279.40        23.89404
279.86        23.19689
280.31        22.51603
280.77        22.05499
281.22        21.81619
281.68        21.75519
282.13        21.79785
282.59        21.87427
283.04        21.93386
283.50        21.98409
283.95        21.97958
284.41        21.85633
284.86         21.6076
285.32        21.28955
285.77        20.93401
286.22         20.6524
286.68        20.48134
287.13        20.36272
287.59        20.31728
288.04         20.3206
288.50        20.36736
288.95        20.43581
289.41        20.48658
289.86        20.42715
290.32        20.27122
290.77        20.05184
291.22        19.83401
291.68        19.71911
292.13        19.73002
292.59        19.85343
293.04        20.10826
293.50        20.54136
293.95        21.13876
294.40        21.88577
294.86        22.66017
295.31        23.28521
295.77        23.71751
296.22        23.99351
296.68        24.24233
297.13        24.65288
297.58        25.27036
298.04        25.99539
298.49        26.71984
298.95        27.26949
299.40        27.59878
299.85        27.77713
300.31        27.85917
300.76        27.87321
301.21        27.87816
301.67         27.8733
302.12        27.88694
302.58        28.10021
303.03        28.51601
303.48        28.94506
303.94        29.26705
304.39        30.03492
304.84        29.97596
305.30        30.12576
305.75        30.16331
306.20        30.23323
306.66        30.36414
307.11        30.51593
307.57        30.67086
308.02        30.73528
308.47         30.7075
308.93        30.62436
309.38        30.51686
309.83        30.47644
310.29        30.51698
310.74        30.60283
311.19        30.66815
311.65        30.60626
312.10        30.39729
312.55        30.08444
313.00          29.747
313.46        29.50668
313.91        29.38076
314.36        29.32986
314.82        29.29955
315.27        29.22198
315.72        29.06225
316.18        28.85477
316.63        28.59265
317.08        28.27339
317.53        27.91818
317.99        27.54445
318.44        27.19708
318.89        26.95224
319.35        26.82409
319.80        26.78353
320.25        26.81001
320.70        26.86761
321.16        26.91769
321.61        26.97166
322.06        26.96372
322.51        26.79958
322.97         26.4697
323.42        26.01256
323.87        25.51841
324.32        25.13665
324.78        24.89951
325.23         24.7812
325.68        24.72702
326.13        24.63988
326.59        24.48286
327.04        24.30103
327.49        24.10003
327.94        23.89797
328.39        23.69839
328.85        23.46817
329.30        23.24251
329.75         23.0566
330.20        22.92088
330.66        22.83585
331.11        22.74969
331.56         22.5523
332.01        22.22654
332.46        21.79927
332.92        21.37194
333.37        21.14676
333.82        21.16709
334.27         21.3753
334.72        21.63467
335.17        21.71412
335.63        21.54486
336.08        21.19764
336.53        20.76906
336.98        20.43981
337.43        20.27248
337.88        20.21167
338.34        20.20441
338.79        20.18906
339.24         20.1327
339.69        20.06899
340.14        20.00017
340.59        19.92282
341.05        19.84269
341.50        19.74878
341.95        19.66034
342.40        19.61966
342.85        19.62803
343.30        19.66634
343.75        19.69254
344.20          19.641
344.66        19.50648
345.11        19.30599
345.56         19.0744
346.01        18.86358
346.46        18.70219
346.91        18.58678
347.36        18.51954
347.81        18.50291
348.26         18.5279
348.72        18.58111
349.17        18.65458
349.62        18.73601
350.07        18.80818
350.52        18.86803
350.97        18.87159
351.42        18.75469
351.87         18.5234
352.32         18.2147
352.77        17.91479
353.22         17.7619
353.67        17.79095
354.13        17.95631
354.58        18.20236
355.03        18.43572
355.48        18.61072
355.93        18.74235
356.38        18.80871
356.83        18.78199
357.28         18.6659
357.73        18.46562
358.18         18.2283
358.63         18.0351
359.08        17.90704
359.53        17.82791
359.98        17.76807
360.43        17.67274
360.88        17.53025
361.33        17.36642
361.78        17.19854
362.23        17.05038
362.68        16.93364
363.13        16.84053
363.58        16.77799
364.03        16.75794
364.48        16.77652
364.93        16.82516
365.38        16.88161
365.83         16.9117
366.28        16.90155
366.73        16.85225
367.18        16.77231
367.63        16.67852
368.08        16.57764
368.53        16.47068
368.98        16.35075
369.43        16.20527
369.88        16.03935
370.33        15.86488
370.78          15.711
371.23         15.6229
371.68        15.60517
372.13        15.63443
372.58        15.67613
373.03        15.67546
373.48        15.61134
373.93        15.49808
374.38        15.33599
374.83        15.13001
375.28        14.90102
375.72        14.65735
376.17        14.44842
376.62        14.31406
377.07        14.25732
377.52         14.2555
377.97        14.29863
378.42        14.36461
378.87        14.43653
379.32        14.52231
379.77        14.57166
380.22        14.51322
380.67        14.34249
381.11        14.07177
381.56        13.80607
382.01         13.7183
382.46        13.84086
382.91        14.12247
383.36        14.41736
383.81        14.50145
384.26        14.33296
384.71        13.98242
385.15        13.59154
385.60        13.40695
386.05        13.47012
386.50        13.69768
386.95        13.95693
387.40        14.04199
387.85        13.91106
388.29        13.63858
388.74         13.3451
389.19        13.14319
389.64        13.06151
390.09        13.05112
390.54        13.08658
390.98        13.12898
391.43        13.16172
391.88        13.19978
392.33        13.22036
392.78        13.20061
393.23          13.143
393.67        13.02046
394.12        12.88325
394.57        12.89113
395.02         12.8652
395.47        12.93718
395.91        13.01051
396.36        13.00623
396.81        12.91293
397.26        12.76071
397.71        12.59729
398.15        12.48533
398.60        12.45661
399.05        12.46067
399.50        12.46862
399.95        12.49352
400.39        12.46134
400.84        12.38354
401.29        12.26724
401.74        12.20152
402.18         12.2019
402.63        12.21399
403.08        12.23834
403.53        12.28659
403.97        12.35133
404.42         12.4325
404.87        12.48489
405.32        12.43514
405.76        12.27379
406.21        12.03103
406.66         11.7903
407.11        11.68398
407.55        11.74346
408.00        11.93245
408.45        12.15748
408.90        12.24743
409.34        12.15379
409.79        11.92697
410.24          11.679
410.68         11.5796
411.13        11.66604
411.58         11.8848
412.03        12.12511
412.47          12.201
412.92        12.05779
413.37         11.7724
413.81        11.45731
414.26        11.29502
414.71        11.31376
415.15        11.46054
415.60        11.64734
416.05        11.74509
416.49        11.71299
416.94        11.59732
417.39        11.44793
417.83        11.33927
418.28        11.30016
418.73        11.29878
419.17        11.32132
419.62        11.34911
420.07        11.37256
420.51        11.40199
420.96        11.42777
421.41         11.4263
421.85        11.39168
422.30         11.3378
422.74        11.28097
423.19        11.26792
423.64        11.29963
424.08        11.36977
424.53        11.43914
424.98        11.46278
425.42        11.42832
425.87        11.33959
426.31        11.22383
426.76        11.14285
427.21        11.07424
427.65        11.02935
428.10        10.98811
428.54        10.89894
428.99        10.77142
429.44        10.69553
429.88        10.67155
430.33        10.56433
430.77        10.44747
431.22        10.64064
431.66        11.07649
432.11        11.28617
432.56        11.18995
433.00        11.05606
433.45        10.92065
433.89        10.61757
434.34        10.30647
434.78        10.36428
435.23        10.70033
435.67        10.83367
436.12        10.72535
436.57        10.64062
437.01        10.62175
437.46        10.62689
437.90        10.66499
438.35        10.73373
438.79        10.80921
439.24        10.83616
439.68        10.82081
440.13          10.825
440.57        10.82539
441.02        10.79086
441.46        10.72411
441.91        10.55989
442.35        10.37164
442.80        10.48191
443.24         10.7969
443.69        10.79311
444.13        10.48242
444.58        10.33045
445.02        10.33564
445.47         10.2427
445.91        10.08663
446.36        10.05459
446.80        10.15288
447.24        10.32754
447.69        10.51655
448.13         10.6254
448.58        10.63049
449.02        10.56382
449.47         10.4694
449.91        10.41103
450.36        10.40877
450.80        10.43888
451.25          10.482
451.69        10.50951
452.13        10.50879
452.58        10.49807
453.02        10.47441
453.47        10.43078
453.91        10.36747
454.36        10.31768
454.80        10.24513
455.24        10.21153
455.69        10.20957
456.13        10.22976
456.58         10.2679
457.02        10.30535
457.46        10.33815
457.91        10.36854
458.35        10.38974
458.79        10.39441
459.24        10.39116
459.68        10.38621
460.13        10.39357
460.57        10.38571
461.01        10.44611
461.46        10.46348
461.90        10.47531
462.34        10.59654
462.79        10.77593
463.23        10.78684
463.68        10.64423
464.12        10.57286
464.56        10.58491
465.01        10.57038
465.45        10.52712
465.89         10.4994
466.34        10.50617
466.78        10.58409
467.22        10.72907
467.67        10.75826
468.11        10.66514
468.55        10.51949
468.99        10.37735
469.44        10.29761
469.88        10.29908
470.32        10.36858
470.77        10.46845
471.21        10.55008
471.65         10.5899
472.10        10.60819
472.54        10.61689
472.98        10.64778
473.42        10.70748
473.87        10.78114
474.31        10.85117
474.75        10.89376
475.20        10.90754
475.64        10.89731
476.08        10.88146
476.52        10.88534
476.97        10.91469
477.41        10.95902
477.85        11.00833
478.29        11.04426
478.74        11.06582
479.18        11.07576
479.62        11.07584
480.06        11.09616
480.50        11.14617
480.95        11.11548
481.39        11.18223
481.83        11.25699
482.27        11.39891
482.72        11.50195
483.16        11.69165
483.60        11.78693
484.04        11.80521
484.48         11.7852
484.93        11.79903
485.37        11.85223
485.81        11.80933
486.25        12.30933
486.69        11.52286
487.14        11.74738
487.58        12.31551
488.02        12.61906
488.46        12.46521
488.90        12.98266
489.34        12.51089
489.79        12.60395
490.23        12.73285
490.67        12.92029
491.11        13.08879
491.55        13.07189
491.99        12.94609
492.43        12.99743
492.88        13.24196
493.32        13.48378
493.76        13.67662
494.20        13.86151
494.64        14.02855
495.08        14.15989
495.52        14.25067
495.96        14.33487
496.41        14.42566
496.85        14.43213
497.29        14.39311
497.73        14.62788
498.17        14.91022
498.61        15.00701
499.05        14.88638
499.49          14.889
499.93        15.04207
500.37        15.20685
500.82        15.35029
501.26        15.45703
501.70          15.518
502.14        15.56257
502.58        15.61739
503.02        15.70587
503.46        15.83585
503.90        16.00015
504.34        16.17723
504.78          16.328
505.22        16.43847
505.66        16.51639
506.10        16.56264
506.54        16.59942
506.98        16.63752
507.42        16.63864
507.86        16.60275
508.30        16.71869
508.74        16.68584
509.18        16.74903
509.62         16.8157
510.06        16.88912
510.50        16.96455
510.94        17.04557
511.38        17.12678
511.82        17.19044
512.26        17.23308
512.70        17.25672
513.14        17.27277
513.58        17.30094
514.02        17.34582
514.46        17.40197
514.90        17.45724
515.34        17.49143
515.78        17.49931
516.22        17.48704
516.66        17.46642
517.10        17.45586
517.54        17.45888
517.98        17.46823
518.42        17.47373
518.86        17.45896
519.30        17.42171
519.74        17.37231
520.18         17.3184
520.62        17.26931
521.06        17.23142
521.50        17.20402
521.93        17.19551
522.37        17.21438
522.81        17.25925
523.25        17.31951
523.69        17.38043
524.13        17.42068
524.57        17.43177
525.01        17.41767
525.45        17.37313
525.89        17.29298
526.32        17.18079
526.76        17.04644
527.20        16.91288
527.64        16.81495
528.08        16.75987
528.52        16.74057
528.96         16.7362
529.40        16.71076
529.83        16.65482
530.27        16.58137
530.71        16.50508
531.15        16.45245
531.59        16.42789
532.03        16.41738
532.46        16.40875
532.90        16.38927
533.34         16.3539
533.78        16.31322
534.22        16.26281
534.66        16.19412
535.09        16.10906
535.53        16.01531
535.97        15.93789
536.41        15.92263
536.85        15.97422
537.28         16.0754
537.72        16.18457
538.16        16.23792
538.60        16.22082
539.04        16.15803
539.47        16.07302
539.91        16.01927
540.35        16.00887
540.79        16.03184
541.22         16.0887
541.66        16.18313
542.10        16.30804
542.54        16.46247
542.97        16.63034
543.41        16.78481
543.85        16.91914
544.29        17.04167
544.72        17.14994
545.16        17.25672
545.60        17.36519
546.04        17.46423
546.47        17.57219
546.91        17.74557
547.35        17.97342
547.79        18.18615
548.22         18.3545
548.66        18.53175
549.10         18.7198
549.53        18.82867
549.97        18.84765
550.41        19.14796
550.84        19.16361
551.28        19.31878
551.72        19.43723
552.15        19.68212
552.59        19.80327
553.03        19.99595
553.46        20.17637
553.90         20.3231
554.34        20.42808
554.77        20.52082
555.21        20.60904
555.65         20.6498
556.08        20.66749
556.52        20.75951
556.96        20.91712
557.39        21.07629
557.83        21.22504
558.27        21.35196
558.70        21.46497
559.14        21.60181
559.57        21.74102
560.01        21.85204
560.45        21.92666
560.88        21.88669
561.32        21.87423
561.75        21.91496
562.19        22.03324
562.63        22.07125
563.06        22.04282
563.50        22.11358
563.93        22.26316
564.37         22.3719
564.80        22.42755
565.24        22.49459
565.68        22.57965
566.11        22.68575
566.55        22.81591
566.98        22.93317
567.42        23.05997
567.85        23.18901
568.29        23.32178
568.72        23.51773
569.16         23.7985
569.60        23.72807
570.03        24.04414
570.47        24.14933
570.90        24.23088
571.34        24.41696
571.77        24.47198
572.21        24.57278
572.64         24.6405
573.08         24.7759
573.51        25.01665
573.95        25.11186
574.38        25.26089
574.82        25.55301
