SpectraSmart Spectrum 2.9.0.0
--------- Device Information -----------
Spectrum Name :  反射率_0
Saving Time :  2024/04/30 01:21:10
Spectro-Module Model Name : SE2030-DUVN
Spectro-Module Serial Number : OS361AC55029948
Wavelength Start : 200
Wavelength End : 1025
Wavelength Unit : Wavelength(nm)
Spectrum Unit : Reflectance(%)
-----------Spectrum Setting ------------
Integration Time : 20ms
Average : 10
Boxcar : 0
Background removal :  enabled
linearity correction :  enabled
SC :  disabled
Intensity correction :  disabled
DWT denoise :  enabled
savitzky-golay :  disabled
FFT :  disabled
Running average :  disabled
Kalman :  disabled
High pass :  disabled
---------------BEGIN--------------------
Wavelength(nm)             Reflectance(%)
200.29               0
200.75        71.98612
201.21        51.29568
201.67        29.33831
202.13        15.98918
202.58         15.7797
203.04        27.72894
203.50        48.29821
203.96         68.1088
204.42        81.03748
204.88         87.3563
205.34        86.95406
205.80        82.05868
206.26        75.49331
206.72         68.3017
207.18        61.27217
207.64        54.09675
208.10        46.25208
208.55        37.46975
209.01        29.10085
209.47        25.74009
209.93        28.33574
210.39         34.4446
210.85        40.31804
211.31        42.91248
211.77        42.08921
212.23        38.03493
212.69        32.06179
213.14        30.82918
213.60        36.55922
214.06        45.34142
214.52        52.61276
214.98        55.85858
215.44        55.98183
215.90        54.26191
216.36         52.8027
216.81        55.51458
217.27        64.59235
217.73        80.79227
218.19        102.7592
218.65        118.9294
219.11        120.5304
219.57        111.1967
220.02        100.0575
220.48        94.31178
220.94        93.33591
221.40        95.51029
221.86        98.56142
222.32        96.59827
222.77         89.1809
223.23        81.82823
223.69        77.13922
224.15        76.00402
224.61        77.70796
225.06        81.48819
225.52        86.38972
225.98        89.43574
226.44        89.57358
226.90        88.20023
227.36        86.76135
227.81        86.32274
228.27         86.9954
228.73        88.10777
229.19        89.28815
229.65         89.7239
230.10        89.15923
230.56        88.52023
231.02        87.65851
231.48        86.36697
231.93        84.58781
232.39        82.34367
232.85         80.3874
233.31         80.3141
233.77        82.48071
234.22        86.64792
234.68        90.99573
235.14          92.269
235.60        89.71194
236.05        84.37318
236.51        78.81783
236.97        76.30433
237.43        77.60326
237.88        82.59947
238.34        89.80235
238.80        94.79035
239.26        94.48108
239.71        89.95762
240.17        83.94559
240.63        80.36002
241.08        80.34724
241.54        83.47183
242.00         89.9346
242.46        95.86854
242.91        96.20593
243.37        90.73223
243.83        84.08389
244.28        81.26061
244.74        82.49796
245.20        86.27676
245.66        91.10959
246.11        93.43394
246.57        91.41857
247.03        87.09325
247.48        80.27706
247.94        71.92319
248.40        65.38076
248.85        60.64317
249.31        59.63679
249.77        63.40941
250.22        72.55265
250.68        89.91248
251.14        115.2859
251.59        128.5224
252.05        116.5423
252.51        95.45995
252.96         79.8762
253.42        74.89371
253.88        77.31501
254.33        84.10448
254.79        92.50488
255.25        95.90928
255.70        93.11661
256.16        88.62608
256.62        84.71957
257.07        82.58144
257.53        82.31373
257.99        82.79183
258.44        83.08827
258.90        82.87634
259.35        81.73873
259.81        80.63269
260.27        79.70935
260.72        79.09944
261.18        79.01485
261.63        78.92245
262.09        78.81099
262.55        78.22769
263.00        77.10629
263.46        75.91705
263.91         74.6438
264.37        73.71114
264.83        73.00777
265.28        72.36997
265.74        71.85284
266.19         71.2328
266.65        70.58731
267.11        69.91719
267.56        69.24562
268.02        68.64572
268.47        68.06221
268.93        67.47082
269.38        66.79772
269.84        66.03974
270.30        65.19236
270.75        64.28809
271.21        63.35098
271.66        62.31698
272.12        61.21239
272.57        60.01292
273.03        58.85716
273.48        57.85734
273.94        57.11121
274.39        56.49954
274.85        55.97376
275.31        55.32002
275.76        54.46897
276.22        53.54752
276.67         52.5638
277.13        51.69767
277.58        50.90541
278.04        50.20024
278.49        49.48555
278.95        48.77895
279.40           48.01
279.86        47.29601
280.31        46.56292
280.77        45.86507
281.22        45.16022
281.68        44.48896
282.13        43.89266
282.59        43.53254
283.04        43.35393
283.50        43.31004
283.95        43.19745
284.41        42.75867
284.86        41.94739
285.32        40.94096
285.77        39.88287
286.22        39.07505
286.68        38.59351
287.13        38.29405
287.59        38.14814
288.04        38.03319
288.50        37.91983
288.95        37.79738
289.41        37.62786
289.86        37.28206
290.32        36.78627
290.77        36.17126
291.22        35.54141
291.68        35.07167
292.13        34.80206
292.59        34.71348
293.04        34.79842
293.50        35.07912
293.95        35.51957
294.40        36.12343
294.86        36.75522
295.31        37.21666
295.77        37.46661
296.22        37.53934
296.68        37.60339
297.13        37.90738
297.58        38.50673
298.04        39.28759
298.49        40.08044
298.95        40.62607
299.40        40.85599
299.85        40.86807
300.31        40.78649
300.76        40.73186
301.21        40.78536
301.67        40.92162
302.12         41.0952
302.58          41.382
303.03        41.75787
303.48         42.1076
303.94        42.39104
304.39        43.12635
304.84        43.29113
305.30        43.69024
305.75        43.99649
306.20        44.25074
306.66        44.45961
307.11        44.60174
307.57        44.69747
308.02        44.68809
308.47         44.5942
308.93        44.43996
309.38        44.25756
309.83        44.15243
310.29        44.14777
310.74        44.21718
311.19        44.28015
311.65        44.19979
312.10        43.94828
312.55        43.57378
313.00        43.20452
313.46        43.04034
313.91        43.10243
314.36        43.32387
314.82         43.5574
315.27        43.58852
315.72        43.35281
316.18         42.9335
316.63        42.42645
317.08        41.99639
317.53        41.70432
317.99        41.50983
318.44        41.38216
318.89        41.27946
319.35        41.17696
319.80        41.08661
320.25        41.00957
320.70        40.94177
321.16        40.86216
321.61        40.77846
322.06        40.64339
322.51        40.40397
322.97        40.05715
323.42        39.63095
323.87        39.19438
324.32         38.8585
324.78        38.63905
325.23        38.53182
325.68        38.45982
326.13        38.29451
326.59         37.9995
327.04        37.62914
327.49        37.26146
327.94        37.03938
328.39        36.98931
328.85        37.04312
329.30         37.1329
329.75        37.08156
330.20        36.84029
330.66        36.46201
331.11        36.02903
331.56        35.64064
332.01        35.34101
332.46        35.10684
332.92        34.92448
333.37        34.81631
333.82        34.76294
334.27        34.76018
334.72        34.79344
335.17        34.83255
335.63        34.85434
336.08        34.87373
336.53         34.8378
336.98        34.68711
337.43        34.42376
337.88        34.07171
338.34        33.72541
338.79        33.55608
339.24        33.59037
339.69        33.78556
340.14        34.03754
340.59        34.16563
341.05        34.12162
341.50        33.95978
341.95        33.75202
342.40        33.62173
342.85        33.59848
343.30         33.6243
343.75        33.66362
344.20        33.66685
344.66        33.62389
345.11        33.55933
345.56        33.44943
346.01        33.24723
346.46        32.96824
346.91        32.63498
347.36        32.35061
347.81        32.27103
348.26        32.41438
348.72        32.72404
349.17        33.07865
349.62        33.26388
350.07        33.21686
350.52        33.00218
350.97        32.71153
351.42        32.48507
351.87        32.37129
352.32         32.3369
352.77        32.35166
353.22        32.37035
353.67        32.37214
354.13         32.3602
354.58        32.36214
355.03        32.41796
355.48        32.51735
355.93        32.63276
356.38        32.67194
356.83        32.50052
357.28        32.11203
357.73        31.57018
358.18        31.00233
358.63        30.60637
359.08        30.43179
359.53        30.41624
359.98         30.4851
360.43        30.51455
360.88        30.45852
361.33        30.35473
361.78        30.20336
362.23        30.00315
362.68        29.76769
363.13        29.49587
363.58         29.2274
364.03        29.03238
364.48        28.92437
364.93        28.88212
365.38        28.87513
365.83         28.8497
366.28         28.7834
366.73        28.68773
367.18        28.55407
367.63        28.37046
368.08        28.14072
368.53        27.86952
368.98        27.58762
369.43        27.34651
369.88        27.16498
370.33        27.04011
370.78        26.95236
371.23        26.86423
371.68        26.76327
372.13        26.65346
372.58         26.5543
373.03         26.4989
373.48        26.48368
373.93        26.48478
374.38        26.45636
374.83        26.32921
375.28        26.09704
375.72        25.78962
376.17        25.47316
376.62        25.19279
377.07        24.96504
377.52        24.76906
377.97        24.62636
378.42        24.57242
378.87        24.60186
379.32        24.70193
379.77        24.79416
380.22        24.76018
380.67        24.57919
381.11        24.28043
381.56        23.95508
382.01        23.75779
382.46        23.73083
382.91         23.8331
383.36         23.9714
383.81         24.0025
384.26        23.89358
384.71        23.68389
385.15        23.45383
385.60        23.35826
386.05        23.40792
386.50        23.54338
386.95        23.66043
387.40        23.60105
387.85        23.34759
388.29        22.96583
388.74        22.58094
389.19        22.28688
389.64        22.11057
390.09        22.00707
390.54        21.98141
390.98         22.0384
391.43        22.16421
391.88        22.34622
392.33        22.49502
392.78        22.50721
393.23        22.37761
393.67        22.08894
394.12        21.76008
394.57         21.7096
395.02        21.64956
395.47        21.78819
395.91        21.94975
396.36        21.98203
396.81        21.85666
397.26        21.63463
397.71        21.39736
398.15        21.25282
398.60        21.24902
399.05        21.28972
399.50        21.33084
399.95        21.40789
400.39        21.39153
400.84        21.29616
401.29        21.10354
401.74        20.91366
402.18         20.7516
402.63        20.55831
403.08        20.38644
403.53        20.32888
403.97        20.39209
404.42        20.55261
404.87        20.72556
405.32         20.7703
405.76        20.65088
406.21        20.41371
406.66        20.15168
407.11        20.01533
407.55        20.04618
408.00        20.19993
408.45        20.38445
408.90        20.43278
409.34        20.30211
409.79         20.0469
410.24        19.79243
410.68        19.72456
411.13        19.87887
411.58        20.19223
412.03        20.52898
412.47        20.66009
412.92        20.51516
413.37        20.18678
413.81        19.80055
414.26        19.56866
414.71        19.52518
415.15        19.60848
415.60        19.74009
416.05        19.81123
416.49        19.78507
416.94        19.70836
417.39        19.59931
417.83        19.47678
418.28        19.36206
418.73        19.23978
419.17        19.14882
419.62        19.15788
420.07        19.26846
420.51        19.45259
420.96        19.64298
421.41        19.72099
421.85         19.6566
422.30        19.50878
422.74        19.32073
423.19        19.18834
423.64        19.12766
424.08         19.1195
424.53        19.13911
424.98         19.1773
425.42        19.22546
425.87        19.27326
426.31        19.29923
426.76        19.29586
427.21        19.19549
427.65        19.03994
428.10        18.85198
428.54        18.64672
428.99        18.45968
429.44        18.41247
429.88        18.45394
430.33        18.26619
430.77        17.97244
431.22        18.16414
431.66        18.76048
432.11        19.06689
432.56        18.97574
433.00        18.84071
433.45        18.69425
433.89        18.38268
434.34        18.05433
434.78        18.01095
435.23        18.18352
435.67        18.20136
436.12        18.04416
436.57        17.91164
437.01        17.85339
437.46        17.86352
437.90        17.94746
438.35        18.09542
438.79         18.2452
439.24        18.27023
439.68        18.17688
440.13        18.07731
440.57        17.98659
441.02        17.92848
441.46        17.92049
441.91        17.83936
442.35        17.73138
442.80        17.98302
443.24        18.53319
443.69        18.41361
444.13        17.76492
444.58        17.49907
445.02        17.63351
445.47          17.692
445.91        17.63197
446.36        17.62118
446.80        17.64552
447.24        17.67042
447.69        17.69703
448.13        17.72375
448.58         17.7507
449.02        17.77551
449.47        17.80341
449.91        17.83187
450.36        17.86211
450.80          17.892
451.25        17.91251
451.69        17.90562
452.13        17.86735
452.58        17.81045
453.02        17.74592
453.47        17.68987
453.91        17.64275
454.36        17.65197
454.80        17.62097
455.24        17.59754
455.69        17.55826
456.13        17.50998
456.58        17.47193
457.02        17.45603
457.46        17.46968
457.91        17.50354
458.35        17.54715
458.79        17.59505
459.24         17.6515
459.68         17.7233
460.13        17.80386
460.57        17.80265
461.01        17.85307
461.46        17.78525
461.90        17.68535
462.34        17.79094
462.79        18.02918
463.23         18.0062
463.68        17.75562
464.12        17.65793
464.56        17.72668
465.01        17.77543
465.45        17.76631
465.89        17.72189
466.34        17.66984
466.78        17.68681
467.22        17.80649
467.67        17.80029
468.11        17.68022
468.55        17.53659
468.99         17.4214
469.44        17.36881
469.88        17.39161
470.32        17.48421
470.77         17.6027
471.21        17.68921
471.65        17.71818
472.10        17.71201
472.54        17.69003
472.98        17.70129
473.42        17.75536
473.87        17.83279
474.31        17.90713
474.75         17.9441
475.20        17.94239
475.64        17.91284
476.08        17.87591
476.52        17.85759
476.97        17.86644
477.41        17.88899
477.85        17.93073
478.29        17.99835
478.74          18.093
479.18         18.2005
479.62        18.28907
480.06        18.35327
480.50        18.39847
480.95        18.26584
481.39        18.27469
481.83        18.30448
482.27        18.46526
482.72        18.58693
483.16        18.87143
483.60        19.01558
484.04        19.06709
484.48        19.04801
484.93        19.04064
485.37        19.08748
485.81        19.15814
486.25        19.35783
486.69        19.25168
487.14        19.19037
487.58        19.53864
488.02         19.5261
488.46        19.90555
488.90        20.32468
489.34        19.53325
489.79         19.4855
490.23        19.74948
490.67        20.02564
491.11        20.20352
491.55        20.16444
491.99        19.99673
492.43        20.05393
492.88        20.35552
493.32         20.6467
493.76        20.86498
494.20        21.06722
494.64        21.24166
495.08        21.36097
495.52        21.43001
495.96        21.51285
496.41        21.62827
496.85        21.65243
497.29        21.60864
497.73        21.87963
498.17        22.13439
498.61        22.13931
499.05        21.87451
499.49        21.79488
499.93        21.94713
500.37        22.16721
500.82        22.39412
501.26        22.55612
501.70        22.62874
502.14        22.66763
502.58        22.70786
503.02        22.77702
503.46        22.88836
503.90        23.03238
504.34        23.18987
504.78        23.32744
505.22        23.43245
505.66        23.51162
506.10        23.56137
506.54        23.60307
506.98        23.64657
507.42        23.63906
507.86        23.57543
508.30        23.71598
508.74        23.63328
509.18        23.67634
509.62        23.72066
510.06        23.78231
510.50        23.85779
510.94        23.94939
511.38        24.04699
511.82        24.12126
512.26        24.16539
512.70        24.18332
513.14           24.19
513.58        24.21107
514.02        24.25197
514.46         24.3046
514.90        24.35323
515.34        24.37205
515.78        24.35641
516.22        24.31802
516.66        24.27296
517.10        24.24525
517.54        24.24077
517.98        24.24931
518.42        24.26437
518.86        24.27556
519.30        24.27759
519.74        24.27543
520.18        24.26196
520.62        24.22415
521.06        24.16493
521.50        24.09257
521.93        24.02886
522.37        24.00292
522.81        24.02379
523.25        24.07634
523.69        24.14668
524.13        24.21429
524.57        24.26646
525.01        24.30397
525.45        24.31166
525.89        24.26643
526.32        24.16673
526.76         24.0323
527.20        23.88655
527.64        23.76788
528.08        23.68791
528.52        23.63592
528.96        23.61194
529.40        23.61333
529.83        23.63085
530.27        23.66662
530.71        23.69141
531.15        23.66225
531.59        23.57209
532.03        23.43214
532.46          23.278
532.90        23.17587
533.34        23.14114
533.78        23.16093
534.22        23.20097
534.66        23.20658
535.09         23.1639
535.53        23.09492
535.97        23.03339
536.41        23.03944
536.85        23.12094
537.28        23.25117
537.72        23.38062
538.16         23.4353
538.60        23.39962
539.04        23.30515
539.47        23.18495
539.91        23.11032
540.35         23.0965
540.79        23.13169
541.22        23.20852
541.66        23.31886
542.10        23.45141
542.54        23.60743
542.97        23.77787
543.41        23.94982
543.85         24.1161
544.29        24.28067
544.72         24.4228
545.16        24.53104
545.60        24.60487
546.04        24.63946
546.47        24.67759
546.91        24.82539
547.35        25.07658
547.79        25.32692
548.22        25.52583
548.66        25.73302
549.10        25.94309
549.53        26.03194
549.97        25.98863
550.41        26.33283
550.84        26.28639
551.28        26.43036
551.72        26.51132
552.15        26.73276
552.59        26.75779
553.03        26.86619
553.46        26.96664
553.90        27.06361
554.34        27.15257
554.77        27.25807
555.21        27.38231
555.65        27.45632
556.08        27.50261
556.52        27.65309
556.96        27.87239
557.39        28.03885
557.83        28.13398
558.27        28.15246
558.70         28.1508
559.14        28.25509
559.57        28.45302
560.01        28.68224
560.45        28.87855
560.88        28.86268
561.32        28.80664
561.75        28.74986
562.19        28.76357
562.63        28.75586
563.06        28.73723
563.50         28.7877
563.93         28.8887
564.37        28.99894
564.80        29.10039
565.24        29.20889
565.68        29.32052
566.11        29.44707
566.55        29.58779
566.98         29.6957
567.42        29.80038
567.85        29.88836
568.29        29.95907
568.72        30.12497
569.16        30.45526
569.60        30.31444
570.03        30.62121
570.47        31.03076
570.90        31.21466
571.34        31.25426
571.77        31.48233
572.21        31.55497
572.64        31.64432
573.08        31.67356
573.51        31.65887
573.95        32.08304
574.38        32.22775
574.82        32.25878
