SpectraSmart Spectrum 2.9.0.0
--------- Device Information -----------
Spectrum Name :  反射率_0
Saving Time :  2024/04/30 00:55:06
Spectro-Module Model Name : SE2030-DUVN
Spectro-Module Serial Number : OS361AC55029948
Wavelength Start : 200
Wavelength End : 1025
Wavelength Unit : Wavelength(nm)
Spectrum Unit : Reflectance(%)
-----------Spectrum Setting ------------
Integration Time : 20ms
Average : 10
Boxcar : 0
Background removal :  enabled
linearity correction :  enabled
SC :  disabled
Intensity correction :  disabled
DWT denoise :  enabled
savitzky-golay :  disabled
FFT :  disabled
Running average :  disabled
Kalman :  disabled
High pass :  disabled
---------------BEGIN--------------------
Wavelength(nm)             Reflectance(%)
200.29               0
200.75         40.2636
201.21        36.53681
201.67        31.75128
202.13        26.71362
202.58        22.03786
203.04        17.90278
203.50        16.23569
203.96        21.25351
204.42        33.45054
204.88        50.06194
205.34        64.82032
205.80        69.06745
206.26         63.5919
206.72        54.42272
207.18        44.62628
207.64        35.15021
208.10        25.58306
208.55        14.64859
209.01        4.604067
209.47        2.197038
209.93        8.200229
210.39        18.92789
210.85        28.62476
211.31         32.6286
211.77        30.82053
212.23        23.30396
212.69        12.06312
213.14        8.190659
213.60        16.36159
214.06         29.8436
214.52        40.93234
214.98        45.03465
215.44        43.27369
215.90         37.7517
216.36        31.13719
216.81        28.40212
217.27         32.2272
217.73        42.32875
218.19         57.6243
218.65        69.42978
219.11        70.96561
219.57        65.21902
220.02        57.81406
220.48        52.90652
220.94        49.92687
221.40         47.1235
221.86        43.51838
222.32        38.89752
222.77        34.79436
223.23        32.80873
223.69        31.82029
224.15        30.54378
224.61         28.6449
225.06        25.86743
225.52        23.48793
225.98        23.89993
226.44        27.03611
226.90        31.25915
227.36        34.40919
227.81        35.01828
228.27        33.41791
228.73        30.10616
229.19        26.79221
229.65        26.90419
230.10        30.57875
230.56        35.61396
231.02        39.76332
231.48        41.20306
231.93        40.04254
232.39        37.15815
232.85         33.4776
233.31        30.78987
233.77        29.79444
234.22         30.0743
234.68        31.03158
235.14        31.52719
235.60        31.26015
236.05         30.7786
236.51        30.60619
236.97        31.35584
237.43        33.27834
237.88        36.36816
238.34        40.58406
238.80        45.43671
239.26        49.74149
239.71        53.10876
240.17        54.91694
240.63        55.24915
241.08        54.29056
241.54        51.21064
242.00        45.91639
242.46        41.61823
242.91        42.83974
243.37        49.79915
243.83        58.48092
244.28        64.26671
244.74        66.65356
245.20         66.5162
245.66        64.90191
246.11        64.31816
246.57         66.2188
247.03        70.30745
247.48        74.53281
247.94        74.21221
248.40        69.98041
248.85        64.61837
249.31        61.56037
249.77        62.26975
250.22        66.76311
250.68         75.6061
251.14        88.18624
251.59        93.30811
252.05        84.60327
252.51        71.93175
252.96        61.77417
253.42        55.29706
253.88        50.65387
254.33         46.4574
254.79        43.68007
255.25        43.94597
255.70        46.46834
256.16        49.75254
256.62        52.36377
257.07        53.48024
257.53        53.67148
257.99        53.25695
258.44        52.19424
258.90        51.11717
259.35        49.98741
259.81        49.08007
260.27        48.45565
260.72        48.21814
261.18        48.37213
261.63        48.55667
262.09        48.64806
262.55        48.20723
263.00        47.22064
263.46        46.08654
263.91          44.832
264.37        43.71829
264.83         42.7085
265.28        41.68435
265.74        40.84168
266.19        40.27831
266.65        40.05156
267.11        40.08008
267.56        40.12908
268.02        39.85049
268.47        39.16212
268.93        38.15973
269.38         37.0513
269.84        36.32012
270.30        36.05387
270.75        36.08929
271.21        36.14328
271.66        35.78226
272.12        34.93147
272.57        33.73298
273.03        32.43819
273.48        31.36074
273.94        30.65895
274.39        30.19021
274.85        29.88827
275.31        29.59365
275.76        29.23495
276.22        28.88131
276.67        28.51141
277.13         28.1726
277.58        27.82525
278.04        27.48088
278.49        27.07894
278.95        26.62626
279.40        26.09794
279.86        25.58526
280.31        25.08735
280.77        24.70955
281.22        24.43498
281.68        24.25414
282.13        24.16364
282.59        24.20116
283.04        24.32571
283.50        24.50876
283.95        24.62542
284.41        24.49723
284.86        24.10078
285.32        23.54731
285.77        22.94763
286.22        22.52615
286.68        22.34331
287.13        22.30295
287.59        22.37533
288.04        22.45617
288.50        22.51946
288.95         22.5646
289.41        22.58636
289.86        22.53838
290.32         22.4424
290.77        22.30853
291.22        22.16873
291.68        22.07419
292.13        22.04109
292.59        22.08675
293.04        22.26201
293.50        22.66087
293.95        23.28282
294.40        24.09838
294.86        24.98105
295.31        25.74843
295.77        26.34195
296.22        26.78667
296.68        27.18945
297.13          27.702
297.58         28.3651
298.04        29.10213
298.49        29.80581
298.95        30.30927
299.40        30.58174
299.85        30.69329
300.31        30.76484
300.76        30.91857
301.21        31.21651
301.67        31.62497
302.12        32.05376
302.58        32.50559
303.03        32.94993
303.48        33.26422
303.94        33.45155
304.39        34.20788
304.84        34.36934
305.30        34.84275
305.75        35.21882
306.20        35.47623
306.66        35.60872
307.11        35.63531
307.57        35.61523
308.02         35.5549
308.47        35.48617
308.93        35.41505
309.38        35.34607
309.83        35.33584
310.29        35.38774
310.74        35.48018
311.19        35.55851
311.65        35.52832
312.10        35.36695
312.55        35.10558
313.00        34.81072
313.46        34.58765
313.91        34.45039
314.36        34.37049
314.82        34.29721
315.27        34.16951
315.72        33.95908
316.18        33.69855
316.63        33.40087
317.08        33.09484
317.53        32.80121
317.99        32.52432
318.44        32.26988
318.89        32.05125
319.35        31.87099
319.80        31.72445
320.25        31.62399
320.70        31.58847
321.16        31.59758
321.61        31.64723
322.06        31.67206
322.51        31.57759
322.97        31.34355
323.42        31.00728
323.87        30.62267
324.32        30.28235
324.78        30.00772
325.23         29.7891
325.68        29.61098
326.13        29.45005
326.59        29.29074
327.04        29.15835
327.49         29.0316
327.94        28.88409
328.39        28.70311
328.85        28.46957
329.30        28.22178
329.75         27.9899
330.20        27.78976
330.66        27.61976
331.11        27.45361
331.56        27.22173
332.01        26.91442
332.46        26.54873
332.92        26.19341
333.37        25.99847
333.82         25.9882
334.27        26.12109
334.72        26.28728
335.17         26.3005
335.63         26.1107
336.08        25.78679
336.53        25.41232
336.98        25.14781
337.43        25.04551
337.88        25.04558
338.34        25.11494
338.79        25.22447
339.24        25.33872
339.69        25.47783
340.14        25.57534
340.59        25.51786
341.05        25.29633
341.50        24.94117
341.95        24.57553
342.40        24.40428
342.85        24.46705
343.30        24.69696
343.75        24.96641
344.20        25.06855
344.66        24.95459
345.11        24.68085
345.56        24.33126
346.01        24.03698
346.46        23.85041
346.91        23.74045
347.36        23.67954
347.81        23.62827
348.26        23.57093
348.72        23.51608
349.17        23.48928
349.62        23.52585
350.07        23.62164
350.52        23.75484
350.97        23.85454
351.42        23.81826
351.87        23.63723
352.32        23.35337
352.77         23.0597
353.22        22.90717
353.67        22.93336
354.13        23.08715
354.58        23.30161
355.03        23.46767
355.48        23.54174
355.93        23.55099
356.38        23.50014
356.83        23.39749
357.28        23.25513
357.73         23.0701
358.18        22.86528
358.63        22.68324
359.08        22.53421
359.53        22.40879
359.98        22.29996
360.43        22.19015
360.88        22.07245
361.33        21.95787
361.78        21.82996
362.23        21.66062
362.68        21.45424
363.13        21.22508
363.58        21.01802
364.03        20.90464
364.48        20.89567
364.93        20.96099
365.38        21.05853
365.83        21.11994
366.28        21.11999
366.73         21.0768
367.18        20.98911
367.63        20.85817
368.08        20.69212
368.53        20.48789
368.98        20.28264
369.43         20.1381
369.88        20.06881
370.33         20.0667
370.78        20.08151
371.23         20.0261
371.68        19.87953
372.13        19.66211
372.58         19.4347
373.03        19.29711
373.48        19.26696
373.93        19.30801
374.38        19.34761
374.83        19.26862
375.28          19.051
375.72         18.7414
376.17        18.42573
376.62        18.18739
377.07        18.04933
377.52          17.978
377.97        17.96332
378.42        17.98984
378.87        18.04026
379.32        18.11713
379.77        18.18161
380.22        18.17516
380.67        18.08794
381.11        17.92904
381.56        17.74824
382.01        17.63093
382.46        17.60098
382.91        17.63874
383.36        17.69098
383.81        17.67484
384.26        17.57225
384.71        17.40484
385.15         17.2235
385.60        17.13338
386.05        17.13877
386.50        17.20337
386.95        17.25541
387.40          17.184
387.85         16.9814
388.29        16.69666
388.74        16.42416
389.19        16.23396
389.64        16.14443
390.09        16.11636
390.54        16.15479
390.98        16.26553
391.43        16.42774
391.88        16.62379
392.33        16.76686
392.78        16.75261
393.23        16.58086
393.67        16.25834
394.12        15.89657
394.57        15.76126
395.02        15.65195
395.47        15.70566
395.91        15.80204
396.36        15.83964
396.81        15.79147
397.26        15.69704
397.71        15.57438
398.15        15.43983
398.60         15.3289
399.05        15.20068
399.50        15.07528
399.95        15.05039
400.39        15.05122
400.84        15.06687
401.29        15.06052
401.74        15.05713
402.18        15.04897
402.63        14.99687
403.08        14.93422
403.53        14.92566
403.97        14.97723
404.42        15.06972
404.87        15.14152
405.32        15.09528
405.76        14.91349
406.21        14.63823
406.66        14.35864
407.11        14.21313
407.55        14.23741
408.00        14.39306
408.45         14.5899
408.90        14.66297
409.34        14.56646
409.79        14.35036
410.24        14.12563
410.68        14.05989
411.13        14.18734
411.58        14.45103
412.03        14.73489
412.47        14.84427
412.92        14.71899
413.37        14.43771
413.81        14.11012
414.26        13.91893
414.71        13.89296
415.15        13.97944
415.60        14.10248
416.05        14.15479
416.49         14.1026
416.94        13.99133
417.39        13.85236
417.83        13.72738
418.28        13.64096
418.73        13.57262
419.17         13.5386
419.62        13.56869
420.07        13.65829
420.51        13.79377
420.96        13.93143
421.41        13.99365
421.85        13.96021
422.30        13.86854
422.74        13.74746
423.19        13.66475
423.64        13.63057
424.08        13.63226
424.53        13.64849
424.98        13.66872
425.42        13.68683
425.87        13.69812
426.31        13.69075
426.76        13.66598
427.21        13.57751
427.65         13.4537
428.10        13.31371
428.54        13.16962
428.99        13.04735
429.44         13.0324
429.88        13.07843
430.33        12.94736
430.77        12.72219
431.22        12.82242
431.66        13.20579
432.11        13.38812
432.56        13.29838
433.00        13.23257
433.45        13.19156
433.89        12.89575
434.34        12.50978
434.78        12.52067
435.23          12.846
435.67        12.94904
436.12        12.79908
436.57        12.69786
437.01         12.6875
437.46         12.7066
437.90        12.76073
438.35        12.85336
438.79        12.95501
439.24        12.99776
439.68        12.98718
440.13        12.99377
440.57        12.99148
441.02        12.94587
441.46        12.86309
441.91        12.66894
442.35        12.44406
442.80        12.56527
443.24        12.91848
443.69        12.87615
444.13        12.47833
444.58        12.31521
445.02        12.38703
445.47        12.37651
445.91        12.27945
446.36        12.25068
446.80        12.28843
447.24        12.35433
447.69        12.42712
448.13        12.47541
448.58        12.49126
449.02        12.48508
449.47        12.47664
449.91        12.48899
450.36        12.52885
450.80        12.58609
451.25        12.64299
451.69        12.67168
452.13        12.66363
452.58        12.63416
453.02        12.59464
453.47        12.56278
453.91        12.54108
454.36        12.56104
454.80        12.55316
455.24        12.55087
455.69        12.53567
456.13        12.50968
456.58        12.48772
457.02        12.47927
457.46        12.48929
457.91        12.51173
458.35        12.53129
458.79        12.52989
459.24        12.51335
459.68        12.49363
460.13        12.48704
460.57        12.45971
461.01        12.51189
461.46        12.51245
461.90        12.50497
462.34        12.62733
462.79        12.81918
463.23        12.80971
463.68        12.62656
464.12         12.5495
464.56        12.59206
465.01        12.61703
465.45        12.60434
465.89         12.5816
466.34        12.56904
466.78        12.62016
467.22        12.74499
467.67        12.75354
468.11        12.64772
468.55        12.50012
468.99        12.37023
469.44        12.31699
469.88        12.35696
470.32        12.47736
470.77        12.62385
471.21        12.72105
471.65        12.73986
472.10        12.70696
472.54        12.65645
472.98        12.65714
473.42        12.72271
473.87        12.82751
474.31        12.93007
474.75        12.96995
475.20        12.94014
475.64        12.86081
476.08        12.77259
476.52        12.73339
476.97        12.75793
477.41        12.82426
477.85        12.91272
478.29        12.98948
478.74        13.04647
479.18         13.0886
479.62        13.11441
480.06        13.15246
480.50        13.21475
480.95        13.17404
481.39        13.24357
481.83        13.31982
482.27        13.47094
482.72        13.56594
483.16        13.76374
483.60        13.86224
484.04        13.90602
484.48        13.92476
484.93        13.93334
485.37        13.96348
485.81        13.99257
486.25        14.05758
486.69        13.59696
487.14        13.90755
487.58        14.72701
488.02        14.59799
488.46          14.755
488.90        15.02841
489.34        14.59953
489.79        14.57619
490.23        14.60314
490.67        14.82768
491.11        15.13794
491.55        15.20492
491.99        15.08425
492.43        15.17691
492.88        15.49292
493.32        15.75649
493.76        15.93062
494.20         16.1169
494.64        16.31344
495.08        16.48477
495.52        16.61342
495.96        16.71982
496.41        16.81365
496.85        16.79672
497.29        16.72411
497.73        16.97862
498.17        17.30037
498.61        17.41602
499.05        17.27819
499.49        17.26581
499.93        17.40869
500.37        17.55296
500.82        17.67604
501.26        17.78452
501.70        17.87169
502.14        17.95979
502.58        18.06583
503.02         18.1948
503.46        18.34897
503.90        18.52939
504.34        18.70932
504.78        18.84142
505.22        18.91381
505.66        18.93499
506.10        18.92981
506.54         18.9617
506.98        19.04759
507.42        19.13278
507.86        19.17864
508.30        19.33974
508.74        19.25507
509.18        19.22838
509.62        19.19162
510.06        19.21059
510.50         19.2963
510.94        19.43337
511.38        19.59075
511.82        19.70683
512.26        19.76267
512.70        19.77277
513.14         19.7611
513.58        19.76579
514.02        19.79776
514.46        19.84571
514.90        19.89007
515.34        19.90069
515.78        19.87192
516.22        19.81593
516.66        19.75872
517.10        19.73873
517.54        19.76214
517.98        19.81386
518.42        19.86491
518.86        19.86921
519.30        19.81615
519.74        19.72328
520.18        19.61388
520.62        19.52218
521.06        19.46149
521.50        19.42562
521.93        19.41128
522.37        19.40666
522.81          19.409
523.25        19.41874
523.69        19.43808
524.13        19.47006
524.57        19.50987
525.01        19.54942
525.45        19.57006
525.89        19.54517
526.32        19.46803
526.76        19.35406
527.20        19.22281
527.64        19.10496
528.08        19.01134
528.52        18.93777
528.96        18.87804
529.40        18.82092
529.83        18.76123
530.27        18.70334
530.71        18.65082
531.15         18.6109
531.59        18.58192
532.03        18.55869
532.46        18.52521
532.90        18.46335
533.34        18.37284
533.78         18.2681
534.22        18.16785
534.66         18.0994
535.09        18.06831
535.53        18.06913
535.97        18.09807
536.41        18.15408
536.85        18.22783
537.28        18.31424
537.72         18.3874
538.16        18.41004
538.60        18.37701
539.04        18.30499
539.47        18.21471
539.91        18.15749
540.35        18.14387
540.79        18.16846
541.22        18.22988
541.66        18.32711
542.10        18.45193
542.54        18.60297
542.97         18.7686
543.41        18.93044
543.85         19.0826
544.29        19.23219
544.72        19.36691
545.16        19.48508
545.60        19.58818
546.04        19.66925
546.47        19.76217
546.91        19.95137
547.35        20.22842
547.79        20.50658
548.22        20.73858
548.66        20.96459
549.10        21.18076
549.53        21.28984
549.97        21.28698
550.41        21.60402
550.84        21.60629
551.28        21.76954
551.72        21.88921
552.15        22.13964
552.59        22.23985
553.03        22.41587
553.46        22.58339
553.90        22.73275
554.34        22.85663
554.77        22.98124
555.21        23.10865
555.65        23.17704
556.08        23.20844
556.52        23.32285
556.96        23.50768
557.39        23.65384
557.83        23.80246
558.27        23.89807
558.70        23.98265
559.14        24.12565
559.57        24.30863
560.01        24.48929
560.45        24.63156
560.88         24.6138
561.32        24.59114
561.75        24.58657
562.19        24.65553
562.63        24.71129
563.06        24.75539
563.50        24.85535
563.93        24.99179
564.37        25.12249
564.80        25.23126
565.24        25.33651
565.68          25.431
566.11        25.52006
566.55        25.60775
566.98        25.65729
567.42        25.71872
567.85        25.82009
568.29         25.9679
568.72        26.22921
569.16         26.6163
569.60        26.58173
570.03        26.93413
570.47        27.16337
570.90        27.20961
571.34        27.44192
571.77        27.52179
572.21        27.62375
572.64         27.6649
573.08        27.81583
573.51        28.10182
573.95        28.03746
574.38        28.24132
574.82        28.25836
