SpectraSmart Spectrum 2.9.0.0
--------- Device Information -----------
Spectrum Name :  反射率_0
Saving Time :  2024/04/30 01:05:39
Spectro-Module Model Name : SE2030-DUVN
Spectro-Module Serial Number : OS361AC55029948
Wavelength Start : 200
Wavelength End : 1025
Wavelength Unit : Wavelength(nm)
Spectrum Unit : Reflectance(%)
-----------Spectrum Setting ------------
Integration Time : 20ms
Average : 10
Boxcar : 0
Background removal :  enabled
linearity correction :  enabled
SC :  disabled
Intensity correction :  disabled
DWT denoise :  enabled
savitzky-golay :  disabled
FFT :  disabled
Running average :  disabled
Kalman :  disabled
High pass :  disabled
---------------BEGIN--------------------
Wavelength(nm)             Reflectance(%)
200.29               0
200.75        38.20466
201.21        22.18834
201.67        3.714702
202.13       -9.388846
202.58       -13.49816
203.04       -9.332971
203.50        1.617579
203.96        14.96131
204.42        27.30527
204.88        38.52521
205.34        46.45184
205.80        48.74023
206.26        46.46575
206.72        41.76538
207.18         36.4332
207.64        31.30508
208.10        26.16405
208.55        20.47967
209.01        15.23553
209.47        13.71578
209.93         16.3582
210.39        21.45437
210.85        25.98428
211.31        27.38194
211.77        25.43828
212.23        19.94923
212.69        12.10262
213.14        9.210857
213.60         14.2466
214.06         23.0125
214.52        30.31742
214.98        32.92231
215.44        31.64217
215.90        28.05618
216.36        24.01091
216.81        22.98659
217.27        27.01869
217.73          35.774
218.19        49.24483
218.65        62.10006
219.11        68.15551
219.57        67.80328
220.02        63.82396
220.48        59.00147
220.94         53.0091
221.40        44.18672
221.86        32.66319
222.32        23.83994
222.77        21.82204
223.23        24.78554
223.69        28.24113
224.15        29.17552
224.61        27.73847
225.06         24.4999
225.52        21.56916
225.98        22.81964
226.44        28.02187
226.90        34.27627
227.36        38.84777
227.81        40.05309
228.27        38.33635
228.73        34.43041
229.19        29.88892
229.65        28.07311
230.10         29.6942
230.56         32.9658
231.02        35.98553
231.48        37.16205
231.93        36.46049
232.39        34.55381
232.85         32.1889
233.31        30.76212
233.77        30.74081
234.22        31.78987
234.68        33.04325
235.14        32.95668
235.60        31.26414
236.05        28.70008
236.51        26.42452
236.97        25.84388
237.43        27.30119
237.88        30.61864
238.34        35.47836
238.80        40.37503
239.26        43.61472
239.71        45.29543
240.17        45.14355
240.63        43.34575
241.08        39.85011
241.54        33.23279
242.00        23.52631
242.46         17.2848
242.91        22.59115
243.37        38.80807
243.83        57.22827
244.28        69.40228
244.74        74.90839
245.20        75.28069
245.66        71.10965
246.11        64.71191
246.57        57.92815
247.03        49.91197
247.48        42.44907
247.94        39.50654
248.40        41.52179
248.85        46.28063
249.31        50.87458
249.77        53.23008
250.22         53.7104
250.68        52.46988
251.14        50.26245
251.59        51.05919
252.05        55.49877
252.51        59.85558
252.96        61.67577
253.42        60.86528
253.88        57.81789
254.33        52.91578
254.79        47.87659
255.25        45.78964
255.70        46.88979
256.16        49.41958
256.62         51.6207
257.07        52.39429
257.53        52.22831
257.99        51.47672
258.44        50.34874
258.90        49.74604
259.35        49.40302
259.81        49.27765
260.27        49.05355
260.72        48.50891
261.18        47.80203
261.63        46.85477
262.09        45.86085
262.55        44.79675
263.00        43.69371
263.46        42.73238
263.91        41.79483
264.37        40.96828
264.83        40.17468
265.28        39.34101
265.74        38.64568
266.19        38.16078
266.65        37.93114
267.11        37.86477
267.56        37.75221
268.02        37.28415
268.47        36.39337
268.93        35.18426
269.38        33.85282
269.84        32.86229
270.30        32.32452
270.75        32.11255
271.21        32.00872
271.66        31.66734
272.12        31.01267
272.57        30.14831
273.03        29.24239
273.48        28.47971
273.94        27.97022
274.39        27.59942
274.85        27.33355
275.31         27.0758
275.76        26.77085
276.22        26.46002
276.67        26.11579
277.13        25.77077
277.58        25.39152
278.04        25.00824
278.49        24.56606
278.95        24.06578
279.40        23.49156
279.86        22.93237
280.31        22.41525
280.77        22.08096
281.22         21.9103
281.68        21.86657
282.13        21.90324
282.59        21.99157
283.04        22.08399
283.50        22.17469
283.95        22.17269
284.41        21.94696
284.86        21.49497
285.32        20.91447
285.77        20.31173
286.22         19.8998
286.68        19.72962
287.13         19.7029
287.59        19.78898
288.04        19.88421
288.50        19.95726
288.95        20.01245
289.41        20.01863
289.86        19.89514
290.32         19.6673
290.77        19.36549
291.22        19.07654
291.68        18.94166
292.13        18.98719
292.59        19.18111
293.04         19.5211
293.50          20.018
293.95        20.64843
294.40        21.41381
294.86        22.17814
295.31        22.74557
295.77        23.07608
296.22        23.20605
296.68        23.32453
297.13        23.71564
297.58        24.43768
298.04         25.3674
298.49        26.29894
298.95        26.90288
299.40        27.11107
299.85        27.04806
300.31        26.88882
300.76        26.84561
301.21        27.01143
301.67        27.31948
302.12        27.69057
302.58        28.14401
303.03        28.64531
303.48        29.05992
303.94        29.33951
304.39        30.14458
304.84        30.22716
305.30        30.57413
305.75         30.8163
306.20        31.02849
306.66        31.21961
307.11        31.37707
307.57        31.50545
308.02         31.5387
308.47        31.48907
308.93        31.38805
309.38        31.27031
309.83        31.23426
310.29         31.2967
310.74        31.42468
311.19         31.5507
311.65        31.56264
312.10        31.43558
312.55        31.20836
313.00        30.95835
313.46        30.80553
313.91        30.76555
314.36        30.80087
314.82        30.84606
315.27        30.81702
315.72        30.67811
316.18        30.46703
316.63        30.20407
317.08        29.93126
317.53        29.67358
317.99        29.42977
318.44        29.20408
318.89        29.00845
319.35        28.84266
319.80        28.70103
320.25         28.5937
320.70        28.53395
321.16        28.50345
321.61        28.50492
322.06        28.47156
322.51        28.30655
322.97        27.99445
323.42        27.57257
323.87        27.12312
324.32        26.78066
324.78        26.57055
325.23        26.46962
325.68        26.40989
326.13        26.27697
326.59         26.0342
327.04        25.73135
327.49        25.41053
327.94        25.14938
328.39        24.96387
328.85        24.80799
329.30        24.67027
329.75        24.49771
330.20        24.27838
330.66        24.04018
331.11        23.78418
331.56        23.48519
332.01         23.1479
332.46         22.7701
332.92        22.41822
333.37        22.23553
333.82        22.24232
334.27        22.40206
334.72        22.58624
335.17        22.57565
335.63        22.31352
336.08        21.86888
336.53        21.35931
336.98        21.00343
337.43        20.86951
337.88        20.88883
338.34         20.9834
338.79        21.04907
339.24        21.03762
339.69        20.99269
340.14        20.91183
340.59        20.78857
341.05        20.63318
341.50        20.43257
341.95        20.23637
342.40        20.13504
342.85        20.13901
343.30        20.22228
343.75        20.29875
344.20        20.22822
344.66          19.992
345.11        19.62926
345.56        19.23326
346.01        18.95128
346.46        18.82738
346.91        18.81957
347.36        18.86842
347.81        18.88253
348.26        18.83499
348.72        18.75298
349.17        18.66296
349.62        18.61246
350.07        18.60911
350.52        18.62248
350.97        18.62838
351.42         18.5935
351.87        18.51481
352.32        18.42226
352.77        18.31613
353.22        18.19412
353.67        18.06712
354.13        17.92892
354.58        17.84513
355.03        17.92196
355.48         18.1599
355.93        18.51425
356.38        18.84549
356.83        18.94355
357.28        18.77156
357.73        18.39552
358.18        17.95434
358.63        17.67042
359.08        17.59742
359.53        17.66574
359.98        17.77412
360.43        17.75971
360.88        17.58207
361.33        17.30625
361.78        16.99702
362.23        16.74981
362.68        16.59686
363.13        16.50385
363.58        16.45285
364.03        16.41932
364.48        16.38837
364.93         16.3688
365.38        16.34966
365.83        16.31015
366.28        16.24625
366.73        16.15894
367.18        16.05816
367.63        15.96477
368.08        15.88345
368.53        15.80717
368.98        15.73477
369.43        15.66211
369.88        15.58915
370.33        15.52467
370.78        15.45834
371.23        15.37228
371.68        15.26511
372.13        15.13627
372.58        15.01802
373.03        14.96442
373.48        14.97711
373.93         15.0324
374.38        15.07085
374.83        14.99497
375.28        14.79237
375.72        14.50646
376.17        14.20782
376.62        13.96599
377.07        13.80259
377.52          13.688
377.97        13.63893
378.42        13.68112
378.87        13.80307
379.32        13.99535
379.77          14.172
380.22        14.20545
380.67        14.07572
381.11        13.81117
381.56        13.52194
382.01        13.39225
382.46        13.46593
382.91        13.69033
383.36        13.94267
383.81        14.03446
384.26        13.92798
384.71        13.68307
385.15        13.41189
385.60        13.31238
386.05        13.41151
386.50        13.63632
386.95         13.8704
387.40        13.93614
387.85        13.79947
388.29        13.52558
388.74        13.22606
389.19        13.00069
389.64        12.87815
390.09        12.82018
390.54        12.81124
390.98        12.82742
391.43        12.85659
391.88        12.90541
392.33         12.9505
392.78        12.96866
393.23        12.95698
393.67        12.88619
394.12         12.7894
394.57        12.80133
395.02        12.74145
395.47        12.74715
395.91        12.74406
396.36        12.69239
396.81        12.59184
397.26        12.46138
397.71        12.32872
398.15        12.22579
398.60        12.17772
399.05         12.1459
399.50        12.11355
399.95        12.10857
400.39        12.06161
400.84         11.9764
401.29        11.85511
401.74        11.77672
402.18        11.75548
402.63        11.74652
403.08        11.74978
403.53        11.77362
403.97        11.81241
404.42        11.86467
404.87        11.90165
405.32        11.87694
405.76        11.78102
406.21        11.63168
406.66        11.47888
407.11        11.40417
407.55        11.42855
408.00        11.53041
408.45        11.64693
408.90        11.66315
409.34        11.55004
409.79        11.34357
410.24         11.1355
410.68        11.06294
411.13        11.15426
411.58        11.36825
412.03        11.60271
412.47        11.68464
412.92        11.56228
413.37        11.30213
413.81        11.01322
414.26        10.87605
414.71         10.9166
415.15        11.08319
415.60        11.28011
416.05        11.36449
416.49        11.29494
416.94        11.12389
417.39        10.91654
417.83        10.77197
418.28        10.72486
418.73        10.73554
419.17        10.77942
419.62        10.81986
420.07        10.84048
420.51        10.85675
420.96        10.85962
421.41        10.82652
421.85        10.75605
422.30        10.66466
422.74        10.57458
423.19        10.53996
423.64        10.56407
424.08        10.63779
424.53        10.72468
424.98        10.78229
425.42        10.79424
425.87        10.75996
426.31          10.692
426.76         10.6303
427.21        10.54929
427.65        10.46534
428.10        10.37145
428.54        10.23897
428.99        10.08692
429.44        9.998324
429.88        9.970844
430.33        9.874566
430.77         9.77485
431.22        9.968061
431.66         10.3957
432.11        10.62321
432.56        10.57301
433.00        10.49495
433.45        10.40228
433.89         10.0989
434.34        9.736072
434.78        9.687767
435.23        9.897938
435.67        9.970181
436.12        9.880128
436.57        9.854029
437.01        9.907471
437.46        9.960182
437.90        10.00659
438.35        10.05969
438.79        10.10167
439.24        10.08822
439.68        10.03108
440.13         9.98154
440.57        9.937574
441.02        9.904431
441.46        9.887888
441.91        9.818155
442.35         9.72323
442.80        9.852336
443.24        10.10992
443.69        10.01766
444.13        9.638646
444.58         9.47627
445.02        9.539395
445.47        9.570775
445.91        9.546784
446.36        9.557212
446.80        9.592214
447.24        9.631968
447.69         9.67165
448.13        9.705639
448.58        9.731524
449.02        9.750306
449.47        9.765874
449.91        9.780363
450.36         9.79479
450.80        9.806448
451.25        9.812566
451.69        9.809657
452.13        9.794369
452.58         9.77433
453.02        9.744773
453.47        9.698723
453.91         9.63526
454.36        9.587953
454.80        9.521165
455.24        9.486742
455.69        9.476815
456.13        9.483415
456.58        9.504608
457.02        9.526988
457.46        9.547544
457.91        9.566078
458.35         9.57573
458.79        9.568356
459.24        9.551805
459.68        9.533379
460.13        9.524985
460.57        9.498507
461.01        9.532147
461.46        9.526554
461.90        9.522375
462.34        9.632734
462.79        9.812388
463.23        9.850462
463.68        9.753959
464.12        9.719807
464.56        9.754202
465.01        9.755716
465.45        9.718373
465.89        9.678192
466.34        9.653602
466.78        9.681055
467.22        9.761627
467.67        9.739421
468.11        9.614893
468.55        9.450667
468.99        9.300587
469.44         9.22056
469.88        9.226521
470.32        9.307071
470.77        9.418714
471.21        9.502398
471.65        9.533338
472.10        9.533543
472.54        9.524597
472.98        9.554659
473.42        9.631633
473.87        9.732062
474.31         9.82938
474.75        9.884834
475.20        9.893466
475.64        9.869056
476.08        9.829357
476.52        9.798027
476.97        9.785433
477.41        9.782916
477.85        9.798982
478.29         9.84552
478.74        9.922264
479.18        10.01816
479.62        10.10785
480.06        10.17594
480.50        10.22165
480.95        10.16128
481.39        10.16823
481.83        10.17582
482.27        10.24688
482.72        10.28552
483.16        10.42062
483.60        10.50409
484.04        10.56347
484.48        10.62685
484.93        10.72492
485.37        10.79874
485.81        10.81267
486.25        11.01025
486.69        10.81185
487.14        10.78919
487.58         11.4316
488.02        11.28677
488.46        11.36187
488.90        11.80683
489.34        11.27153
489.79        11.31165
490.23        11.43249
490.67        11.67962
491.11        11.94521
491.55        11.97034
491.99        11.82701
492.43        11.88678
492.88        12.16859
493.32        12.42258
493.76         12.6038
494.20        12.78369
494.64        12.95454
495.08        13.08899
495.52        13.18594
495.96        13.28189
496.41        13.38883
496.85        13.42399
497.29          13.411
497.73        13.62749
498.17         13.8598
498.61        13.89608
499.05        13.73214
499.49        13.72067
499.93        13.89448
500.37        14.11743
500.82        14.32803
501.26         14.4623
501.70        14.50065
502.14        14.48322
502.58        14.47148
503.02         14.5463
503.46        14.72604
503.90        14.98415
504.34        15.25672
504.78        15.43491
505.22        15.48917
505.66        15.45307
506.10        15.37066
506.54        15.33056
506.98        15.36188
507.42        15.40703
507.86        15.44205
508.30         15.6044
508.74        15.59854
509.18        15.66447
509.62        15.71871
510.06        15.76745
510.50        15.81046
510.94         15.8499
511.38        15.88588
511.82        15.91338
512.26        15.93374
512.70        15.94737
513.14        15.96787
513.58        16.01596
514.02        16.09352
514.46        16.19395
514.90        16.29186
515.34        16.34519
515.78        16.34459
516.22        16.30251
516.66        16.24698
517.10        16.22325
517.54        16.24125
517.98        16.28465
518.42         16.3314
518.86        16.34587
519.30          16.318
519.74        16.26187
520.18        16.18816
520.62        16.11123
521.06        16.03923
521.50        15.97037
521.93        15.91204
522.37        15.87169
522.81        15.85345
523.25        15.85597
523.69        15.87162
524.13        15.88795
524.57        15.89694
525.01        15.89328
525.45        15.87718
525.89         15.8516
526.32        15.81413
526.76        15.76984
527.20        15.70396
527.64        15.59515
528.08        15.44677
528.52        15.27165
528.96        15.10803
529.40        15.01502
529.83        15.00326
530.27        15.05513
530.71         15.1293
531.15        15.16123
531.59        15.13138
532.03        15.05576
532.46        14.95675
532.90        14.87589
533.34        14.82533
533.78         14.7949
534.22        14.76964
534.66        14.72735
535.09        14.66332
535.53        14.59243
535.97        14.53382
536.41        14.52054
536.85        14.55647
537.28        14.62689
537.72        14.70303
538.16        14.74369
538.60        14.73898
539.04        14.70679
539.47        14.65946
539.91        14.63138
540.35        14.63079
540.79        14.65476
541.22        14.70924
541.66        14.80656
542.10        14.94173
542.54        15.10726
542.97        15.28846
543.41        15.46149
543.85        15.61765
544.29        15.76435
544.72        15.88768
545.16        15.98085
545.60        16.04684
546.04        16.08526
546.47        16.13296
546.91        16.27353
547.35        16.50488
547.79        16.75185
548.22        16.97557
548.66        17.20767
549.10         17.4419
549.53        17.59662
549.97        17.65518
550.41        17.95501
550.84         17.9653
551.28        18.08855
551.72        18.16839
552.15        18.37219
552.59         18.4729
553.03          18.651
553.46        18.83254
553.90        19.00283
554.34        19.15143
554.77        19.30087
555.21        19.44527
555.65        19.52213
556.08        19.54796
556.52        19.62109
556.96        19.73936
557.39        19.85311
557.83         19.9573
558.27        20.04051
558.70        20.11819
559.14        20.23777
559.57        20.38222
560.01        20.52022
560.45        20.63338
560.88         20.6362
561.32        20.65817
561.75        20.70884
562.19        20.81882
562.63         20.8892
563.06        20.91608
563.50        20.96829
563.93        21.03968
564.37        21.11028
564.80        21.17466
565.24        21.24461
565.68        21.32225
566.11        21.42422
566.55        21.55238
566.98        21.66977
567.42        21.79832
567.85        21.93204
568.29        22.07316
568.72         22.2761
569.16         22.5601
569.60        22.52453
570.03        22.87056
570.47        23.00011
570.90        23.08241
571.34         23.3576
571.77        23.40024
572.21        23.52731
572.64        23.62277
573.08        23.78474
573.51        24.00973
573.95        24.07759
574.38        24.40175
574.82        24.23635
