SpectraSmart Spectrum 2.9.0.0
--------- Device Information -----------
Spectrum Name :  反射率_0
Saving Time :  2024/04/30 01:10:54
Spectro-Module Model Name : SE2030-DUVN
Spectro-Module Serial Number : OS361AC55029948
Wavelength Start : 200
Wavelength End : 1025
Wavelength Unit : Wavelength(nm)
Spectrum Unit : Reflectance(%)
-----------Spectrum Setting ------------
Integration Time : 20ms
Average : 10
Boxcar : 0
Background removal :  enabled
linearity correction :  enabled
SC :  disabled
Intensity correction :  disabled
DWT denoise :  enabled
savitzky-golay :  disabled
FFT :  disabled
Running average :  disabled
Kalman :  disabled
High pass :  disabled
---------------BEGIN--------------------
Wavelength(nm)             Reflectance(%)
200.29               0
200.75         77.5135
201.21         67.4635
201.67        57.61775
202.13        52.05236
202.58        52.66236
203.04        58.92596
203.50        69.83135
203.96        82.52784
204.42        94.10867
204.88        103.5856
205.34        107.3839
205.80        102.4219
206.26        91.96136
206.72        80.27708
207.18        70.44991
207.64        63.71956
208.10        59.17271
208.55        55.64923
209.01        53.26384
209.47         53.3047
209.93        55.62868
210.39        59.50564
210.85        62.75832
211.31        63.55455
211.77        61.74974
212.23        56.81388
212.69        50.32071
213.14        49.90003
213.60        57.50937
214.06        68.59824
214.52        77.09444
214.98        79.29288
215.44        76.32358
215.90        69.79939
216.36        62.82841
216.81         61.5334
217.27        69.10514
217.73        86.03724
218.19        110.8942
218.65        130.2915
219.11        133.6315
219.57        124.8943
220.02        113.6459
220.48         107.729
220.94        106.5445
221.40        107.9773
221.86        109.6215
222.32        106.1641
222.77        97.67557
223.23        89.80484
223.69        84.53617
224.15        81.96641
224.61         81.3593
225.06        82.21944
225.52          84.231
225.98         86.2759
226.44        87.59742
226.90        88.18488
227.36        88.80781
227.81        90.31413
228.27        92.90344
228.73        96.21088
229.19         99.0463
229.65        98.92431
230.10        95.76515
230.56        91.69434
231.02        88.07684
231.48        86.00806
231.93        85.26099
232.39        85.33916
232.85        86.11263
233.31        87.51137
233.77        89.32858
234.22        91.81023
234.68        93.83099
235.14        93.51698
235.60        90.63867
236.05        85.78728
236.51        81.09895
236.97         79.2976
237.43        80.98018
237.88        86.25058
238.34        93.62749
238.80        98.60308
239.26        98.12466
239.71        93.34834
240.17        87.01184
240.63        83.07191
241.08        82.68579
241.54        85.22112
242.00        91.68104
242.46        100.8825
242.91        109.1369
243.37        114.2417
243.83        115.8829
244.28        115.8638
244.74        114.8164
245.20        111.0019
245.66        105.3234
246.11        101.1114
246.57         99.9573
247.03        102.6084
247.48         105.285
247.94        99.90067
248.40        88.68676
248.85        77.27573
249.31        70.24268
249.77        68.76885
250.22        72.38785
250.68        81.51186
251.14        96.69269
251.59        107.9191
252.05        105.7407
252.51        97.17335
252.96        89.46368
253.42         85.9142
253.88        85.03352
254.33        85.21732
254.79        85.87785
255.25        85.52835
255.70        83.89174
256.16        82.39951
256.62        81.29382
257.07        80.53692
257.53        80.43043
257.99        80.58543
258.44        80.35259
258.90        79.71442
259.35        78.39203
259.81        77.13914
260.27        76.19115
260.72        75.79956
261.18        76.07427
261.63        76.41233
262.09         76.6175
262.55        75.99968
263.00         74.5431
263.46        72.89433
263.91        71.17738
264.37        69.94242
264.83          69.111
265.28        68.45715
265.74        68.07156
266.19        67.80433
266.65        67.67889
267.11        67.62674
267.56        67.51689
268.02        67.20634
268.47        66.61143
268.93        65.78508
269.38        64.73926
269.84        63.63484
270.30        62.55403
270.75        61.50294
271.21        60.54607
271.66        59.67485
272.12        58.89485
272.57        58.15626
273.03        57.48481
273.48        56.80434
273.94        56.16262
274.39        55.49465
274.85        54.82257
275.31        54.04589
275.76        53.13065
276.22        52.16983
276.67        51.17857
277.13        50.33827
277.58        49.60877
278.04        49.02129
278.49        48.44158
278.95        47.82696
279.40        47.09531
279.86        46.35378
280.31        45.60593
280.77         45.0227
281.22        44.55932
281.68        44.21078
282.13        43.86121
282.59        43.44931
283.04        42.91224
283.50         42.2963
283.95        41.60601
284.41        40.90127
284.86        40.18851
285.32        39.51756
285.77        38.84868
286.22        38.21545
286.68        37.63986
287.13        37.08413
287.59        36.60796
288.04        36.22418
288.50        35.95174
288.95         35.7282
289.41        35.52206
289.86        35.22516
290.32        34.84522
290.77        34.40739
291.22        33.94028
291.68        33.49065
292.13        33.07729
292.59        32.72122
293.04        32.49426
293.50        32.53825
293.95        32.84477
294.40        33.37437
294.86        33.95511
295.31        34.33043
295.77        34.43929
296.22        34.34359
296.68        34.20784
297.13        34.27193
297.58        34.59996
298.04        35.08044
298.49        35.58969
298.95        35.93686
299.40        36.06702
299.85        36.05981
300.31        35.98237
300.76        35.86997
301.21        35.78559
301.67        35.72834
302.12        35.70804
302.58        35.88312
303.03        36.24768
303.48        36.63934
303.94        36.96456
304.39        37.72696
304.84        37.79206
305.30        38.06797
305.75        38.23927
306.20        38.40409
306.66        38.58104
307.11        38.73438
307.57        38.86328
308.02        38.88662
308.47        38.81708
308.93        38.69374
309.38        38.55103
309.83        38.49168
310.29        38.53681
310.74        38.65007
311.19        38.76915
311.65        38.78984
312.10        38.68303
312.55        38.48312
313.00        38.26087
313.46        38.12556
313.91        38.08877
314.36        38.11819
314.82        38.14324
315.27        38.07456
315.72         37.8779
316.18        37.59171
316.63        37.25849
317.08        36.95521
317.53        36.71236
317.99        36.52141
318.44        36.35152
318.89        36.15792
319.35        35.93124
319.80        35.68644
320.25        35.47671
320.70        35.38536
321.16        35.40969
321.61        35.53171
322.06        35.64839
322.51        35.60249
322.97        35.35504
323.42        34.95879
323.87         34.5082
324.32        34.16022
324.78        33.94817
325.23        33.84513
325.68        33.78144
326.13        33.64333
326.59        33.39498
327.04        33.09387
327.49         32.7879
327.94        32.56367
328.39        32.43773
328.85        32.35689
329.30        32.30262
329.75        32.19455
330.20        32.01195
330.66         31.7868
331.11        31.53434
331.56        31.24914
332.01        30.94507
332.46        30.61781
332.92        30.32509
333.37        30.20647
333.82        30.27544
334.27        30.49749
334.72        30.75424
335.17        30.84287
335.63        30.70421
336.08        30.40339
336.53        30.02979
336.98         29.7613
337.43        29.65579
337.88         29.6559
338.34        29.71124
338.79        29.76271
339.24         29.7765
339.69        29.78809
340.14        29.77835
340.59        29.70959
341.05         29.5864
341.50        29.41052
341.95        29.24701
342.40        29.21135
342.85        29.31624
343.30        29.51606
343.75        29.71598
344.20        29.76379
344.66        29.63232
345.11        29.36862
345.56        29.03866
346.01        28.74635
346.46        28.53909
346.91        28.39354
347.36        28.31837
347.81        28.32567
348.26        28.40258
348.72        28.53827
349.17        28.68979
349.62        28.77676
350.07        28.77132
350.52           28.69
350.97        28.55303
351.42        28.39484
351.87        28.23994
352.32        28.09576
352.77         27.9806
353.22        27.92336
353.67        27.92819
354.13        27.97503
354.58        28.07003
355.03        28.22038
355.48        28.40172
355.93        28.59516
356.38        28.71154
356.83        28.62096
357.28        28.31432
357.73        27.84377
358.18        27.32761
358.63        26.95506
359.08        26.77169
359.53        26.71846
359.98        26.72481
360.43        26.67084
360.88        26.52077
361.33        26.32587
361.78        26.09086
362.23        25.82004
362.68        25.53007
363.13        25.21118
363.58        24.93033
364.03        24.79848
364.48        24.82711
364.93        24.98386
365.38        25.15807
365.83        25.16729
366.28        24.97255
366.73        24.63002
367.18        24.24869
367.63        24.00366
368.08        23.93765
368.53        23.99242
368.98         24.0921
369.43        24.11318
369.88        24.01877
370.33        23.85386
370.78        23.65205
371.23         23.4668
371.68        23.31658
372.13        23.17134
372.58        23.03507
373.03        22.91998
373.48        22.81853
373.93        22.73219
374.38        22.61932
374.83         22.4079
375.28        22.10074
375.72        21.73214
376.17        21.38873
376.62         21.1524
377.07        21.03967
377.52        21.01296
377.97        21.05512
378.42        21.13655
378.87        21.22945
379.32        21.33434
379.77        21.39869
380.22        21.34643
380.67        21.17008
381.11        20.88874
381.56         20.5796
382.01        20.37514
382.46         20.3132
382.91         20.3615
383.36        20.45018
383.81        20.46775
384.26        20.38602
384.71        20.23629
385.15        20.06545
385.60        19.97337
386.05        19.96639
386.50         20.0083
386.95        20.04246
387.40        19.98494
387.85        19.82779
388.29        19.60222
388.74        19.38875
389.19        19.23144
389.64        19.14322
390.09        19.09649
390.54        19.09296
390.98        19.13373
391.43        19.20949
391.88         19.3092
392.33        19.37618
392.78        19.35009
393.23        19.23121
393.67        19.00138
394.12        18.73878
394.57        18.67948
395.02        18.57028
395.47        18.60024
395.91        18.65521
396.36        18.66616
396.81        18.62037
397.26        18.54702
397.71        18.46536
398.15        18.39404
398.60        18.36501
399.05        18.32463
399.50        18.27914
399.95        18.32157
400.39          18.356
400.84        18.37474
401.29        18.33789
401.74        18.28758
402.18        18.22501
402.63        18.10767
403.08        17.98702
403.53        17.95504
403.97        18.02241
404.42        18.16313
404.87        18.30251
405.32        18.31944
405.76        18.18568
406.21        17.94748
406.66        17.69298
407.11        17.56169
407.55        17.59171
408.00         17.7416
408.45         17.9253
408.90         17.9867
409.34        17.88267
409.79        17.66153
410.24        17.43437
410.68        17.36631
411.13        17.49185
411.58        17.75935
412.03        18.04855
412.47        18.15707
412.92        18.02477
413.37        17.73305
413.81        17.40877
414.26        17.26415
414.71        17.32998
415.15        17.54514
415.60        17.80454
416.05        17.95192
416.49        17.93924
416.94        17.82248
417.39        17.66053
417.83        17.54169
418.28        17.50039
418.73         17.4979
419.17        17.52711
419.62        17.58239
420.07        17.65126
420.51        17.73828
420.96        17.81271
421.41        17.81291
421.85        17.72797
422.30         17.5945
422.74        17.45063
423.19        17.38432
423.64        17.40362
424.08        17.49131
424.53        17.60152
424.98        17.68176
425.42        17.71486
425.87        17.70634
426.31        17.66251
426.76        17.62154
427.21        17.53506
427.65        17.42527
428.10         17.3139
428.54        17.21119
428.99        17.14035
429.44        17.21733
429.88        17.35843
430.33        17.20907
430.77         16.8787
431.22        16.93624
431.66        17.36077
432.11        17.58652
432.56        17.53796
433.00        17.59068
433.45        17.69352
433.89        17.37287
434.34        16.82176
434.78        16.73274
435.23        17.04959
435.67        17.14584
436.12        17.00031
436.57        16.97583
437.01        17.08799
437.46        17.18599
437.90         17.2549
438.35        17.32901
438.79        17.38266
439.24        17.34596
439.68        17.24292
440.13        17.16507
440.57        17.10542
441.02        17.06261
441.46         17.0471
441.91        16.93728
442.35        16.79997
442.80        17.09621
443.24        17.66616
443.69        17.66335
444.13        17.14421
444.58        16.93133
445.02        17.03272
445.47        17.00424
445.91        16.85291
446.36        16.81082
446.80         16.8791
447.24        17.00403
447.69        17.13632
448.13        17.19593
448.58        17.16759
449.02        17.07586
449.47        16.97916
449.91        16.95782
450.36        17.03074
450.80        17.16774
451.25        17.31066
451.69        17.36521
452.13        17.30959
452.58         17.1839
453.02        17.03764
453.47        16.94673
453.91        16.92784
454.36        17.00424
454.80        17.05898
455.24        17.10215
455.69        17.09749
456.13        17.06119
456.58          17.019
457.02         16.9925
457.46        16.99277
457.91        17.00748
458.35         17.0232
458.79        17.03037
459.24        17.03633
459.68        17.05468
460.13        17.08971
460.57        17.06932
461.01        17.12386
461.46        17.08257
461.90        17.02207
462.34        17.16088
462.79        17.42444
463.23        17.43583
463.68        17.21479
464.12        17.11353
464.56         17.1461
465.01        17.13675
465.45        17.07626
465.89        17.02569
466.34        17.01617
466.78        17.11112
467.22        17.31197
467.67        17.33958
468.11        17.18982
468.55        16.96797
468.99        16.76159
469.44        16.66229
469.88        16.69654
470.32        16.84116
470.77        17.02251
471.21        17.13441
471.65        17.13891
472.10        17.07526
472.54        16.98802
472.98        16.96355
473.42        17.02068
473.87        17.12664
474.31         17.2364
474.75        17.28789
475.20        17.27227
475.64         17.2095
476.08        17.13446
476.52        17.09455
476.97        17.10317
477.41        17.14008
477.85        17.19614
478.29         17.2554
478.74        17.31507
479.18        17.37057
479.62        17.40818
480.06        17.44819
480.50        17.50001
480.95        17.40042
481.39        17.43911
481.83        17.48415
482.27        17.63376
482.72        17.72323
483.16        17.94887
483.60        18.05529
484.04        18.11472
484.48        18.05153
484.93        17.91317
485.37        18.03893
485.81        18.37603
486.25        18.09449
486.69        17.80017
487.14         17.9433
487.58         18.3402
488.02        18.35904
488.46        18.69903
488.90         18.7506
489.34        18.40605
489.79        18.35334
490.23         18.4991
490.67         18.7668
491.11        19.04235
491.55        19.03485
491.99        18.81718
492.43        18.84097
492.88        19.12665
493.32        19.38148
493.76        19.55167
494.20        19.71963
494.64        19.87802
495.08        19.99582
495.52        20.07368
495.96        20.16814
496.41        20.29418
496.85        20.32117
497.29        20.27431
497.73        20.55256
498.17        20.83004
498.61        20.80566
499.05        20.47458
499.49        20.35801
499.93        20.50768
500.37        20.72216
500.82        20.94078
501.26         21.1121
501.70        21.20989
502.14        21.27913
502.58        21.35111
503.02        21.44907
503.46        21.58307
503.90        21.74519
504.34        21.90913
504.78        22.03059
505.22        22.09784
505.66        22.12259
506.10        22.12123
506.54        22.14477
506.98        22.20875
507.42        22.25468
507.86        22.25635
508.30        22.42432
508.74        22.34447
509.18        22.35625
509.62        22.35778
510.06        22.38951
510.50        22.45598
510.94        22.55317
511.38         22.6608
511.82        22.73388
512.26        22.76254
512.70        22.75778
513.14         22.7485
513.58        22.78022
514.02        22.86185
514.46        22.97799
514.90        23.09534
515.34        23.16024
515.78        23.15926
516.22        23.10942
516.66        23.04307
517.10        23.01063
517.54        23.02423
517.98        23.06707
518.42        23.11366
518.86        23.12326
519.30        23.08587
519.74        23.01787
520.18        22.93877
520.62        22.87587
521.06        22.83927
521.50        22.82297
521.93        22.82118
522.37        22.81797
522.81        22.81083
523.25        22.80122
523.69        22.79656
524.13        22.80797
524.57         22.8335
525.01        22.86493
525.45        22.88157
525.89        22.85214
526.32        22.76936
526.76        22.65246
527.20        22.52413
527.64         22.4203
528.08        22.35147
528.52        22.30857
528.96        22.28279
529.40        22.25897
529.83        22.22958
530.27        22.20204
530.71        22.17329
531.15        22.14041
531.59        22.10276
532.03         22.0589
532.46        22.00979
532.90        21.96624
533.34        21.92958
533.78        21.90028
534.22        21.87515
534.66        21.84838
535.09        21.81657
535.53        21.78665
535.97        21.76245
536.41        21.75598
536.85        21.76798
537.28        21.79389
537.72        21.81929
538.16        21.82391
538.60        21.80419
539.04        21.76958
539.47        21.72939
539.91        21.71896
540.35        21.73993
540.79        21.78956
541.22        21.85858
541.66         21.9355
542.10        22.01403
542.54        22.09894
542.97        22.19628
543.41        22.31716
543.85        22.46139
544.29        22.62728
544.72        22.78936
545.16        22.92559
545.60        23.02897
546.04        23.09579
546.47        23.15937
546.91        23.30919
547.35        23.53754
547.79        23.74844
548.22        23.90309
548.66        24.07101
549.10        24.25209
549.53           24.33
549.97        24.29206
550.41        24.61781
550.84        24.57964
551.28        24.72414
551.72        24.81964
552.15        25.06517
552.59        25.14266
553.03        25.30491
553.46        25.45824
553.90        25.59542
554.34        25.70883
554.77         25.8286
555.21        25.94934
555.65        25.99451
556.08        25.98866
556.52         26.0601
556.96        26.20706
557.39        26.36324
557.83        26.51734
558.27        26.65177
558.70        26.77188
559.14         26.9152
559.57        27.05659
560.01        27.17087
560.45        27.24768
560.88        27.18864
561.32        27.17158
561.75        27.20953
562.19        27.33524
562.63        27.40549
563.06        27.41201
563.50        27.44811
563.93        27.51217
564.37        27.58833
564.80         27.6685
565.24         27.7613
565.68        27.85532
566.11        27.95192
566.55        28.04987
566.98        28.10921
567.42        28.17278
567.85        28.25363
568.29        28.36067
568.72        28.56406
569.16         28.8931
569.60        28.79183
570.03        29.14614
570.47        29.28847
570.90        29.45398
571.34        29.53784
571.77        29.68386
572.21        29.77542
572.64        29.84355
573.08        29.95416
573.51        30.16395
573.95        30.29099
574.38        30.49303
574.82         30.8158
