SpectraSmart Spectrum 2.9.0.0
--------- Device Information -----------
Spectrum Name :  反射率_0
Saving Time :  2024/04/30 00:48:14
Spectro-Module Model Name : SE2030-DUVN
Spectro-Module Serial Number : OS361AC55029948
Wavelength Start : 200
Wavelength End : 1025
Wavelength Unit : Wavelength(nm)
Spectrum Unit : Reflectance(%)
-----------Spectrum Setting ------------
Integration Time : 20ms
Average : 10
Boxcar : 0
Background removal :  enabled
linearity correction :  enabled
SC :  disabled
Intensity correction :  disabled
DWT denoise :  enabled
savitzky-golay :  disabled
FFT :  disabled
Running average :  disabled
Kalman :  disabled
High pass :  disabled
---------------BEGIN--------------------
Wavelength(nm)             Reflectance(%)
200.29               0
200.75        54.18298
201.21        41.23442
201.67        26.06719
202.13        14.25398
202.58        8.659654
203.04        8.479305
203.50        14.18522
203.96        26.13084
204.42        42.49236
204.88        61.32225
205.34        76.35107
205.80        79.39775
206.26        72.26801
206.72        61.25056
207.18        50.12418
207.64        40.41883
208.10        31.59478
208.55        22.18613
209.01        14.29399
209.47        13.87782
209.93        21.09019
210.39        32.36581
210.85         42.1967
211.31        46.19893
211.77        44.40753
212.23        37.01213
212.69        25.88498
213.14        21.88284
213.60        29.62877
214.06        42.47617
214.52        53.57149
214.98        59.09373
215.44        60.10242
215.90         58.6801
216.36        56.38372
216.81        55.83823
217.27        58.71299
217.73        64.87963
218.19        74.80205
218.65        85.78601
219.11        93.13304
219.57        95.49956
220.02        95.01543
220.48        95.09787
220.94        95.97819
221.40        97.53394
221.86        97.36438
222.32        90.76853
222.77        79.76435
223.23        70.05349
223.69        64.44755
224.15        63.79531
224.61        67.10764
225.06        73.69508
225.52        82.12807
225.98        87.56855
226.44        88.15215
226.90        86.01917
227.36        83.56795
227.81        82.60768
228.27        83.28543
228.73        84.77457
229.19        86.43788
229.65        86.96344
230.10        86.06347
230.56        84.91361
231.02        83.81557
231.48        83.00586
231.93        82.36469
232.39        81.70238
232.85        81.29818
233.31        81.84335
233.77        83.40675
234.22        86.03967
234.68        88.34579
235.14        87.92725
235.60        84.45824
236.05        78.84206
236.51        73.51131
236.97        71.53214
237.43        73.59478
237.88        79.68955
238.34        88.37906
238.80         94.8794
239.26        95.67049
239.71        91.73833
240.17        85.59931
240.63        81.04565
241.08        79.01794
241.54         78.2027
242.00        78.70853
242.46        80.14507
242.91        81.95732
243.37        84.44776
243.83        86.45257
244.28        86.32832
244.74        83.68834
245.20        77.87527
245.66        70.52042
246.11        66.48581
246.57        68.44868
247.03        76.12884
247.48        85.60484
247.94        87.35261
248.40        81.17177
248.85        72.25632
249.31         66.2542
249.77        65.65414
250.22        70.37691
250.68        81.03954
251.14        97.10097
251.59        104.9033
252.05        96.07046
252.51        82.04731
252.96        71.60905
253.42        67.46815
253.88         67.5332
254.33        69.90494
254.79        73.87317
255.25        76.87848
255.70        77.71014
256.16        77.94382
256.62        78.00077
257.07        78.17004
257.53        78.93533
257.99        79.80757
258.44        80.38121
258.90        80.86514
259.35        80.74927
259.81        80.62979
260.27        80.39005
260.72        79.97487
261.18        79.69938
261.63        79.19785
262.09        78.68748
262.55        77.97561
263.00        77.00855
263.46        76.15102
263.91        75.20483
264.37        74.39074
264.83        73.60078
265.28        72.75119
265.74        72.07192
266.19         71.5966
266.65        71.41025
267.11        71.37913
267.56        71.31854
268.02        71.02325
268.47        70.39392
268.93        69.51756
269.38        68.44353
269.84        67.38574
270.30        66.42451
270.75        65.51567
271.21        64.67569
271.66        63.83239
272.12        62.97568
272.57        62.07638
273.03        61.16959
273.48        60.18848
273.94        59.22586
274.39        58.25572
274.85        57.35138
275.31        56.46614
275.76        55.57325
276.22        54.73515
276.67        53.96136
277.13        53.43825
277.58        53.07377
278.04        52.85252
278.49        52.54998
278.95        52.01029
279.40        51.14277
279.86        50.13457
280.31        49.03048
280.77        48.07527
281.22        47.27688
281.68        46.63027
282.13        46.11704
282.59         45.8161
283.04        45.64762
283.50        45.59359
283.95        45.47256
284.41        45.06303
284.86        44.31074
285.32        43.36092
285.77        42.32248
286.22        41.45702
286.68        40.84275
287.13        40.37356
287.59        40.03483
288.04        39.71918
288.50        39.42324
288.95        39.13502
289.41        38.88157
289.86        38.62713
290.32         38.3918
290.77        38.15684
291.22        37.90562
291.68        37.61785
292.13        37.28723
292.59        36.96208
293.04        36.72276
293.50        36.72963
293.95        36.98784
294.40        37.45916
294.86        37.99834
295.31        38.39348
295.77        38.58657
296.22        38.61745
296.68        38.62045
297.13         38.7822
297.58        39.15013
298.04        39.63393
298.49        40.09935
298.95        40.34522
299.40        40.32774
299.85        40.13477
300.31        39.89726
300.76        39.74435
301.21        39.74663
301.67        39.86581
302.12        40.02674
302.58        40.25948
303.03        40.52721
303.48        40.72197
303.94        40.80656
304.39        41.32896
304.84        41.24628
305.30        41.38774
305.75        41.44356
306.20        41.49542
306.66        41.55726
307.11        41.60512
307.57        41.62654
308.02        41.51217
308.47        41.27466
308.93        40.95892
309.38        40.63076
309.83        40.44695
310.29        40.43962
310.74        40.55706
311.19        40.69882
311.65        40.70004
312.10         40.5188
312.55        40.20919
313.00         39.8803
313.46        39.70204
313.91        39.69762
314.36        39.81156
314.82         39.9375
315.27        39.92912
315.72        39.73734
316.18        39.42259
316.63        39.04915
317.08        38.72792
317.53        38.50166
317.99        38.34795
318.44         38.2355
318.89        38.12203
319.35        37.98986
319.80        37.84767
320.25        37.72847
320.70        37.68188
321.16        37.69761
321.61        37.77181
322.06        37.81064
322.51        37.67631
322.97        37.34512
323.42        36.86993
323.87        36.37196
324.32        36.04666
324.78        35.93146
325.23        35.99271
325.68        36.11421
326.13        36.09979
326.59        35.88652
327.04        35.54427
327.49        35.16967
327.94        34.93588
328.39        34.88145
328.85        34.93171
329.30        35.00999
329.75        34.92856
330.20        34.64438
330.66        34.22976
331.11        33.78584
331.56        33.43916
332.01        33.23691
332.46        33.13443
332.92         33.1164
333.37        33.19798
333.82         33.3438
334.27         33.5487
334.72        33.73326
335.17        33.76436
335.63        33.60719
336.08        33.30634
336.53        32.93115
336.98        32.63095
337.43        32.46032
337.88        32.38461
338.34        32.37774
338.79        32.41098
339.24        32.45773
339.69         32.5396
340.14        32.62176
340.59        32.64176
341.05        32.59026
341.50        32.47096
341.95        32.34341
342.40        32.31687
342.85        32.40669
343.30         32.5717
343.75        32.72909
344.20        32.74674
344.66        32.60653
345.11        32.35393
345.56        32.05685
346.01        31.81931
346.46        31.68293
346.91        31.61819
347.36        31.62226
347.81        31.69171
348.26        31.80834
348.72        31.96348
349.17        32.11452
349.62        32.18068
350.07        32.14121
350.52        32.02144
350.97         31.8539
351.42        31.69057
351.87        31.55952
352.32        31.45846
352.77        31.40747
353.22        31.43771
353.67        31.54288
354.13        31.69432
354.58        31.86164
355.03        31.99646
355.48         32.0676
355.93        32.07881
356.38          31.989
356.83        31.74012
357.28        31.34707
357.73        30.85204
358.18         30.3523
358.63        29.99926
359.08         29.8294
359.53        29.79493
359.98        29.84463
360.43        29.88901
360.88        29.88791
361.33        29.86495
361.78        29.78937
362.23        29.61441
362.68        29.34498
363.13        28.99469
363.58        28.63929
364.03        28.40587
364.48        28.32026
364.93        28.34352
365.38        28.41089
365.83        28.41215
366.28        28.31385
366.73        28.15256
367.18         27.9485
367.63        27.73318
368.08        27.52416
368.53        27.30932
368.98        27.11355
369.43        26.98021
369.88        26.91635
370.33        26.91566
370.78        26.93617
371.23        26.90444
371.68        26.79926
372.13        26.63234
372.58        26.44242
373.03        26.29752
373.48        26.20778
373.93        26.14452
374.38         26.0639
374.83        25.89634
375.28        25.63729
375.72        25.32506
376.17         25.0185
376.62        24.74858
377.07        24.53047
377.52        24.34471
377.97        24.22767
378.42        24.24002
378.87        24.37478
379.32        24.60203
379.77         24.8155
380.22        24.86009
380.67        24.70501
381.11        24.38676
381.56        24.00976
382.01        23.75318
382.46        23.66915
382.91        23.71357
383.36        23.78864
383.81          23.741
384.26        23.54139
384.71        23.24388
385.15        22.94252
385.60        22.80908
386.05        22.85928
386.50        23.02411
386.95        23.19868
387.40        23.22452
387.85        23.07103
388.29        22.79216
388.74        22.49026
389.19        22.23009
389.64        22.03819
390.09         21.8861
390.54        21.79271
390.98        21.78878
391.43        21.87441
391.88        22.02894
392.33        22.18209
392.78        22.25568
393.23        22.23784
393.67          22.099
394.12        21.90793
394.57        21.91225
395.02        21.80917
395.47        21.82789
395.91        21.84525
396.36        21.80292
396.81        21.69929
397.26         21.5701
397.71         21.4438
398.15        21.34895
398.60        21.32099
399.05        21.29361
399.50        21.27145
399.95        21.35849
400.39          21.439
400.84        21.50386
401.29        21.48959
401.74        21.41759
402.18        21.28621
402.63        21.05688
403.08        20.82121
403.53        20.73449
403.97        20.81911
404.42        21.03019
404.87        21.25806
405.32         21.3234
405.76        21.18066
406.21        20.89467
406.66        20.57407
407.11        20.39021
407.55        20.39182
408.00        20.52639
408.45        20.70097
408.90        20.74854
409.34        20.62378
409.79        20.38225
410.24        20.14127
410.68        20.07271
411.13        20.21115
411.58        20.49908
412.03        20.81086
412.47        20.93589
412.92        20.80914
413.37        20.51517
413.81        20.17638
414.26        20.00226
414.71        20.02229
415.15         20.1735
415.60        20.36397
416.05        20.46224
416.49        20.42636
416.94        20.30937
417.39        20.14458
417.83        19.97651
418.28        19.83512
418.73        19.69964
419.17        19.60491
419.62         19.6113
420.07        19.71767
420.51        19.90144
420.96        20.09395
421.41        20.17233
421.85        20.10735
422.30        19.95916
422.74        19.77676
423.19        19.66727
423.64        19.64703
424.08        19.69078
424.53        19.76743
424.98        19.85572
425.42        19.94149
425.87         20.0189
426.31        20.06079
426.76         20.0525
427.21        19.92747
427.65        19.73283
428.10        19.51482
428.54        19.32555
428.99        19.20316
429.44        19.25665
429.88         19.4049
430.33        19.26994
430.77        18.97109
431.22        19.14923
431.66        19.73024
432.11        20.00038
432.56        19.85924
433.00         19.6831
433.45         19.5141
433.89        19.19081
434.34        18.87582
434.78         18.9134
435.23        19.21659
435.67        19.33264
436.12        19.22707
436.57         19.1423
437.01        19.12828
437.46        19.16181
437.90        19.24952
438.35        19.38364
438.79        19.51985
439.24        19.55958
439.68        19.51516
440.13        19.49581
440.57        19.48228
441.02        19.44831
441.46        19.40287
441.91        19.21808
442.35        18.98174
442.80        19.22744
443.24        19.77686
443.69        19.68278
444.13        19.03003
444.58        18.75391
445.02        18.86433
445.47        18.86435
445.91        18.74331
446.36        18.72856
446.80        18.81153
447.24        18.93567
447.69        19.05975
448.13        19.11636
448.58        19.09491
449.02        19.01967
449.47        18.93609
449.91        18.90377
450.36        18.94068
450.80        19.02099
451.25        19.11879
451.69        19.18902
452.13        19.21404
452.58        19.21575
453.02        19.19136
453.47        19.13315
453.91        19.04262
454.36        18.97978
454.80        18.87106
455.24        18.81944
455.69        18.80977
456.13        18.82994
456.58        18.87838
457.02        18.93191
457.46        18.98537
457.91        19.04154
458.35        19.08347
458.79        19.09726
459.24        19.09316
459.68        19.08229
460.13        19.08568
460.57        19.05283
461.01        19.13359
461.46        19.13196
461.90        19.10777
462.34        19.26515
462.79        19.51266
463.23        19.44212
463.68        19.11146
464.12        18.96388
464.56        19.02457
465.01        19.08027
465.45        19.09147
465.89        19.08604
466.34        19.08911
466.78        19.18188
467.22        19.38284
467.67        19.40802
468.11        19.26083
468.55        19.04995
468.99        18.85214
469.44        18.73777
469.88        18.73283
470.32        18.82506
470.77        18.96179
471.21        19.06946
471.65         19.1159
472.10        19.12715
472.54        19.12571
472.98        19.16561
473.42        19.25435
473.87        19.36628
474.31        19.46221
474.75        19.49188
475.20        19.45234
475.64        19.36101
476.08        19.25363
476.52        19.17821
476.97        19.15122
477.41        19.15709
477.85        19.19349
478.29        19.25334
478.74        19.33439
479.18        19.42384
479.62        19.50144
480.06        19.58125
480.50        19.67054
480.95        19.59123
481.39        19.65622
481.83        19.69511
482.27        19.81294
482.72         19.8297
483.16        20.00644
483.60         20.0859
484.04        20.14051
484.48        20.20174
484.93        20.26867
485.37        20.30258
485.81        20.30068
486.25        20.31899
486.69        20.06826
487.14        20.31816
487.58        20.67461
488.02        20.86296
488.46        20.89914
488.90        21.38619
489.34        20.63246
489.79        20.58895
490.23         20.7537
490.67        21.09019
491.11        21.45436
491.55         21.4648
491.99        21.20904
492.43        21.22401
492.88        21.53386
493.32        21.77315
493.76        21.90272
494.20        22.07296
494.64        22.28392
495.08         22.4834
495.52        22.64684
495.96        22.79692
496.41        22.93946
496.85        22.93882
497.29        22.84392
497.73         23.1387
498.17        23.46217
498.61        23.45497
499.05        23.10176
499.49        22.98446
499.93        23.15693
500.37        23.39284
500.82        23.62431
501.26        23.79561
501.70        23.87911
502.14        23.92382
502.58        23.97187
503.02        24.06089
503.46         24.2047
503.90        24.39342
504.34        24.58723
504.78         24.7185
505.22         24.7703
505.66        24.76029
506.10        24.72268
506.54        24.73937
506.98        24.83311
507.42        24.93223
507.86        24.98671
508.30        25.19998
508.74        25.09991
509.18        25.07757
509.62         25.0434
510.06         25.0824
510.50        25.20692
510.94        25.39788
511.38        25.60483
511.82        25.73139
512.26        25.75409
512.70        25.70051
513.14        25.62427
513.58        25.60958
514.02        25.67589
514.46        25.79426
514.90        25.92041
515.34         25.9831
515.78        25.96321
516.22        25.88737
516.66          25.788
517.10        25.71362
517.54        25.67864
517.98        25.66556
518.42        25.66249
518.86        25.65091
519.30        25.62549
519.74        25.59907
520.18        25.56998
520.62        25.53168
521.06        25.48743
521.50        25.43858
521.93        25.40656
522.37        25.42012
522.81         25.4839
523.25        25.58154
523.69        25.68279
524.13         25.7427
524.57        25.74768
525.01        25.70761
525.45        25.63494
525.89        25.55303
526.32        25.46959
526.76        25.38765
527.20        25.30614
527.64        25.22467
528.08         25.1449
528.52        25.07196
528.96        25.01109
529.40        24.96768
529.83         24.9401
530.27        24.92706
530.71        24.91833
531.15        24.90211
531.59        24.87298
532.03        24.83106
532.46        24.77752
532.90        24.72395
533.34        24.67293
533.78        24.62772
534.22        24.58348
534.66        24.53149
535.09        24.47108
535.53        24.41294
535.97        24.37313
536.41         24.3838
536.85        24.44545
537.28        24.54033
537.72        24.63708
538.16        24.68834
538.60        24.68214
539.04        24.63913
539.47        24.56696
539.91        24.50046
540.35        24.44941
540.79        24.41667
541.22        24.42171
541.66         24.4996
542.10        24.64872
542.54        24.85357
542.97        25.08646
543.41        25.30593
543.85        25.49506
544.29        25.66887
544.72        25.80547
545.16        25.89196
545.60        25.93164
546.04        25.91831
546.47        25.91364
546.91        26.05712
547.35        26.34611
547.79          26.663
548.22        26.93051
548.66        27.17432
549.10        27.38173
549.53        27.43401
549.97        27.34041
550.41        27.68162
550.84        27.64932
551.28        27.84292
551.72        27.98226
552.15        28.26237
552.59        28.31918
553.03        28.45165
553.46        28.56801
553.90         28.6798
554.34        28.78442
554.77        28.90777
555.21        29.04195
555.65        29.09937
556.08        29.10439
556.52        29.20209
556.96        29.38022
557.39        29.54804
557.83        29.69114
558.27        29.79232
558.70        29.87438
559.14        30.01123
559.57        30.17714
560.01        30.32632
560.45        30.43245
560.88        30.36306
561.32        30.31064
561.75        30.31804
562.19        30.43115
562.63        30.45184
563.06        30.40433
563.50        30.51146
563.93        30.73102
564.37        30.87553
564.80        30.92243
565.24        30.96788
565.68        31.03235
566.11        31.13684
566.55        31.28912
566.98        31.43324
567.42        31.58904
567.85        31.72745
568.29        31.84212
568.72        32.03749
569.16        32.37564
569.60        32.20628
570.03        32.51897
570.47        32.77076
570.90        32.98027
571.34        32.90477
571.77        33.20182
572.21        33.22364
572.64        33.18703
573.08        33.37977
573.51        33.86562
573.95        33.59629
574.38        34.08245
574.82        34.00644
