SpectraSmart Spectrum 2.9.0.0
--------- Device Information -----------
Spectrum Name :  反射率_0
Saving Time :  2024/04/30 01:01:04
Spectro-Module Model Name : SE2030-DUVN
Spectro-Module Serial Number : OS361AC55029948
Wavelength Start : 200
Wavelength End : 1025
Wavelength Unit : Wavelength(nm)
Spectrum Unit : Reflectance(%)
-----------Spectrum Setting ------------
Integration Time : 20ms
Average : 10
Boxcar : 0
Background removal :  enabled
linearity correction :  enabled
SC :  disabled
Intensity correction :  disabled
DWT denoise :  enabled
savitzky-golay :  disabled
FFT :  disabled
Running average :  disabled
Kalman :  disabled
High pass :  disabled
---------------BEGIN--------------------
Wavelength(nm)             Reflectance(%)
200.29               0
200.75        35.39688
201.21        28.16113
201.67        19.72861
202.13        12.08817
202.58        6.570406
203.04        3.523006
203.50        4.149187
203.96        10.91048
204.42        23.68836
204.88        39.97621
205.34        55.69296
205.80        64.89052
206.26        66.55083
206.72        63.95182
207.18        58.45645
207.64        50.12219
208.10        39.09892
208.55        24.94755
209.01        10.42339
209.47        4.045557
209.93        7.810407
210.39        17.59064
210.85        27.14628
211.31        31.22608
211.77        29.55552
212.23        22.60513
212.69        12.35585
213.14        9.282685
213.60        17.56777
214.06        30.49651
214.52        41.12369
214.98        45.61002
215.44        45.01875
215.90        41.25748
216.36        36.44524
216.81        34.37433
217.27        37.24033
217.73        44.96255
218.19        56.87758
218.65        66.67583
219.11        68.96964
219.57        65.27392
220.02        60.33589
220.48         58.2171
220.94        58.62252
221.40        60.66488
221.86         61.8367
222.32        56.66035
222.77        46.43445
223.23        37.03374
223.69        31.00198
224.15        28.80725
224.61        29.46512
225.06         32.0179
225.52        36.31607
225.98        40.65326
226.44        43.53517
226.90        45.26895
227.36        45.88023
227.81        45.50584
228.27        44.40294
228.73        42.40276
229.19        40.33271
229.65        39.99916
230.10        41.55066
230.56        44.08112
231.02        46.17882
231.48        46.60268
231.93        45.37374
232.39         43.0043
232.85        40.35535
233.31        39.11041
233.77        39.79906
234.22         42.0611
234.68        44.74784
235.14        45.74846
235.60        44.53815
236.05        41.86976
236.51        39.21829
236.97        38.45162
237.43        40.06652
237.88        43.98944
238.34        49.47548
238.80        53.99319
239.26        55.45913
239.71        54.28017
240.17        51.65928
240.63        49.68522
241.08        48.90113
241.54        48.66923
242.00        48.80803
242.46        48.53447
242.91        47.43766
243.37        46.40052
243.83        45.81436
244.28        45.17849
244.74        44.19049
245.20        42.83072
245.66        42.10585
246.11        44.40746
246.57        50.73485
247.03        60.39921
247.48        70.54623
247.94        73.81219
248.40        69.94943
248.85         63.2732
249.31        57.92113
249.77        55.22644
250.22        54.79316
250.68        55.98824
251.14        59.49737
251.59         64.4867
252.05        67.60767
252.51        68.49638
252.96        67.69865
253.42        66.22727
253.88        63.85609
254.33        60.15072
254.79        55.81212
255.25        52.41926
255.70        50.72055
256.16        50.46008
256.62         50.5164
257.07        49.95235
257.53        49.07413
257.99        48.04237
258.44        47.15121
258.90        47.35451
259.35        48.16273
259.81        49.28446
260.27        50.15609
260.72        50.40368
261.18        50.23639
261.63        49.61129
262.09        48.84938
262.55        48.06158
263.00        47.25145
263.46        46.55902
263.91        45.73378
264.37        44.72325
264.83        43.48088
265.28        42.04708
265.74        40.76913
266.19        39.96237
266.65        39.73256
267.11        39.89344
267.56        40.14659
268.02        40.06913
268.47        39.54198
268.93        38.68793
269.38        37.66728
269.84        36.87393
270.30        36.40174
270.75         36.1371
271.21        35.89473
271.66        35.38324
272.12         34.5553
272.57        33.50049
273.03        32.44181
273.48        31.63884
273.94         31.2063
274.39        31.00592
274.85        30.90224
275.31        30.63959
275.76        30.15418
276.22        29.55947
276.67        28.94307
277.13        28.51565
277.58        28.26042
278.04         28.1278
278.49        27.97026
278.95        27.67234
279.40        27.17562
279.86        26.60962
280.31        26.00923
280.77        25.53321
281.22        25.18441
281.68        24.94486
282.13        24.79115
282.59        24.73742
283.04        24.74127
283.50        24.78348
283.95        24.78562
284.41        24.63574
284.86        24.31346
285.32        23.90441
285.77        23.43607
286.22        23.01617
286.68        22.68903
287.13        22.39206
287.59        22.19114
288.04        22.13129
288.50        22.21187
288.95        22.38298
289.41        22.53464
289.86        22.46316
290.32        22.16759
290.77        21.72148
291.22        21.25642
291.68        20.98378
292.13        20.95366
292.59        21.10916
293.04        21.43354
293.50        21.92413
293.95        22.54351
294.40        23.29405
294.86         24.0331
295.31         24.5496
295.77        24.80435
296.22        24.84752
296.68        24.86132
297.13        25.12068
297.58        25.69258
298.04        26.45684
298.49        27.26471
298.95        27.87414
299.40        28.21864
299.85        28.38579
300.31        28.44945
300.76        28.46724
301.21        28.50525
301.67         28.5501
302.12         28.6169
302.58        28.86972
303.03        29.31015
303.48        29.76248
303.94        30.12026
304.39        30.94555
304.84        30.98288
305.30        31.24148
305.75        31.39714
306.20        31.58288
306.66        31.81918
307.11        32.06644
307.57        32.28981
308.02        32.37048
308.47        32.30759
308.93        32.14437
309.38        31.94763
309.83         31.8673
310.29        31.92817
310.74         32.0793
311.19        32.21094
311.65        32.14566
312.10        31.85335
312.55        31.40767
313.00        30.93932
313.46        30.64749
313.91         30.5716
314.36         30.6516
314.82        30.79803
315.27        30.88591
315.72        30.85849
316.18         30.7578
316.63        30.59674
317.08        30.40748
317.53        30.21081
317.99        30.00114
318.44        29.78324
318.89        29.57568
319.35        29.38481
319.80         29.2101
320.25        29.07369
320.70        29.00512
321.16        28.99223
321.61         29.0377
322.06        29.07055
322.51        28.98253
322.97         28.7524
323.42        28.41853
323.87         28.0601
324.32        27.80982
324.78        27.69242
325.23        27.68233
325.68        27.71348
326.13        27.67572
326.59        27.53059
327.04        27.32522
327.49        27.09441
327.94        26.90656
328.39        26.77543
328.85        26.65597
329.30        26.54539
329.75         26.4011
330.20        26.21676
330.66        26.02299
331.11        25.81414
331.56        25.55235
332.01         25.2422
332.46        24.88416
332.92        24.56826
333.37        24.47951
333.82        24.64347
334.27        25.01235
334.72        25.41102
335.17        25.54249
335.63        25.33088
336.08        24.86769
336.53        24.32305
336.98        24.00927
337.43        24.01687
337.88        24.24236
338.34        24.56261
338.79        24.80221
339.24        24.89334
339.69        24.90956
340.14        24.85754
340.59        24.74462
341.05        24.59378
341.50        24.38268
341.95        24.19612
342.40        24.18342
342.85        24.35848
343.30        24.67715
343.75        24.98608
344.20        25.03307
344.66        24.77732
345.11        24.29658
345.56        23.75087
346.01        23.39631
346.46        23.30828
346.91        23.40901
347.36        23.60497
347.81        23.75607
348.26        23.81363
348.72        23.81372
349.17        23.78234
349.62        23.75858
350.07        23.75255
350.52        23.74321
350.97        23.70182
351.42        23.59125
351.87        23.41736
352.32        23.21267
352.77         23.0316
353.22        22.95628
353.67        23.00324
354.13        23.13354
354.58        23.31334
355.03        23.48904
355.48        23.62585
355.93        23.72923
356.38        23.75611
356.83        23.64552
357.28         23.4013
357.73        23.04948
358.18        22.67212
358.63        22.40139
359.08        22.26859
359.53        22.23767
359.98        22.25282
360.43        22.21717
360.88        22.10407
361.33        21.95114
361.78        21.77529
362.23         21.6023
362.68        21.44619
363.13          21.291
363.58        21.16226
364.03         21.1045
364.48        21.11753
364.93        21.18791
365.38        21.25773
365.83        21.23112
366.28        21.09083
366.73        20.86934
367.18        20.62678
367.63        20.46042
368.08        20.39383
368.53        20.39221
368.98        20.42298
369.43        20.43188
369.88        20.39843
370.33         20.3443
370.78        20.26036
371.23        20.13112
371.68        19.96042
372.13        19.74654
372.58        19.53484
373.03        19.40155
373.48        19.35775
373.93        19.38165
374.38          19.408
374.83        19.32743
375.28        19.11912
375.72        18.81758
376.17        18.50527
376.62         18.2634
377.07        18.11178
377.52        18.02074
377.97        17.96623
378.42        17.91019
378.87        17.84155
379.32        17.77968
379.77        17.72282
380.22        17.66576
380.67        17.60543
381.11        17.52878
381.56        17.45833
382.01         17.4315
382.46         17.4536
382.91        17.52117
383.36        17.57487
383.81        17.52374
384.26        17.35816
384.71        17.10334
385.15        16.85188
385.60        16.77553
386.05         16.8869
386.50        17.12542
386.95        17.36386
387.40        17.40302
387.85        17.21071
388.29        16.85915
388.74        16.48368
389.19        16.21146
389.64        16.07513
390.09        16.02352
390.54        16.03666
390.98        16.08046
391.43        16.13725
391.88        16.21766
392.33        16.27815
392.78        16.27066
393.23        16.19444
393.67        16.02155
394.12        15.82595
394.57        15.82268
395.02        15.79556
395.47        15.90123
395.91         16.0081
396.36        15.99853
396.81        15.85521
397.26        15.62578
397.71        15.38511
398.15        15.23399
398.60        15.21236
399.05        15.24549
399.50         15.2873
399.95           15.34
400.39        15.30709
400.84        15.20766
401.29        15.04284
401.74        14.90893
402.18        14.82984
402.63         14.7508
403.08        14.69767
403.53        14.72133
403.97         14.8191
404.42        14.97659
404.87        15.12646
405.32        15.15727
405.76         15.0443
406.21        14.82746
406.66        14.58834
407.11        14.45957
407.55         14.4766
408.00        14.59896
408.45        14.75353
408.90        14.80572
409.34        14.71739
409.79         14.5348
410.24        14.34078
410.68         14.2569
411.13        14.31156
411.58         14.4637
412.03        14.63926
412.47        14.71636
412.92        14.65151
413.37        14.49551
413.81        14.31242
414.26        14.22034
414.71        14.23242
415.15        14.31548
415.60         14.4141
416.05        14.45599
416.49        14.41957
416.94        14.33658
417.39        14.23099
417.83        14.13576
418.28         14.0694
418.73        14.01318
419.17        13.98247
419.62        14.00335
420.07        14.07237
420.51        14.18165
420.96        14.28423
421.41        14.29758
421.85        14.20731
422.30        14.05669
422.74        13.89824
423.19        13.83399
423.64        13.87726
424.08        14.00457
424.53        14.16265
424.98        14.28254
425.42        14.33836
425.87         14.3378
426.31        14.29499
426.76        14.25741
427.21        14.18949
427.65        14.10496
428.10        14.00748
428.54         13.8839
428.99        13.75501
429.44        13.72508
429.88        13.75266
430.33        13.59558
430.77        13.34565
431.22        13.43876
431.66        13.83534
432.11        14.03913
432.56        13.97662
433.00        13.95803
433.45        13.96873
433.89        13.68178
434.34        13.26403
434.78        13.24171
435.23        13.54839
435.67        13.65249
436.12        13.52745
436.57        13.47692
437.01        13.52672
437.46        13.57839
437.90        13.62917
438.35        13.69899
438.79        13.76509
439.24        13.76824
439.68        13.72279
440.13        13.69877
440.57        13.68576
441.02        13.67477
441.46        13.66964
441.91        13.57544
442.35        13.44102
442.80        13.62742
443.24        14.00567
443.69        13.90834
444.13        13.40894
444.58        13.18762
445.02        13.25443
445.47        13.25692
445.91        13.17791
446.36        13.16205
446.80        13.20207
447.24        13.26701
447.69        13.33849
448.13         13.3875
448.58        13.40738
449.02        13.40358
449.47        13.40086
449.91        13.43118
450.36        13.50065
450.80        13.59612
451.25        13.68503
451.69        13.71496
452.13        13.67515
452.58        13.59163
453.02        13.49618
453.47        13.43863
453.91        13.42912
454.36        13.49059
454.80        13.53663
455.24        13.58343
455.69        13.60356
456.13        13.60576
456.58        13.60207
457.02        13.59768
457.46        13.59845
457.91        13.59618
458.35        13.59002
458.79        13.58559
459.24        13.59253
459.68        13.61984
460.13        13.65936
460.57        13.63301
461.01        13.64436
461.46        13.56398
461.90         13.4769
462.34        13.59097
462.79        13.85297
463.23        13.94963
463.68        13.86442
464.12        13.83427
464.56         13.8609
465.01        13.81888
465.45         13.7187
465.89          13.635
466.34        13.60144
466.78        13.66164
467.22        13.81747
467.67        13.84858
468.11        13.74958
468.55        13.60394
468.99        13.47603
469.44        13.42794
469.88        13.47728
470.32        13.60882
470.77        13.76131
471.21        13.85032
471.65        13.84659
472.10        13.78195
472.54        13.70291
472.98        13.69733
473.42        13.78187
473.87        13.92351
474.31        14.06827
474.75        14.13665
475.20        14.11617
475.64        14.03246
476.08        13.93104
476.52        13.87712
476.97        13.88923
477.41        13.94369
477.85        14.02253
478.29        14.09559
478.74        14.15465
479.18        14.19989
479.62        14.22768
480.06        14.26748
480.50        14.32736
480.95        14.26615
481.39        14.30947
481.83        14.33527
482.27        14.42419
482.72        14.45094
483.16        14.58953
483.60        14.65452
484.04        14.69898
484.48        14.66844
484.93        14.62713
485.37        14.81785
485.81        15.11275
486.25        15.23176
486.69        14.56101
487.14        14.74751
487.58        15.49565
488.02        15.33896
488.46        15.57939
488.90        15.68479
489.34        15.44227
489.79        15.40007
490.23        15.39123
490.67        15.60322
491.11        15.92437
491.55        15.96713
491.99        15.78388
492.43        15.82258
492.88        16.09789
493.32         16.3214
493.76        16.46243
494.20        16.63351
494.64        16.83191
495.08         17.0188
495.52        17.16616
495.96        17.27437
496.41        17.34793
496.85        17.29812
497.29         17.1828
497.73        17.38394
498.17        17.64288
498.61        17.70922
499.05        17.54582
499.49         17.5272
499.93        17.68398
500.37        17.87134
500.82        18.04941
501.26         18.1889
501.70        18.27523
502.14        18.33972
502.58        18.41378
503.02        18.52662
503.46        18.68637
503.90        18.88503
504.34        19.08486
504.78        19.22084
505.22        19.27632
505.66        19.26772
506.10        19.22607
506.54        19.22375
506.98        19.28186
507.42        19.34244
507.86         19.3692
508.30        19.52311
508.74        19.43845
509.18        19.41862
509.62        19.38766
510.06        19.40024
510.50        19.46413
510.94        19.56774
511.38        19.68249
511.82        19.75115
512.26        19.76119
512.70        19.73143
513.14        19.69264
513.58        19.69272
514.02        19.74318
514.46        19.82581
514.90        19.92041
515.34        19.99461
515.78        20.03621
516.22         20.0557
516.66        20.05624
517.10        20.04246
517.54        20.01786
517.98         19.9782
518.42        19.93303
518.86        19.89928
519.30        19.88103
519.74        19.87809
520.18        19.87548
520.62        19.84658
521.06        19.78897
521.50        19.71344
521.93        19.64489
522.37        19.61855
522.81        19.64326
523.25        19.70165
523.69        19.77144
524.13        19.81929
524.57        19.83381
525.01        19.82426
525.45        19.79091
525.89        19.73612
526.32        19.66257
526.76        19.57365
527.20        19.48478
527.64         19.4217
528.08        19.38847
528.52        19.38065
528.96         19.3772
529.40         19.3423
529.83        19.26862
530.27        19.17083
530.71        19.07087
531.15         19.0066
531.59        18.98518
532.03        18.99069
532.46        19.00346
532.90        18.99875
533.34        18.96817
533.78        18.92556
534.22        18.87199
534.66         18.8082
535.09        18.73671
535.53        18.66012
535.97         18.5983
536.41        18.58983
536.85        18.63758
537.28        18.72906
537.72        18.82247
538.16        18.85254
538.60         18.8081
539.04        18.71661
539.47        18.61271
539.91        18.56834
540.35         18.5966
540.79        18.68037
541.22        18.80461
541.66         18.9488
542.10         19.0966
542.54        19.25066
542.97        19.40222
543.41        19.53813
543.85        19.65618
544.29        19.76422
544.72        19.85222
545.16        19.92231
545.60        19.97866
546.04        20.01546
546.47        20.07223
546.91        20.24094
547.35        20.51351
547.79        20.80041
548.22        21.04358
548.66        21.26826
549.10        21.46728
549.53        21.54516
549.97        21.50826
550.41        21.81241
550.84        21.81994
551.28        22.00305
551.72         22.1429
552.15        22.39701
552.59        22.47773
553.03        22.62227
553.46        22.75134
553.90        22.86682
554.34        22.96543
554.77        23.06028
555.21         23.1589
555.65        23.22995
556.08        23.28629
556.52        23.39957
556.96        23.54758
557.39        23.67179
557.83        23.75946
558.27        23.78386
558.70        23.78724
559.14        23.87653
559.57        24.04118
560.01         24.2296
560.45        24.39492
560.88        24.39808
561.32        24.38556
561.75        24.38316
562.19        24.44921
562.63         24.5023
563.06        24.54563
563.50         24.6461
563.93        24.77702
564.37        24.88588
564.80        24.95744
565.24        25.01404
565.68         25.0678
566.11        25.15374
566.55         25.2773
566.98         25.3878
567.42        25.50686
567.85        25.61926
568.29        25.72286
568.72          25.902
569.16        26.19012
569.60        26.06815
570.03        26.34129
570.47        26.52157
570.90         26.5962
571.34        26.74038
571.77        26.89855
572.21        27.03712
572.64        27.14233
573.08        27.31302
573.51        27.57302
573.95        27.65098
574.38        27.75266
574.82        27.92399
