SpectraSmart Spectrum 2.9.0.0
--------- Device Information -----------
Spectrum Name :  反射率_0
Saving Time :  2024/04/30 00:54:26
Spectro-Module Model Name : SE2030-DUVN
Spectro-Module Serial Number : OS361AC55029948
Wavelength Start : 200
Wavelength End : 1025
Wavelength Unit : Wavelength(nm)
Spectrum Unit : Reflectance(%)
-----------Spectrum Setting ------------
Integration Time : 20ms
Average : 10
Boxcar : 0
Background removal :  enabled
linearity correction :  enabled
SC :  disabled
Intensity correction :  disabled
DWT denoise :  enabled
savitzky-golay :  disabled
FFT :  disabled
Running average :  disabled
Kalman :  disabled
High pass :  disabled
---------------BEGIN--------------------
Wavelength(nm)             Reflectance(%)
200.29               0
200.75        14.68215
201.21        1.637898
201.67       -13.29177
202.13       -23.59504
202.58       -26.41544
203.04       -21.62161
203.50       -11.90799
203.96       -3.801861
204.42      -0.7805759
204.88       -2.239897
205.34       -4.023909
205.80      -0.3461808
206.26        7.569899
206.72        16.20665
207.18        21.35077
207.64        20.05654
208.10        13.25054
208.55        2.062649
209.01        -9.19873
209.47       -10.42138
209.93      -0.5534329
210.39        14.50928
210.85        27.64296
211.31        33.48336
211.77        32.08823
212.23        24.02562
212.69        10.95319
213.14        4.017336
213.60        9.103004
214.06        19.91271
214.52        29.42353
214.98         33.1643
215.44        31.89042
215.90        27.86893
216.36        22.53848
216.81        18.35184
217.27         16.9306
217.73        17.17365
218.19         20.3322
218.65         27.9558
219.11        37.49123
219.57        45.87595
220.02        50.36194
220.48        50.59061
220.94        46.92115
221.40        38.80124
221.86        26.55379
222.32        16.34159
222.77        13.17709
223.23        15.11152
223.69        17.69255
224.15        17.75833
224.61        15.30761
225.06        10.91521
225.52        6.982701
225.98        7.987362
226.44        13.78538
226.90        21.09578
227.36        26.58433
227.81        28.18533
228.27        26.40427
228.73        22.13261
229.19        17.34355
229.65        16.16391
230.10           19.16
230.56        23.85676
231.02        27.92526
231.48          29.421
231.93        28.41068
232.39         25.8676
232.85        22.54401
233.31        19.87547
233.77        18.45901
234.22        17.82142
234.68        17.83742
235.14         18.2496
235.60        18.88643
236.05        19.99554
236.51        21.14798
236.97        21.62847
237.43        21.30981
237.88        20.06337
238.34        18.50039
238.80        19.05845
239.26        22.70471
239.71        28.69579
240.17        34.38352
240.63        36.86348
241.08         35.4275
241.54        29.40539
242.00        18.73931
242.46        10.58513
242.91        14.17749
243.37        28.69217
243.83        45.62617
244.28        56.49426
244.74        60.55797
245.20        59.61674
245.66        54.81623
246.11        49.17149
246.57        44.90356
247.03        41.16651
247.48        37.76607
247.94        34.73542
248.40        32.88176
248.85         32.6019
249.31        33.58849
249.77        35.27255
250.22        37.88806
250.68        42.19291
251.14        48.67272
251.59        53.92648
252.05        54.03406
252.51        51.11422
252.96         48.0779
253.42        46.46452
253.88        45.70167
254.33        45.04256
254.79        44.59254
255.25        44.04951
255.70        43.37505
256.16        43.02823
256.62        42.74874
257.07        42.24017
257.53        41.74499
257.99        41.19841
258.44        40.57726
258.90        40.42879
259.35        40.44474
259.81        40.64833
260.27        40.79806
260.72        40.74696
261.18         40.5951
261.63        40.21281
262.09        39.73328
262.55        39.10172
263.00        38.32053
263.46        37.56249
263.91        36.70518
264.37        35.78515
264.83        34.76007
265.28        33.60622
265.74        32.56175
266.19        31.81104
266.65         31.4334
267.11        31.32668
267.56        31.26898
268.02        30.91545
268.47        30.18958
268.93        29.19557
269.38        28.12396
269.84        27.41919
270.30        27.16348
270.75        27.20973
271.21        27.29941
271.66        27.05458
272.12        26.39745
272.57        25.44807
273.03        24.41905
273.48        23.57342
273.94        23.03931
274.39        22.69445
274.85        22.46787
275.31        22.21629
275.76         21.8847
276.22        21.53577
276.67        21.17549
277.13        20.86527
277.58        20.58336
278.04        20.33204
278.49        20.04746
278.95        19.70979
279.40        19.29202
279.86        18.86855
280.31        18.46071
280.77        18.18872
281.22        18.04059
281.68        17.99692
282.13        18.00791
282.59        18.02866
283.04        18.02767
283.50        17.99894
283.95        17.92686
284.41        17.78515
284.86        17.57323
285.32        17.33648
285.77        17.06428
286.22        16.79212
286.68        16.55314
287.13        16.32597
287.59         16.1842
288.04         16.1934
288.50        16.35672
288.95        16.60849
289.41        16.87333
289.86        17.01535
290.32        17.02785
290.77        16.96757
291.22         16.8612
291.68        16.74959
292.13        16.66123
292.59        16.60051
293.04        16.69263
293.50        17.13985
293.95        17.95032
294.40        19.05862
294.86        20.21903
295.31         21.0525
295.77        21.47115
296.22        21.58137
296.68        21.62525
297.13        21.97119
297.58         22.7151
298.04        23.70103
298.49        24.75387
298.95        25.59497
299.40        26.14631
299.85        26.50941
300.31        26.76822
300.76        26.99327
301.21        27.25007
301.67        27.51344
302.12         27.7843
302.58        28.20924
303.03         28.7849
303.48        29.33745
303.94        29.77337
304.39          30.677
304.84        30.79369
305.30        31.13684
305.75        31.36545
306.20        31.58745
306.66         31.8236
307.11        32.04564
307.57        32.25386
308.02        32.37999
308.47        32.42931
308.93         32.4283
309.38        32.40106
309.83        32.42913
310.29        32.52432
310.74           32.66
311.19        32.76572
311.65        32.72581
312.10        32.52264
312.55        32.20232
313.00        31.87059
313.46        31.69061
313.91        31.68446
314.36        31.79944
314.82        31.93869
315.27        31.96618
315.72        31.82829
316.18        31.57411
316.63        31.23757
317.08        30.88437
317.53        30.55125
317.99         30.2352
318.44        29.93988
318.89        29.67609
319.35        29.44701
319.80         29.2527
320.25        29.11744
320.70        29.07386
321.16        29.10378
321.61        29.19961
322.06        29.26899
322.51        29.17319
322.97        28.88198
323.42        28.44092
323.87        27.94795
324.32        27.56471
324.78        27.32788
325.23        27.21156
325.68        27.14306
326.13        27.00054
326.59        26.74486
327.04        26.42612
327.49        26.10012
327.94        25.86548
328.39        25.73751
328.85        25.66194
329.30        25.58867
329.75        25.39697
330.20        25.06402
330.66        24.64523
331.11        24.19812
331.56        23.78648
332.01         23.4407
332.46        23.13383
332.92        22.90538
333.37        22.84804
333.82        22.95577
334.27        23.20213
334.72        23.44607
335.17        23.44964
335.63        23.15423
336.08         22.6285
336.53        22.01364
336.98        21.57573
337.43          21.399
337.88        21.40805
338.34        21.51149
338.79         21.5775
339.24        21.55104
339.69        21.48867
340.14        21.39383
340.59        21.26758
341.05        21.12396
341.50        20.94324
341.95        20.77824
342.40        20.72866
342.85        20.79979
343.30        20.95452
343.75        21.09157
344.20        21.04676
344.66        20.79611
345.11        20.39299
345.56        19.93109
346.01        19.55778
346.46        19.33151
346.91        19.22005
347.36        19.19968
347.81        19.23316
348.26        19.29408
348.72         19.3794
349.17        19.47539
349.62        19.55723
350.07        19.60644
350.52        19.62093
350.97        19.56477
351.42        19.38999
351.87         19.1086
352.32        18.75459
352.77        18.41981
353.22        18.25027
353.67        18.27917
354.13        18.45704
354.58        18.71229
355.03        18.92569
355.48        19.04633
355.93        19.09861
356.38        19.07589
356.83        18.97248
357.28        18.80242
357.73        18.57093
358.18        18.32097
358.63          18.127
359.08        18.00616
359.53        17.93741
359.98        17.90271
360.43         17.8653
360.88         17.8092
361.33        17.75064
361.78        17.66277
362.23        17.50244
362.68        17.27351
363.13        16.99188
363.58        16.72688
364.03        16.59059
364.48         16.6018
364.93        16.72138
365.38        16.87628
365.83        16.94626
366.28         16.8964
366.73        16.76344
367.18        16.58242
367.63        16.41071
368.08        16.27027
368.53         16.1406
368.98        16.02834
369.43        15.94669
369.88        15.89425
370.33        15.87374
370.78        15.85785
371.23        15.79649
371.68        15.67875
372.13        15.51565
372.58        15.33948
373.03        15.20552
373.48        15.12493
373.93        15.07731
374.38        15.03471
374.83        14.95212
375.28        14.82026
375.72        14.65582
376.17        14.48839
376.62        14.32679
377.07         14.1781
377.52        14.03594
377.97        13.91952
378.42        13.86237
378.87        13.86854
379.32        13.92788
379.77        13.99988
380.22        14.02455
380.67        13.98595
381.11        13.89161
381.56        13.78232
382.01        13.72334
382.46        13.73236
382.91        13.79718
383.36        13.85981
383.81        13.83294
384.26        13.70396
384.71        13.49615
385.15        13.29355
385.60        13.25046
386.05        13.37644
386.50        13.61777
386.95        13.84897
387.40        13.87451
387.85        13.66813
388.29        13.30548
388.74        12.93173
389.19        12.69676
389.64        12.63471
390.09        12.68734
390.54        12.81311
390.98        12.94038
391.43        13.03674
391.88        13.12182
392.33         13.1697
392.78        13.15596
393.23        13.08553
393.67        12.93041
394.12        12.75144
394.57        12.72429
395.02        12.67535
395.47        12.73175
395.91          12.789
396.36        12.75192
396.81        12.60911
397.26        12.40213
397.71        12.19027
398.15        12.05122
398.60         12.0192
399.05        12.03644
399.50         12.0709
399.95        12.13175
400.39        12.14177
400.84        12.10929
401.29        12.03012
401.74        11.97118
402.18        11.94489
402.63        11.90984
403.08        11.87463
403.53         11.8634
403.97        11.87615
404.42        11.90687
404.87        11.93331
405.32        11.91798
405.76        11.84911
406.21        11.74155
406.66        11.62408
407.11        11.54436
407.55          11.519
408.00        11.53828
408.45        11.56591
408.90        11.53481
409.34        11.43146
409.79        11.27736
410.24        11.14664
410.68        11.14996
411.13        11.30522
411.58        11.57684
412.03        11.85935
412.47        11.97295
412.92        11.86441
413.37        11.60042
413.81        11.29506
414.26        11.13934
414.71        11.16257
415.15        11.31051
415.60        11.49267
416.05        11.57334
416.49        11.51209
416.94        11.36253
417.39        11.17513
417.83        11.02399
418.28        10.94134
418.73        10.89612
419.17         10.8897
419.62        10.92665
420.07         10.9977
420.51        11.10278
420.96         11.2052
421.41         11.2387
421.85        11.19002
422.30        11.08959
422.74        10.97631
423.19        10.92988
423.64        10.96045
424.08        11.05017
424.53        11.15644
424.98        11.22725
425.42        11.24246
425.87        11.20634
426.31        11.13243
426.76        11.06107
427.21        10.96668
427.65         10.8659
428.10         10.7551
428.54        10.61187
428.99        10.45566
429.44        10.36857
429.88        10.34433
430.33        10.24101
430.77        10.12674
431.22        10.31556
431.66        10.74403
432.11        10.95917
432.56        10.88338
433.00        10.77365
433.45        10.66387
433.89         10.3888
434.34        10.10116
434.78        10.17024
435.23        10.50509
435.67        10.63054
436.12        10.50779
436.57         10.3963
437.01        10.34438
437.46        10.32305
437.90        10.34543
438.35        10.41073
438.79        10.48199
439.24        10.48261
439.68        10.41689
440.13        10.35139
440.57        10.29411
441.02        10.26477
441.46        10.27143
441.91         10.2298
442.35          10.164
442.80        10.33223
443.24        10.63447
443.69        10.57031
444.13        10.19397
444.58        10.02189
445.02        10.06286
445.47        10.04812
445.91        9.975204
446.36        9.971854
446.80        10.03387
447.24        10.13246
447.69        10.23405
448.13        10.28729
448.58        10.28084
449.02        10.22858
449.47        10.16888
449.91        10.15769
450.36        10.20693
450.80        10.29703
451.25        10.38681
451.69        10.41216
452.13        10.35786
452.58        10.25284
453.02        10.13239
453.47        10.05204
453.91        10.02498
454.36        10.06379
454.80        10.09581
455.24        10.12065
455.69        10.11422
456.13        10.08522
456.58        10.05434
457.02        10.04156
457.46        10.05429
457.91        10.08283
458.35        10.10605
458.79        10.09622
459.24         10.0578
459.68        10.00526
460.13        9.967594
460.57        9.940095
461.01        10.00722
461.46        10.05544
461.90         10.1014
462.34         10.2261
462.79        10.37363
463.23        10.33433
463.68        10.14788
464.12        10.06709
464.56        10.10825
465.01        10.15037
465.45        10.16599
465.89        10.16273
466.34        10.15239
466.78        10.18288
467.22        10.26361
467.67        10.24362
468.11         10.1276
468.55        9.975347
468.99        9.837827
469.44         9.76693
469.88        9.777803
470.32        9.861163
470.77         9.97628
471.21        10.06785
471.65        10.11109
472.10        10.12584
472.54        10.12924
472.98        10.16311
473.42        10.23432
473.87        10.32231
474.31        10.40324
474.75        10.44331
475.20        10.43929
475.64        10.40268
476.08        10.35268
476.52        10.31502
476.97        10.29952
477.41        10.29777
477.85        10.31305
478.29        10.34785
478.74        10.40291
479.18        10.47265
479.62        10.54013
480.06        10.60526
480.50        10.66865
480.95        10.63094
481.39        10.67192
481.83        10.72236
482.27         10.8445
482.72        10.93358
483.16        11.10388
483.60         11.1817
484.04         11.1989
484.48        11.15595
484.93        11.11541
485.37        11.22098
485.81        11.39163
486.25        11.61512
486.69          11.051
487.14        11.31906
487.58        12.10731
488.02        11.98887
488.46        11.95005
488.90        12.35699
489.34        11.85422
489.79        12.03527
490.23        12.08167
490.67        12.29054
491.11        12.49002
491.55        12.52247
491.99        12.44924
492.43        12.53245
492.88        12.78769
493.32        13.02964
493.76        13.22026
494.20        13.40857
494.64        13.58792
495.08        13.73679
495.52        13.84987
495.96        13.95873
496.41        14.07346
496.85        14.10592
497.29        14.08433
497.73        14.30625
498.17        14.54857
498.61         14.5887
499.05        14.41498
499.49        14.38642
499.93        14.53697
500.37        14.72814
500.82        14.91217
501.26        15.04776
501.70        15.11845
502.14        15.15715
502.58        15.20752
503.02        15.32103
503.46        15.50891
503.90         15.7537
504.34        16.00376
504.78         16.1716
505.22        16.23385
505.66        16.21485
506.10        16.15405
506.54        16.13439
506.98        16.18133
507.42        16.23907
507.86        16.27621
508.30        16.42633
508.74        16.37994
509.18        16.39565
509.62        16.40165
510.06        16.43031
510.50        16.48655
510.94        16.56289
511.38        16.64923
511.82        16.72194
512.26        16.77336
512.70        16.80848
513.14        16.83443
513.58        16.86261
514.02        16.89665
514.46        16.93301
514.90        16.96512
515.34        16.98325
515.78        16.98558
516.22         16.9756
516.66        16.96291
517.10        16.96214
517.54        16.97438
517.98        16.99229
518.42        17.00351
518.86        16.98834
519.30        16.94328
519.74        16.87873
520.18        16.80325
520.62        16.72791
521.06        16.66099
521.50        16.60401
521.93        16.56729
522.37        16.56196
522.81        16.58913
523.25        16.63892
523.69        16.69945
524.13        16.75341
524.57        16.79046
525.01        16.80959
525.45        16.79846
525.89        16.74076
526.32        16.63582
526.76        16.49658
527.20        16.34488
527.64        16.21466
528.08        16.11614
528.52        16.04393
528.96        15.98929
529.40        15.93538
529.83        15.87606
530.27        15.81874
530.71        15.76405
531.15        15.71491
531.59        15.67028
532.03        15.62426
532.46        15.57482
532.90        15.52518
533.34        15.47574
533.78        15.43151
534.22          15.386
534.66        15.32782
535.09        15.25662
535.53        15.18087
535.97        15.12145
536.41        15.11684
536.85        15.16991
537.28        15.26407
537.72        15.36248
538.16        15.41014
538.60        15.39439
539.04        15.33777
539.47        15.25944
539.91        15.20486
540.35         15.1861
540.79        15.19802
541.22        15.24565
541.66        15.33988
542.10        15.47448
542.54         15.6424
542.97        15.82886
543.41        16.00887
543.85        16.17398
544.29         16.3337
544.72        16.47043
545.16        16.57277
545.60        16.64303
546.04        16.67899
546.47        16.72942
546.91        16.89808
547.35        17.18297
547.79        17.49966
548.22        17.78308
548.66        18.03025
549.10        18.23012
549.53        18.30969
549.97        18.28247
550.41        18.54825
550.84        18.56973
551.28        18.74474
551.72        18.88598
552.15         19.1271
552.59        19.22084
553.03        19.37045
553.46        19.50828
553.90        19.63201
554.34        19.73946
554.77        19.85178
555.21        19.97206
555.65         20.0522
556.08        20.10969
556.52        20.23785
556.96        20.42304
557.39        20.59549
557.83        20.74199
558.27        20.85358
558.70        20.94108
559.14        21.04748
559.57        21.15816
560.01        21.24587
560.45        21.30782
560.88        21.28013
561.32        21.30169
561.75        21.37567
562.19        21.52421
562.63         21.6286
563.06        21.67803
563.50        21.74738
563.93        21.82969
564.37        21.90384
564.80        21.96492
565.24        22.02396
565.68        22.08695
566.11        22.17823
566.55        22.30152
566.98        22.41822
567.42        22.54905
567.85        22.68067
568.29        22.81045
568.72        23.01195
569.16        23.31745
569.60        23.26169
570.03        23.55724
570.47        23.78927
570.90        23.89979
571.34        24.04747
571.77         24.2042
572.21        24.32019
572.64        24.39338
573.08        24.53547
573.51        24.77698
573.95        24.78867
574.38        24.86819
574.82        25.06164
