SpectraSmart Spectrum 2.9.0.0
--------- Device Information -----------
Spectrum Name :  反射率_0
Saving Time :  2024/04/30 01:19:31
Spectro-Module Model Name : SE2030-DUVN
Spectro-Module Serial Number : OS361AC55029948
Wavelength Start : 200
Wavelength End : 1025
Wavelength Unit : Wavelength(nm)
Spectrum Unit : Reflectance(%)
-----------Spectrum Setting ------------
Integration Time : 20ms
Average : 10
Boxcar : 0
Background removal :  enabled
linearity correction :  enabled
SC :  disabled
Intensity correction :  disabled
DWT denoise :  enabled
savitzky-golay :  disabled
FFT :  disabled
Running average :  disabled
Kalman :  disabled
High pass :  disabled
---------------BEGIN--------------------
Wavelength(nm)             Reflectance(%)
200.29               0
200.75        60.00389
201.21        48.70753
201.67        37.89636
202.13        34.07775
202.58        39.90851
203.04        54.80207
203.50        74.52599
203.96         89.3401
204.42        93.70848
204.88        88.45119
205.34        77.31951
205.80        68.05527
206.26        63.37244
206.72        61.33729
207.18        59.76165
207.64        56.55378
208.10        51.39549
208.55        44.64838
209.01        37.97767
209.47        36.07133
209.93        39.61889
210.39        46.03939
210.85         51.4526
211.31        52.60138
211.77        49.11897
212.23        40.65588
212.69        28.83606
213.14        23.88734
213.60        30.57851
214.06        43.15199
214.52        54.08931
214.98        58.76177
215.44        58.27285
215.90         54.6583
216.36        50.72072
216.81        51.74318
217.27        60.54147
217.73        77.41949
218.19        100.9821
218.65        118.9251
219.11        121.5104
219.57         112.613
220.02         101.157
220.48        94.07966
220.94        90.63676
221.40        88.67892
221.86        86.63087
222.32        82.32503
222.77         76.7349
223.23        73.08585
223.69        71.36494
224.15        70.94524
224.61        71.52901
225.06        72.99883
225.52        75.62996
225.98         79.0551
226.44        82.22895
226.90        84.55827
227.36        86.24342
227.81        87.80246
228.27        89.58843
228.73        91.39227
229.19        92.61971
229.65        92.06567
230.10        89.80543
230.56        87.19642
231.02        84.81786
231.48        83.06263
231.93         81.7482
232.39        80.69427
232.85        80.05612
233.31        80.31249
233.77        81.48083
234.22        83.56839
234.68        85.50069
235.14        85.45707
235.60        83.13147
236.05        79.17581
236.51        75.24126
236.97        73.34321
237.43         73.9302
237.88        76.97768
238.34        81.61318
238.80        85.50063
239.26        86.74165
239.71        85.79353
240.17        83.64581
240.63        82.13258
241.08        81.90151
241.54        82.34217
242.00        83.63367
242.46        85.34102
242.91         86.9127
243.37        87.97798
243.83        89.03084
244.28        90.82557
244.74        93.31263
245.20        95.73482
245.66        97.95893
246.11         99.6342
246.57        100.2747
247.03        101.0758
247.48         99.0259
247.94        89.41859
248.40        76.46938
248.85        64.67639
249.31        58.30874
249.77        58.78585
250.22        65.85565
250.68        81.06861
251.14        104.7494
251.59        119.6523
252.05        112.0775
252.51         95.1114
252.96         80.9248
253.42        73.70069
253.88        70.87701
254.33        70.03426
254.79        70.39032
255.25        70.26487
255.70        69.27611
256.16        68.67809
256.62        68.57178
257.07        68.95397
257.53        70.03236
257.99        71.26398
258.44        71.97153
258.90        71.99623
259.35         70.9949
259.81        69.79871
260.27        68.54688
260.72        67.35261
261.18        66.45261
261.63        65.49232
262.09         64.6245
262.55        63.67847
263.00        62.62384
263.46        61.75583
263.91        60.91838
264.37        60.28521
264.83        59.74903
265.28         59.2065
265.74        58.82063
266.19         58.5731
266.65        58.51023
267.11        58.52581
267.56        58.46301
268.02        58.13378
268.47        57.46832
268.93        56.55616
269.38        55.46848
269.84        54.45301
270.30        53.60077
270.75        52.86929
271.21         52.2604
271.66        51.70124
272.12        51.16637
272.57        50.62955
273.03        50.09163
273.48        49.44793
273.94        48.75489
274.39        47.98381
274.85        47.21739
275.31        46.45942
275.76        45.69425
276.22        44.96471
276.67        44.24633
277.13         43.6417
277.58        43.08756
278.04        42.61278
278.49        42.09722
278.95        41.49643
279.40        40.75076
279.86        39.98454
280.31        39.19893
280.77        38.54331
281.22        38.00263
281.68        37.58248
282.13         37.2603
282.59        37.08759
283.04        36.99891
283.50        36.96104
283.95        36.85048
284.41        36.52126
284.86        35.93133
285.32        35.19193
285.77        34.34055
286.22        33.51476
286.68        32.78247
287.13        32.09597
287.59        31.52591
288.04        31.10884
288.50        30.86325
288.95        30.72864
289.41        30.66187
289.86        30.54126
290.32        30.35299
290.77        30.11083
291.22        29.80499
291.68        29.42684
292.13        28.98751
292.59        28.52744
293.04        28.15594
293.50        28.06452
293.95        28.26979
294.40        28.72543
294.86        29.26805
295.31        29.65185
295.77         29.8112
296.22         29.8018
296.68        29.76995
297.13        29.92496
297.58        30.31932
298.04        30.84902
298.49        31.38375
298.95        31.72214
299.40        31.81941
299.85        31.76196
300.31        31.65266
300.76        31.58703
301.21        31.62985
301.67        31.74891
302.12        31.91334
302.58        32.21805
303.03         32.6405
303.48        33.02806
303.94        33.29102
304.39        33.98397
304.84        33.91988
305.30        34.06257
305.75        34.10809
306.20        34.19952
306.66        34.36359
307.11        34.55981
307.57         34.7583
308.02        34.83906
308.47        34.79892
308.93        34.68009
309.38        34.53303
309.83        34.48365
310.29        34.55507
310.74        34.70416
311.19         34.8391
311.65        34.81336
312.10        34.59692
312.55         34.2411
313.00        33.86611
313.46        33.65666
313.91        33.64082
314.36        33.76571
314.82        33.91051
315.27        33.90051
315.72        33.68272
316.18        33.32478
316.63        32.91563
317.08        32.60659
317.53        32.44505
317.99        32.39074
318.44        32.38243
318.89        32.32911
319.35        32.20366
319.80        32.03576
320.25        31.87667
320.70        31.80616
321.16        31.82716
321.61        31.91936
322.06        32.00397
322.51         31.9657
322.97        31.77616
323.42        31.48038
323.87         31.1457
324.32        30.88284
324.78        30.71527
325.23        30.62699
325.68        30.57387
326.13        30.48514
326.59        30.33514
327.04         30.1636
327.49        29.99146
327.94        29.86306
328.39        29.78343
328.85        29.71314
329.30        29.65169
329.75        29.55474
330.20        29.41358
330.66        29.25018
331.11        29.06491
331.56        28.83143
332.01        28.55679
332.46        28.24232
332.92        27.95714
333.37        27.85565
333.82        27.95534
334.27          28.215
334.72        28.50059
335.17        28.58332
335.63        28.40257
336.08        28.03797
336.53        27.60042
336.98        27.30113
337.43        27.21026
337.88        27.25858
338.34        27.39638
338.79        27.56588
339.24        27.72377
339.69        27.89989
340.14        28.04199
340.59        28.05682
341.05        27.93899
341.50        27.71034
341.95        27.47223
342.40        27.40001
342.85        27.52591
343.30        27.78713
343.75        28.08448
344.20        28.25574
344.66        28.26203
345.11        28.15225
345.56        27.96367
346.01        27.75256
346.46        27.55959
346.91        27.37506
347.36        27.24469
347.81        27.24128
348.26        27.36501
348.72        27.58504
349.17         27.8359
349.62        27.99601
350.07        28.02376
350.52        27.95429
350.97        27.80599
351.42        27.61055
351.87        27.39701
352.32        27.16734
352.77        26.97553
353.22        26.90903
353.67        26.98136
354.13        27.16238
354.58        27.39174
355.03        27.56759
355.48        27.64793
355.93        27.64822
356.38        27.57307
356.83        27.43641
357.28        27.25305
357.73        27.02578
358.18          26.777
358.63        26.54424
359.08        26.34344
359.53        26.17451
359.98        26.04368
360.43        25.95331
360.88        25.89696
361.33        25.86936
361.78         25.8451
362.23        25.78406
362.68        25.67686
363.13        25.53432
363.58        25.37379
364.03        25.22523
364.48        25.09992
364.93        24.99009
365.38        24.89775
365.83        24.82681
366.28          24.774
366.73        24.73601
367.18        24.69881
367.63        24.63942
368.08        24.54918
368.53        24.43106
368.98        24.29132
369.43        24.14048
369.88        23.98917
370.33        23.84589
370.78        23.70977
371.23        23.58039
371.68         23.4572
372.13         23.3294
372.58        23.22695
373.03         23.1961
373.48        23.23339
373.93        23.32422
374.38         23.3746
374.83        23.23372
375.28        22.88829
375.72        22.39411
376.17         21.9126
376.62          21.635
377.07        21.59593
377.52        21.72705
377.97        21.93108
378.42        22.04304
378.87        22.01204
379.32        21.89579
379.77         21.7319
380.22        21.57541
380.67        21.44566
381.11        21.31117
381.56         21.1969
382.01        21.14879
382.46        21.17033
382.91        21.25883
383.36        21.34282
383.81        21.30692
384.26        21.13584
384.71        20.86249
385.15        20.57876
385.60        20.46015
386.05        20.52279
386.50        20.70301
386.95        20.89442
387.40        20.93039
387.85        20.78042
388.29        20.50415
388.74        20.20322
389.19        19.94791
389.64        19.76451
390.09        19.61863
390.54        19.53183
390.98        19.54054
391.43        19.64037
391.88        19.80856
392.33        19.95905
392.78        19.98816
393.23        19.88659
393.67        19.64605
394.12        19.35744
394.57        19.28158
395.02        19.16054
395.47        19.17975
395.91         19.2197
396.36        19.20905
396.81        19.13419
397.26         19.0304
397.71        18.91166
398.15        18.78555
398.60        18.68845
399.05        18.57523
399.50        18.46853
399.95        18.48477
400.39        18.53058
400.84        18.58923
401.29        18.61132
401.74        18.62185
402.18        18.61124
402.63        18.53727
403.08        18.44356
403.53        18.41371
403.97        18.45849
404.42        18.55261
404.87        18.63599
405.32        18.61273
405.76        18.46205
406.21        18.22711
406.66         17.9814
407.11        17.83986
407.55        17.83489
408.00        17.93048
408.45        18.05952
408.90        18.09844
409.34        18.01153
409.79        17.83681
410.24        17.65557
410.68        17.58907
411.13        17.66173
411.58        17.83117
412.03        18.01081
412.47        18.05841
412.92        17.92934
413.37        17.68739
413.81        17.41511
414.26        17.25886
414.71        17.23761
415.15        17.31124
415.60        17.42087
416.05        17.48824
416.49         17.4867
416.94        17.44867
417.39         17.3867
417.83        17.31503
418.28        17.24878
418.73         17.1723
419.17        17.11621
419.62        17.13406
420.07        17.22698
420.51         17.3763
420.96        17.52081
421.41        17.55349
421.85        17.45262
422.30        17.27324
422.74        17.07246
423.19        16.96305
423.64        16.96002
424.08        17.03591
424.53        17.13981
424.98        17.21245
425.42        17.23171
425.87        17.20514
426.31        17.13693
426.76        17.05885
427.21        16.92531
427.65         16.7638
428.10        16.59739
428.54        16.44086
428.99         16.3215
429.44        16.34711
429.88         16.4525
430.33        16.32288
430.77        16.05913
431.22        16.19481
431.66        16.68114
432.11        16.91975
432.56          16.823
433.00        16.76334
433.45        16.73536
433.89        16.37623
434.34        15.88889
434.78        15.89472
435.23        16.29551
435.67        16.41946
436.12        16.22888
436.57        16.10229
437.01        16.08364
437.46        16.07911
437.90         16.0955
438.35        16.14872
438.79         16.2129
439.24        16.22103
439.68        16.18585
440.13        16.18895
440.57        16.20305
441.02        16.19008
441.46        16.15213
441.91         15.9896
442.35        15.77913
442.80         15.9688
443.24        16.41261
443.69         16.3218
444.13        15.77669
444.58        15.56786
445.02        15.70378
445.47        15.76698
445.91        15.72851
446.36         15.7486
446.80        15.81531
447.24        15.89226
447.69        15.96116
448.13        15.99355
448.58        15.98676
449.02        15.94925
449.47        15.91422
449.91        15.92434
450.36        15.98874
450.80        16.09007
451.25        16.19244
451.69        16.23529
452.13        16.20453
452.58        16.12958
453.02        16.03583
453.47        15.96263
453.91        15.91953
454.36        15.93868
454.80         15.9373
455.24         15.9665
455.69        16.00013
456.13        16.03912
456.58        16.07649
457.02         16.0849
457.46        16.06561
457.91        16.02354
458.35        15.97479
458.79        15.95319
459.24        15.97421
459.68        16.03431
460.13        16.11655
460.57        16.12005
461.01        16.16016
461.46        16.08883
461.90        15.99097
462.34        16.08971
462.79        16.32082
463.23        16.32363
463.68        16.11786
464.12         16.0352
464.56        16.08628
465.01        16.10702
465.45        16.07558
465.89         16.0298
466.34         15.9978
466.78        16.04437
467.22        16.18884
467.67        16.20334
468.11        16.09189
468.55         15.9413
468.99        15.81227
469.44        15.75692
469.88        15.79111
470.32        15.90412
470.77        16.03975
471.21        16.12007
471.65        16.11762
472.10        16.06405
472.54        15.99735
472.98        15.99354
473.42        16.06773
473.87        16.18993
474.31        16.31903
474.75         16.3976
475.20          16.415
475.64        16.38605
476.08        16.33654
476.52        16.30121
476.97        16.29236
477.41        16.29725
477.85        16.31462
478.29          16.341
478.74        16.37935
479.18        16.42318
479.62        16.46381
480.06        16.52602
480.50         16.6166
480.95        16.57672
481.39        16.66685
481.83         16.7397
482.27         16.8815
482.72        16.93844
483.16        17.11785
483.60        17.18647
484.04        17.19799
484.48        17.17807
484.93        17.17465
485.37        17.22603
485.81        17.25319
486.25        17.50668
486.69        16.90823
487.14        17.18159
487.58         17.8083
488.02        17.93039
488.46        18.03831
488.90        18.51137
489.34         17.8129
489.79        17.80277
490.23        17.96123
490.67        18.28256
491.11        18.61211
491.55        18.55958
491.99        18.23354
492.43        18.21538
492.88        18.53609
493.32        18.81138
493.76          18.981
494.20        19.16339
494.64        19.34838
495.08        19.49449
495.52        19.58985
495.96        19.67229
496.41        19.75513
496.85        19.71687
497.29        19.60951
497.73        19.86191
498.17        20.16601
498.61        20.21361
499.05        19.96884
499.49        19.89714
499.93        20.03842
500.37        20.20469
500.82        20.36564
501.26        20.52053
501.70        20.65434
502.14        20.79395
502.58        20.94102
503.02        21.07353
503.46        21.19028
503.90        21.29833
504.34         21.3967
504.78        21.48237
505.22        21.55526
505.66        21.61358
506.10        21.65376
506.54        21.69503
506.98        21.74439
507.42        21.75579
507.86        21.71748
508.30        21.85544
508.74        21.77313
509.18        21.79535
509.62        21.81441
510.06        21.85808
510.50        21.92583
510.94          22.014
511.38        22.11105
511.82        22.18575
512.26        22.23019
512.70        22.25288
513.14        22.26161
513.58        22.26919
514.02         22.2825
514.46        22.29874
514.90        22.32231
515.34        22.36138
515.78        22.41411
516.22        22.47401
516.66        22.53238
517.10        22.57513
517.54        22.59603
517.98        22.59803
518.42        22.57468
518.86        22.51721
519.30        22.43029
519.74        22.32225
520.18        22.21643
520.62         22.1466
521.06        22.12232
521.50        22.13818
521.93         22.1796
522.37        22.21291
522.81        22.22892
523.25        22.23086
523.69        22.22938
524.13        22.24279
524.57        22.27198
525.01        22.30704
525.45        22.32672
525.89         22.2994
526.32        22.21835
526.76        22.10385
527.20        21.98224
527.64        21.89378
528.08        21.84935
528.52        21.83867
528.96         21.8453
529.40        21.84251
529.83        21.81948
530.27         21.7842
530.71        21.74344
531.15        21.71077
531.59        21.68773
532.03         21.6679
532.46        21.63648
532.90        21.57895
533.34        21.49504
533.78        21.39855
534.22        21.30801
534.66        21.24895
535.09        21.22662
535.53        21.23855
535.97        21.27637
536.41        21.33257
536.85        21.39729
537.28        21.46505
537.72        21.52297
538.16        21.55428
538.60        21.55506
539.04        21.53451
539.47        21.48992
539.91        21.43902
540.35        21.38728
540.79        21.34398
541.22        21.33264
541.66        21.39223
542.10        21.52555
542.54        21.71845
542.97        21.94388
543.41        22.16123
543.85        22.35303
544.29         22.5286
544.72         22.6746
545.16        22.78976
545.60        22.87542
546.04        22.92301
546.47        22.96217
546.91        23.07776
547.35        23.26415
547.79        23.43247
548.22        23.55703
548.66        23.72178
549.10        23.92776
549.53        24.05393
549.97        24.06894
550.41        24.41884
550.84        24.37312
551.28        24.47939
551.72        24.52492
552.15        24.73305
552.59        24.79798
553.03        24.96594
553.46        25.12702
553.90        25.24686
554.34        25.31435
554.77        25.36637
555.21        25.42964
555.65        25.47958
556.08        25.54509
556.52         25.7317
556.96        25.98833
557.39        26.17442
557.83        26.26452
558.27         26.2652
558.70        26.23082
559.14        26.28135
559.57        26.41223
560.01        26.56574
560.45        26.70077
560.88        26.68063
561.32         26.6659
561.75        26.68068
562.19        26.76976
562.63        26.81288
563.06        26.80684
563.50        26.83488
563.93        26.88874
564.37        26.93804
564.80        26.97412
565.24        27.03337
565.68        27.11152
566.11        27.17461
566.55        27.24419
566.98        27.37278
567.42        27.57489
567.85        27.72853
568.29        27.81841
568.72         28.0193
569.16        28.38021
569.60        28.21682
570.03        28.37988
570.47        28.72242
570.90        28.75426
571.34        28.71181
571.77        29.01804
572.21        29.15939
572.64         29.2874
573.08        29.40948
573.51         29.5762
573.95        29.53899
574.38        29.88427
574.82        29.76873
