SpectraSmart Spectrum 2.9.0.0
--------- Device Information -----------
Spectrum Name :  反射率_0
Saving Time :  2024/04/30 00:56:42
Spectro-Module Model Name : SE2030-DUVN
Spectro-Module Serial Number : OS361AC55029948
Wavelength Start : 200
Wavelength End : 1025
Wavelength Unit : Wavelength(nm)
Spectrum Unit : Reflectance(%)
-----------Spectrum Setting ------------
Integration Time : 20ms
Average : 10
Boxcar : 0
Background removal :  enabled
linearity correction :  enabled
SC :  disabled
Intensity correction :  disabled
DWT denoise :  enabled
savitzky-golay :  disabled
FFT :  disabled
Running average :  disabled
Kalman :  disabled
High pass :  disabled
---------------BEGIN--------------------
Wavelength(nm)             Reflectance(%)
200.29               0
200.75        34.56493
201.21         25.2098
201.67         13.3183
202.13        1.761383
202.58       -7.939654
203.04       -16.27185
203.50       -21.62685
203.96       -20.44122
204.42       -12.00185
204.88        2.569182
205.34        17.94808
205.80        25.35467
206.26        24.59224
206.72        20.47066
207.18        15.64409
207.64        11.77373
208.10        8.830725
208.55        5.531404
209.01        3.762885
209.47        7.654556
209.93        16.33763
210.39         27.1081
210.85        35.33165
211.31         37.2734
211.77         32.7965
212.23        21.10617
212.69        4.324872
213.14       -3.340495
213.60        5.126149
214.06        21.58156
214.52        35.55883
214.98        40.24503
215.44        36.85815
215.90        28.25409
216.36        17.66673
216.81        11.22276
217.27        12.24438
217.73        19.85231
218.19        33.70264
218.65        47.08603
219.11        53.20771
219.57        53.38385
220.02        50.91602
220.48        49.25638
220.94        48.53941
221.40        47.31083
221.86        45.09006
222.32        42.14913
222.77         39.5246
223.23         38.6005
223.69        37.89348
224.15        35.83178
224.61        32.34707
225.06        27.43105
225.52        23.30807
225.98          24.422
226.44         30.5121
226.90        38.18209
227.36        44.30453
227.81        47.06723
228.27        47.03876
228.73        45.06588
229.19         42.2928
229.65         41.0995
230.10        42.04839
230.56        43.98542
231.02        45.77328
231.48        46.50801
231.93        46.12531
232.39        45.07503
232.85        43.74172
233.31        42.85791
233.77        42.67118
234.22        43.05191
234.68        43.41365
235.14        42.78924
235.60        41.07494
236.05        38.74225
236.51        36.73957
236.97        36.16524
237.43        37.26661
237.88        40.04535
238.34        43.96402
238.80        47.33277
239.26        48.65778
239.71         48.1608
240.17         46.3639
240.63        44.35895
241.08        42.28338
241.54        39.27668
242.00        35.01146
242.46        31.03166
242.91        30.22956
243.37        33.48925
243.83        38.43427
244.28        41.75422
244.74        42.74514
245.20        41.73819
245.66        39.46329
246.11        37.91114
246.57        38.33415
247.03        40.35182
247.48        42.01872
247.94        39.47164
248.40         34.0295
248.85        28.63023
249.31        25.58912
249.77        25.76518
250.22        29.03195
250.68        35.95197
251.14        47.16635
251.59        55.87918
252.05        55.27887
252.51        50.22876
252.96        45.24088
253.42        42.20014
253.88        40.42979
254.33        38.78654
254.79        38.41975
255.25        40.54824
255.70        44.07537
256.16        47.93033
256.62        50.62961
257.07        51.28525
257.53        50.64939
257.99        49.10599
258.44        47.34429
258.90         46.9299
259.35        47.47146
259.81         48.4857
260.27        49.20604
260.72        49.04039
261.18        48.23861
261.63        46.93239
262.09        45.56273
262.55        44.40466
263.00        43.49159
263.46        42.85544
263.91        42.21505
264.37        41.47495
264.83        40.56445
265.28        39.51684
265.74        38.62224
266.19        38.11024
266.65        38.05836
267.11        38.30014
267.56        38.57842
268.02        38.53264
268.47        38.06987
268.93        37.30667
269.38        36.38465
269.84        35.66695
270.30        35.23174
270.75         34.9581
271.21        34.70578
271.66        34.24971
272.12         33.5403
272.57        32.65256
273.03        31.69467
273.48        30.74733
273.94        29.93031
274.39        29.20758
274.85        28.62817
275.31         28.1942
275.76        27.86584
276.22        27.63057
276.67        27.44576
277.13        27.32946
277.58         27.2115
278.04        27.11179
278.49        26.88799
278.95         26.4255
279.40        25.70076
279.86        24.85016
280.31        24.00981
280.77        23.49088
281.22        23.30924
281.68        23.38133
282.13        23.57113
282.59          23.726
283.04         23.7701
283.50        23.73557
283.95        23.59785
284.41        23.32858
284.86        22.93633
285.32        22.47678
285.77        21.97252
286.22        21.52251
286.68         21.1682
287.13        20.86303
287.59        20.66129
288.04        20.58727
288.50        20.63653
288.95        20.75915
289.41        20.87094
289.86        20.81294
290.32        20.58389
290.77        20.24145
291.22        19.86778
291.68        19.59462
292.13        19.46513
292.59        19.46104
293.04        19.62452
293.50        20.03519
293.95        20.67703
294.40        21.52088
294.86        22.40233
295.31        23.07693
295.77        23.47987
296.22        23.65972
296.68        23.77533
297.13        24.06524
297.58        24.59531
298.04        25.26605
298.49         25.9481
298.95        26.43173
299.40        26.67262
299.85        26.75547
300.31        26.79336
300.76        26.90006
301.21        27.13649
301.67        27.46238
302.12        27.81218
302.58        28.22775
303.03        28.68637
303.48        29.04439
303.94          29.265
304.39        30.03148
304.84        30.09876
305.30        30.45499
305.75        30.72009
306.20        30.94699
306.66        31.14197
307.11        31.30232
307.57        31.43848
308.02        31.49516
308.47        31.48314
308.93        31.41844
309.38        31.33928
309.83        31.35153
310.29        31.46637
310.74        31.65024
311.19         31.7981
311.65        31.73969
312.10        31.44994
312.55        30.99364
313.00        30.51782
313.46        30.25107
313.91        30.23195
314.36        30.38922
314.82        30.59618
315.27        30.66555
315.72         30.5317
316.18        30.26504
316.63        29.91814
317.08        29.58578
317.53        29.31127
317.99        29.07186
318.44        28.87012
318.89         28.7187
319.35        28.61233
319.80        28.54932
320.25        28.52078
320.70        28.50508
321.16        28.47849
321.61        28.45298
322.06        28.38754
322.51        28.23166
322.97        27.98104
323.42        27.65602
323.87        27.31874
324.32        27.07246
324.78        26.93246
325.23        26.88712
325.68        26.86717
326.13        26.75582
326.59        26.51872
327.04        26.20254
327.49        25.86896
327.94        25.63005
328.39        25.50848
328.85        25.45237
329.30        25.41916
329.75        25.29655
330.20        25.05872
330.66        24.75338
331.11        24.42271
331.56        24.10699
332.01        23.83094
332.46        23.57612
332.92        23.38169
333.37        23.34317
333.82        23.45955
334.27        23.70176
334.72        23.95626
335.17        24.03066
335.63        23.87327
336.08        23.54326
336.53         23.1298
336.98        22.80824
337.43        22.64241
337.88        22.58398
338.34        22.60076
338.79         22.6594
339.24        22.72683
339.69        22.82203
340.14        22.90634
340.59        22.90944
341.05        22.82067
341.50        22.65068
341.95        22.45438
342.40        22.33218
342.85         22.3054
343.30        22.34052
343.75        22.38769
344.20        22.36685
344.66        22.26508
345.11        22.10526
345.56         21.9144
346.01        21.72937
346.46        21.57458
346.91          21.446
347.36        21.35437
347.81        21.31801
348.26        21.33132
348.72        21.37715
349.17        21.44071
349.62        21.49574
350.07        21.52522
350.52        21.53582
350.97        21.49491
351.42        21.35423
351.87         21.1215
352.32        20.82313
352.77        20.54175
353.22        20.41019
353.67        20.45746
354.13        20.63944
354.58        20.88011
355.03        21.05583
355.48        21.11863
355.93        21.09223
356.38        20.99785
356.83         20.8714
357.28        20.73062
357.73        20.57055
358.18        20.38677
358.63        20.17749
359.08        19.94994
359.53        19.71133
359.98        19.50387
360.43        19.38743
360.88        19.36563
361.33        19.41746
361.78        19.46629
362.23        19.39067
362.68        19.16929
363.13        18.84339
363.58        18.49499
364.03        18.25633
364.48        18.15986
364.93        18.16037
365.38        18.20522
365.83        18.20894
366.28        18.14342
366.73        18.04031
367.18         17.9082
367.63        17.75796
368.08        17.59976
368.53        17.42433
368.98        17.25913
369.43        17.15341
369.88        17.11413
370.33         17.1298
370.78        17.15522
371.23        17.11245
371.68        16.98283
372.13        16.78844
372.58         16.5718
373.03        16.40397
373.48        16.30142
373.93        16.23678
374.38        16.18409
374.83        16.10119
375.28        15.97849
375.72        15.83533
376.17        15.68714
376.62        15.52013
377.07        15.33751
377.52        15.13341
377.97        14.95609
378.42        14.88774
378.87        14.94004
379.32        15.09021
379.77        15.24523
380.22        15.26661
380.67        15.12771
381.11        14.85979
381.56        14.57325
382.01        14.44942
382.46        14.52872
382.91        14.75721
383.36        14.99778
383.81        15.04227
384.26         14.8539
384.71         14.5015
385.15         14.1266
385.60         13.9738
386.05        14.07775
386.50         14.3486
386.95        14.64227
387.40        14.73569
387.85        14.58478
388.29        14.27409
388.74        13.92746
389.19        13.65924
389.64        13.50418
390.09        13.41514
390.54        13.39215
390.98        13.43731
391.43        13.53709
391.88        13.68738
392.33        13.82526
392.78        13.87315
393.23        13.82348
393.67        13.66403
394.12        13.47166
394.57        13.44927
395.02         13.4202
395.47        13.51307
395.91        13.61382
396.36        13.61795
396.81        13.50925
397.26        13.32955
397.71        13.14647
398.15        13.04922
398.60        13.07259
399.05        13.15189
399.50        13.23689
399.95        13.31664
400.39         13.3062
400.84         13.2222
401.29        13.08551
401.74        13.01395
402.18        13.03186
402.63         13.0789
403.08        13.13589
403.53        13.18514
403.97        13.21583
404.42         13.2369
404.87        13.23753
405.32        13.19905
405.76        13.11793
406.21        13.00182
406.66        12.88557
407.11        12.82797
407.55          12.845
408.00        12.92431
408.45        13.01135
408.90        13.00448
409.34        12.88228
409.79         12.6777
410.24        12.48575
410.68        12.44947
411.13        12.59575
411.58        12.87971
412.03        13.19042
412.47        13.33656
412.92        13.25891
413.37        13.03023
413.81        12.75752
414.26         12.6233
414.71        12.65577
415.15        12.79901
415.60        12.97904
416.05        13.08929
416.49        13.09472
416.94         13.0432
417.39        12.95203
417.83        12.84228
418.28        12.73617
418.73        12.61545
419.17        12.53026
419.62         12.5635
420.07         12.7187
420.51        12.96921
420.96        13.21712
421.41        13.29896
421.85        13.18498
422.30        12.94656
422.74        12.68243
423.19         12.5603
423.64        12.60993
424.08        12.78669
424.53        13.01404
424.98        13.18086
425.42        13.24522
425.87        13.22953
426.31        13.16142
426.76        13.10583
427.21         13.0389
427.65         12.9684
428.10        12.89034
428.54         12.7825
428.99        12.66301
429.44        12.63052
429.88        12.66291
430.33        12.56065
430.77        12.40541
431.22        12.59103
431.66        13.05882
432.11        13.29604
432.56        13.21995
433.00        13.13798
433.45        13.06483
433.89        12.74958
434.34        12.36754
434.78        12.39041
435.23        12.74121
435.67        12.89659
436.12        12.81921
436.57        12.80328
437.01        12.87181
437.46        12.92661
437.90         12.9649
438.35        13.00492
438.79        13.03189
439.24        13.00187
439.68        12.93323
440.13        12.89228
440.57        12.86773
441.02        12.84732
441.46        12.83485
441.91        12.74408
442.35        12.62333
442.80        12.81508
443.24        13.19876
443.69        13.14184
444.13        12.70665
444.58        12.53014
445.02        12.62096
445.47         12.6465
445.91        12.58699
446.36        12.57699
446.80         12.6106
447.24         12.6589
447.69        12.71463
448.13        12.76662
448.58        12.81061
449.02        12.84705
449.47        12.88453
449.91        12.92939
450.36        12.98248
450.80        13.03873
451.25         13.0818
451.69        13.08581
452.13        13.04562
452.58        12.97739
453.02        12.89962
453.47        12.84127
453.91        12.80773
454.36        12.82949
454.80        12.83078
455.24        12.83666
455.69        12.82549
456.13        12.80233
456.58        12.78385
457.02        12.78201
457.46        12.80335
457.91         12.8412
458.35        12.88069
458.79        12.90525
459.24        12.92043
459.68        12.93657
460.13        12.96949
460.57        12.98275
461.01        13.07796
461.46        13.11609
461.90        13.13692
462.34        13.27861
462.79        13.47584
463.23        13.44512
463.68        13.22093
464.12        13.10469
464.56        13.11519
465.01        13.11174
465.45        13.07331
465.89        13.02601
466.34        12.99077
466.78         13.0231
467.22         13.1397
467.67        13.15604
468.11         13.0735
468.55        12.95946
468.99        12.85978
469.44        12.81187
469.88        12.82804
470.32        12.90392
470.77        12.99444
471.21        13.03987
471.65        13.01971
472.10        12.95888
472.54        12.89654
472.98        12.90879
473.42        13.00672
473.87         13.1588
474.31        13.31242
474.75         13.3892
475.20        13.37657
475.64         13.2999
476.08        13.19854
476.52        13.12993
476.97        13.11232
477.41        13.12389
477.85        13.16275
478.29        13.22352
478.74        13.30277
479.18        13.39746
479.62        13.47929
480.06        13.53583
480.50        13.56944
480.95        13.46031
481.39        13.45515
481.83        13.48969
482.27        13.64776
482.72        13.79367
483.16        14.05437
483.60        14.17446
484.04        14.18246
484.48        14.10473
484.93        14.02629
485.37        14.06961
485.81        14.17164
486.25        14.44358
486.69         13.9792
487.14        14.19572
487.58        14.69799
488.02        14.70745
488.46        14.87838
488.90        15.42905
489.34        14.49207
489.79        14.50239
490.23        14.80376
490.67        15.05285
491.11        15.14964
491.55        15.11328
491.99        15.02803
492.43        15.11261
492.88        15.38025
493.32        15.64212
493.76        15.84455
494.20        16.02644
494.64         16.1798
495.08        16.28594
495.52        16.34871
495.96        16.42516
496.41         16.5324
496.85        16.55626
497.29        16.53265
497.73        16.81547
498.17        17.13899
498.61        17.24002
499.05        17.07318
499.49        17.01581
499.93        17.10212
500.37        17.18159
500.82        17.24602
501.26        17.32449
501.70        17.41476
502.14        17.53201
502.58        17.67998
503.02        17.84135
503.46        18.01034
503.90        18.19263
504.34        18.36295
504.78        18.47819
505.22        18.52881
505.66        18.52031
506.10        18.48302
506.54        18.48937
506.98        18.55863
507.42        18.63823
507.86        18.68206
508.30        18.82507
508.74         18.7139
509.18        18.64949
509.62        18.58055
510.06        18.59458
510.50        18.70582
510.94        18.89032
511.38        19.10011
511.82        19.24554
512.26        19.30025
512.70        19.28882
513.14        19.24715
513.58         19.2323
514.02        19.26178
514.46        19.31783
514.90        19.38097
515.34        19.42138
515.78        19.43005
516.22        19.41819
516.66        19.40199
517.10         19.4039
517.54        19.42743
517.98        19.46255
518.42        19.48971
518.86        19.47903
519.30        19.42596
519.74        19.34462
520.18         19.2564
520.62        19.19214
521.06        19.16266
521.50        19.16188
521.93        19.18354
522.37        19.21041
522.81         19.2367
523.25        19.26206
523.69        19.28811
524.13        19.31834
524.57        19.34963
525.01        19.37591
525.45        19.38175
525.89        19.34534
526.32        19.26272
526.76        19.14918
527.20        19.02546
527.64        18.92393
528.08        18.85311
528.52        18.80499
528.96        18.76934
529.40        18.72796
529.83        18.67479
530.27        18.62023
530.71        18.56426
531.15        18.50859
531.59        18.45452
532.03        18.39813
532.46        18.34592
532.90        18.31528
533.34        18.30632
533.78        18.31636
534.22         18.3259
534.66        18.30448
535.09        18.24581
535.53        18.16417
535.97        18.08433
536.41        18.05205
536.85         18.0758
537.28        18.14003
537.72        18.21281
538.16        18.24606
538.60        18.22869
539.04        18.18066
539.47        18.12015
539.91        18.09264
540.35        18.10559
540.79        18.15161
541.22        18.22437
541.66         18.3175
542.10         18.4234
542.54        18.54362
542.97        18.67639
543.41        18.81861
543.85        18.96754
544.29        19.12546
544.72        19.27232
545.16        19.39353
545.60        19.48618
546.04        19.54668
546.47        19.61072
546.91        19.76579
547.35        20.00587
547.79        20.24474
548.22        20.43717
548.66        20.62431
549.10        20.80263
549.53        20.87724
549.97        20.84527
550.41        21.13129
550.84         21.1151
551.28        21.26226
551.72        21.37033
552.15        21.60564
552.59        21.69256
553.03        21.85143
553.46        22.00357
553.90        22.14515
554.34        22.26996
554.77        22.40228
555.21        22.53535
555.65        22.59873
556.08        22.61241
556.52        22.68937
556.96        22.82934
557.39        22.97766
557.83        23.12496
558.27        23.25242
558.70        23.36526
559.14        23.50008
559.57        23.63343
560.01        23.73725
560.45        23.80072
560.88        23.74076
561.32        23.71427
561.75        23.73138
562.19        23.82967
562.63        23.89996
563.06         23.9365
563.50        24.01387
563.93        24.12103
564.37        24.22836
564.80        24.32467
565.24         24.4235
565.68        24.51669
566.11        24.60896
566.55        24.70194
566.98         24.7576
567.42        24.82235
567.85        24.92199
568.29         25.0635
568.72        25.30321
569.16        25.65125
569.60         25.5823
570.03        25.87916
570.47        25.97249
570.90        26.09195
571.34        26.11412
571.77        26.29781
572.21        26.39845
572.64        26.46834
573.08        26.64921
573.51         26.9633
573.95        26.92312
574.38        27.00926
574.82        27.20263
