SpectraSmart Spectrum 2.9.0.0
--------- Device Information -----------
Spectrum Name :  反射率_0
Saving Time :  2024/04/30 01:08:22
Spectro-Module Model Name : SE2030-DUVN
Spectro-Module Serial Number : OS361AC55029948
Wavelength Start : 200
Wavelength End : 1025
Wavelength Unit : Wavelength(nm)
Spectrum Unit : Reflectance(%)
-----------Spectrum Setting ------------
Integration Time : 20ms
Average : 10
Boxcar : 0
Background removal :  enabled
linearity correction :  enabled
SC :  disabled
Intensity correction :  disabled
DWT denoise :  enabled
savitzky-golay :  disabled
FFT :  disabled
Running average :  disabled
Kalman :  disabled
High pass :  disabled
---------------BEGIN--------------------
Wavelength(nm)             Reflectance(%)
200.29               0
200.75        64.39509
201.21        43.92873
201.67        21.23095
202.13        2.642624
202.58       -8.542835
203.04       -12.90738
203.50        -10.5026
203.96       -2.499489
204.42         9.21214
204.88        23.79672
205.34        37.51612
205.80        44.68833
206.26        45.09474
206.72        41.93602
207.18        36.87472
207.64        30.62803
208.10        23.30382
208.55         14.1814
209.01        5.943908
209.47        5.498186
209.93        13.22446
210.39        25.12155
210.85        35.38193
211.31        39.38473
211.77        37.09447
212.23        28.65767
212.69        15.90519
213.14        10.31194
213.60        17.34016
214.06        30.21573
214.52        41.44913
214.98         46.5785
215.44        46.59457
215.90        43.69645
216.36        39.64917
216.81        37.56105
217.27        39.20965
217.73        43.88507
218.19        51.76192
218.65        60.14744
219.11        65.21295
219.57        66.87986
220.02        65.85905
220.48        63.51344
220.94        59.67816
221.40        53.18503
221.86        44.45129
222.32        38.29987
222.77        37.58415
223.23        40.53256
223.69        43.11874
224.15        42.56858
224.61        39.08728
225.06        33.29096
225.52        27.55885
225.98        26.97817
226.44        31.89299
226.90        38.75682
227.36          44.419
227.81        46.99409
228.27        46.93751
228.73        45.11562
229.19        42.51596
229.65         41.2039
230.10        41.72097
230.56         43.0616
231.02        44.29552
231.48         44.6738
231.93        44.11098
232.39        43.02892
232.85        41.67259
233.31        40.53166
233.77        39.84061
234.22        39.56445
234.68        39.47358
235.14        39.21104
235.60        38.76414
236.05        38.30281
236.51        38.30304
236.97         39.3746
237.43        41.71856
237.88        45.53256
238.34        50.33898
238.80        54.45605
239.26        56.32463
239.71        56.10769
240.17        54.44855
240.63         52.7583
241.08        51.45212
241.54        49.87394
242.00        48.54409
242.46        49.92903
242.91        56.05568
243.37        65.57519
243.83        74.40354
244.28        79.56462
244.74        81.16589
245.20         79.2673
245.66        74.81241
246.11        70.79005
246.57        69.07806
247.03        69.62304
247.48        71.16418
247.94         70.3559
248.40        67.47005
248.85        64.24289
249.31        62.74723
249.77        63.56212
250.22        66.86868
250.68         73.4446
251.14        83.07464
251.59        87.94733
252.05        83.05064
252.51        74.64529
252.96        68.29647
253.42         66.1603
253.88        66.72866
254.33        68.64666
254.79        70.84083
255.25        70.64243
255.70        67.95929
256.16        65.03765
256.62         62.6189
257.07         60.9151
257.53        60.04486
257.99        59.47719
258.44        58.91664
258.90          58.698
259.35        58.39763
259.81        58.29482
260.27        58.13243
260.72        57.72458
261.18        57.26567
261.63        56.55146
262.09        55.78616
262.55        54.91587
263.00        53.92524
263.46        53.02793
263.91        52.05789
264.37        51.11121
264.83        50.10392
265.28        48.98785
265.74         47.9693
266.19        47.13386
266.65        46.56915
267.11        46.18552
267.56        45.81802
268.02         45.2268
268.47        44.33741
268.93        43.23602
269.38         42.0438
269.84        41.09431
270.30        40.46229
270.75        40.04515
271.21        39.70404
271.66        39.19534
272.12        38.46786
272.57        37.58942
273.03         36.6618
273.48         35.7599
273.94        34.99286
274.39        34.29028
274.85        33.71921
275.31         33.3006
275.76         32.9816
276.22        32.75086
276.67        32.49293
277.13        32.13588
277.58        31.61862
278.04        31.03168
278.49        30.34557
278.95        29.61354
279.40         28.8344
279.86        28.08719
280.31        27.42727
280.77        27.05145
281.22        26.93311
281.68        27.02467
282.13         27.2001
282.59        27.33293
283.04         27.3531
283.50        27.28531
283.95        27.11236
284.41        26.82818
284.86        26.44691
285.32        26.03311
285.77        25.59445
286.22        25.21421
286.68        24.92811
287.13        24.67925
287.59        24.54565
288.04        24.58207
288.50        24.78183
288.95        25.07813
289.41        25.32698
289.86        25.27503
290.32         24.9191
290.77        24.35164
291.22        23.75095
291.68        23.40144
292.13        23.37784
292.59        23.61602
293.04        24.06932
293.50        24.68967
293.95        25.43345
294.40        26.32366
294.86        27.25173
295.31        28.05809
295.77        28.70255
296.22        29.19629
296.68        29.67546
297.13        30.34589
297.58        31.25055
298.04        32.29004
298.49        33.31081
298.95        34.07417
299.40        34.52558
299.85        34.75555
300.31        34.89793
300.76        35.09352
301.21        35.42094
301.67        35.84775
302.12        36.30457
302.58        36.82722
303.03        37.38688
303.48        37.86533
303.94        38.24728
304.39        39.13863
304.84        39.45181
305.30        40.03292
305.75         40.5052
306.20        40.86172
306.66        41.10151
307.11        41.22994
307.57        41.30165
308.02        41.31141
308.47          41.292
308.93        41.25274
309.38          41.206
309.83        41.22322
310.29        41.31362
310.74        41.45629
311.19        41.58204
311.65        41.57167
312.10        41.40106
312.55        41.11279
313.00        40.81059
313.46        40.65789
313.91        40.67435
314.36        40.80714
314.82        40.95444
315.27        40.97442
315.72        40.81457
316.18        40.53003
316.63        40.16568
317.08        39.80362
317.53        39.48521
317.99        39.20277
318.44        38.95352
318.89        38.73929
319.35        38.55668
319.80        38.40481
320.25        38.30323
320.70        38.27836
321.16        38.30795
321.61        38.38928
322.06        38.42992
322.51        38.29459
322.97        37.95925
323.42         37.4763
323.87        36.95111
324.32        36.55722
324.78        36.33118
325.23         36.2454
325.68        36.22645
326.13        36.14938
326.59        35.96968
327.04        35.74457
327.49         35.5076
327.94        35.32648
328.39        35.21393
328.85        35.11722
329.30        35.03667
329.75          34.923
330.20        34.76365
330.66        34.58025
331.11        34.37356
331.56        34.11147
332.01        33.80093
332.46        33.44825
332.92        33.11327
333.37         32.9443
333.82        32.95807
334.27        33.11377
334.72        33.30666
335.17        33.35817
335.63         33.2096
336.08        32.92185
336.53        32.55097
336.98        32.21804
337.43        31.97347
337.88        31.78578
338.34        31.64627
338.79        31.56051
339.24        31.51369
339.69        31.52041
340.14        31.54985
340.59        31.54332
341.05        31.48847
341.50        31.38877
341.95        31.28444
342.40        31.25203
342.85        31.30089
343.30        31.39834
343.75        31.48099
344.20        31.45154
344.66        31.29907
345.11        31.05378
345.56        30.77344
346.01         30.5449
346.46        30.40392
346.91         30.3323
347.36        30.31483
347.81        30.32846
348.26        30.35491
348.72        30.38573
349.17        30.41969
349.62        30.44833
350.07        30.46216
350.52        30.46431
350.97        30.41633
351.42        30.26124
351.87         30.0081
352.32         29.6904
352.77        29.40593
353.22        29.31021
353.67        29.43323
354.13        29.71626
354.58        30.06262
355.03        30.31622
355.48         30.4157
355.93        30.39076
356.38        30.26413
356.83        30.07598
357.28        29.85132
357.73        29.58849
358.18        29.29691
358.63        28.99641
359.08        28.70031
359.53        28.41162
359.98        28.16698
360.43        28.01476
360.88        27.95322
361.33         27.9644
361.78        27.96657
362.23        27.82985
362.68        27.53403
363.13         27.1249
363.58        26.69526
364.03        26.39519
364.48        26.26184
364.93        26.24384
365.38        26.28529
365.83        26.29486
366.28        26.23895
366.73        26.14872
367.18        26.02211
367.63        25.85405
368.08        25.65193
368.53        25.41038
368.98        25.17124
369.43        25.00734
369.88        24.93494
370.33        24.94155
370.78        24.97015
371.23        24.92301
371.68        24.77423
372.13        24.54422
372.58        24.29632
373.03        24.13487
373.48        24.07876
373.93        24.09171
374.38        24.09562
374.83        23.96518
375.28        23.68263
375.72        23.29939
376.17        22.91939
376.62        22.64411
377.07        22.49738
377.52        22.43661
377.97        22.43727
378.42        22.46004
378.87        22.48135
379.32        22.51329
379.77        22.52164
380.22        22.45475
380.67        22.30591
381.11        22.07942
381.56         21.8367
382.01        21.68413
382.46        21.64825
382.91        21.70594
383.36        21.77791
383.81         21.7392
384.26        21.56766
384.71        21.30208
385.15         21.0276
385.60        20.90492
386.05        20.94876
386.50        21.10046
386.95        21.25908
387.40        21.26974
387.85         21.1051
388.29        20.81737
388.74        20.51485
389.19        20.27664
389.64        20.12707
390.09        20.03096
390.54        19.98508
390.98        19.98399
391.43        20.02151
391.88          20.094
392.33        20.15566
392.78        20.15979
393.23        20.10198
393.67        19.94759
394.12        19.75642
394.57        19.74784
395.02        19.64561
395.47        19.65715
395.91        19.66415
396.36        19.60221
396.81        19.46668
397.26        19.28975
397.71        19.10902
398.15        18.96737
398.60        18.90159
399.05        18.85401
399.50        18.81078
399.95        18.83484
400.39        18.82172
400.84        18.77155
401.29        18.66741
401.74        18.59642
402.18        18.56868
402.63        18.52144
403.08        18.47776
403.53        18.48774
403.97        18.55114
404.42        18.65791
404.87        18.74182
405.32        18.69616
405.76         18.5028
406.21        18.20385
406.66        17.90436
407.11        17.77016
407.55        17.84122
408.00         18.0702
408.45        18.34023
408.90        18.43852
409.34        18.30701
409.79        18.00983
410.24        17.69091
410.68         17.5667
411.13        17.68364
411.58        17.97309
412.03         18.2942
412.47        18.40967
412.92        18.24743
413.37        17.90173
413.81        17.50971
414.26         17.2958
414.71        17.29478
415.15         17.4416
415.60        17.63064
416.05        17.70708
416.49        17.62631
416.94        17.44916
417.39        17.23977
417.83        17.09168
418.28        17.04034
418.73        17.04481
419.17        17.09278
419.62        17.17103
420.07        17.26144
420.51         17.3647
420.96        17.44908
421.41        17.45333
421.85        17.36606
422.30        17.22511
422.74        17.06286
423.19          16.957
423.64        16.91817
424.08        16.93575
424.53         16.9829
424.98        17.04038
425.42         17.0978
425.87        17.14591
426.31        17.17354
426.76        17.19029
427.21        17.13735
427.65        17.04416
428.10        16.92016
428.54        16.76023
428.99        16.59313
429.44        16.53796
429.88        16.55217
430.33        16.35633
430.77        16.06491
431.22        16.20379
431.66        16.71249
432.11        16.98415
432.56        16.92594
433.00        16.87507
433.45        16.83537
433.89        16.55615
434.34        16.19037
434.78         16.1501
435.23        16.37636
435.67        16.43652
436.12        16.30994
436.57        16.24008
437.01        16.25732
437.46        16.29751
437.90        16.35846
438.35        16.45089
438.79        16.53672
439.24        16.52861
439.68        16.44137
440.13        16.36689
440.57        16.30894
441.02        16.28122
441.46        16.29428
441.91        16.22512
442.35        16.11572
442.80        16.37976
443.24        16.85981
443.69        16.75751
444.13        16.16713
444.58        15.91841
445.02        16.02715
445.47        16.06313
445.91        15.99806
446.36        15.99715
446.80        16.04859
447.24        16.11512
447.69        16.18341
448.13        16.23065
448.58         16.2514
449.02        16.24997
449.47        16.24152
449.91        16.24068
450.36        16.25432
450.80        16.27735
451.25        16.29708
451.69        16.29006
452.13         16.2516
452.58        16.19811
453.02        16.14476
453.47        16.11324
453.91        16.10489
454.36        16.15902
454.80        16.18077
455.24        16.20503
455.69        16.20454
456.13        16.18202
456.58        16.15666
457.02        16.14345
457.46        16.14872
457.91        16.16315
458.35        16.16843
458.79        16.14535
459.24        16.10183
459.68        16.05611
460.13        16.02293
460.57        15.95088
461.01        15.96818
461.46        15.91304
461.90        15.85412
462.34        15.98844
462.79        16.24315
463.23        16.26633
463.68        16.07644
464.12        16.00288
464.56        16.05675
465.01        16.07152
465.45        16.02905
465.89        15.97443
466.34        15.93712
466.78        15.98083
467.22        16.12102
467.67        16.12409
468.11        15.99231
468.55        15.81349
468.99        15.65421
469.44        15.57503
469.88        15.59413
470.32        15.70114
470.77        15.83012
471.21        15.88745
471.65        15.84414
472.10        15.73611
472.54        15.62211
472.98        15.60986
473.42        15.71794
473.87         15.9049
474.31        16.09984
474.75        16.19884
475.20        16.18278
475.64        16.08288
476.08        15.95466
476.52        15.87897
476.97        15.87937
477.41        15.92808
477.85        16.00346
478.29        16.06915
478.74         16.1177
479.18        16.15382
479.62        16.17872
480.06        16.23093
480.50        16.32167
480.95        16.28929
481.39        16.38661
481.83        16.46475
482.27         16.6081
482.72        16.66975
483.16         16.8525
483.60        16.92368
484.04        16.93409
484.48        16.90172
484.93        16.87808
485.37        16.91441
485.81        16.96535
486.25        17.20082
486.69        16.65155
487.14        16.90709
487.58        17.56248
488.02        17.21386
488.46        17.48555
488.90        18.22962
489.34        17.37912
489.79        17.42787
490.23        17.59397
490.67         17.7778
491.11        17.89223
491.55        17.89025
491.99        17.84323
492.43        17.94987
492.88         18.2186
493.32        18.48454
493.76        18.70389
494.20         18.9131
494.64         19.1044
495.08        19.26151
495.52        19.36244
495.96        19.42706
496.41         19.4711
496.85        19.38222
497.29        19.23775
497.73        19.49928
498.17         19.8712
498.61        20.03218
499.05        19.91447
499.49        19.93429
499.93        20.11669
500.37        20.28384
500.82        20.41063
501.26        20.50711
501.70        20.56893
502.14        20.62576
502.58        20.69292
503.02        20.76956
503.46        20.86209
503.90        20.97583
504.34        21.10828
504.78        21.24974
505.22        21.39204
505.66        21.52859
506.10        21.64184
506.54        21.73137
506.98        21.79843
507.42            21.8
507.86         21.7304
508.30        21.82855
508.74        21.70568
509.18        21.68638
509.62         21.6707
510.06        21.69574
510.50        21.76372
510.94        21.87176
511.38         21.9996
511.82        22.10008
512.26        22.15834
512.70        22.18099
513.14          22.185
513.58        22.19944
514.02        22.23279
514.46        22.27867
514.90        22.31937
515.34        22.32707
515.78         22.2986
516.22         22.2453
516.66        22.19838
517.10        22.20502
517.54        22.27081
517.98        22.37554
518.42        22.48021
518.86        22.52201
519.30        22.48586
519.74        22.39528
520.18        22.27705
520.62        22.17168
521.06        22.09647
521.50        22.04273
521.93        22.01594
522.37         22.0182
522.81        22.04665
523.25        22.09532
523.69        22.14917
524.13        22.18358
524.57        22.18942
525.01        22.17054
525.45          22.121
525.89        22.03607
526.32        21.91832
526.76        21.77702
527.20        21.63747
527.64        21.53918
528.08        21.48884
528.52        21.47744
528.96         21.4757
529.40        21.43464
529.83        21.34267
530.27        21.21821
530.71        21.08765
531.15        20.99587
531.59        20.95323
532.03        20.94325
532.46        20.94365
532.90        20.92679
533.34        20.88363
533.78        20.82834
534.22        20.76876
534.66        20.71535
535.09        20.67074
535.53        20.63469
535.97        20.61163
536.41        20.61623
536.85        20.64678
537.28        20.69666
537.72        20.74432
538.16        20.75738
538.60        20.72998
539.04        20.67713
539.47        20.61094
539.91        20.57033
540.35        20.56159
540.79        20.58239
541.22        20.63394
541.66        20.72111
542.10        20.83804
542.54        20.98151
542.97        21.14158
543.41        21.30386
543.85        21.46151
544.29        21.62023
544.72        21.76179
545.16        21.87604
545.60        21.96202
546.04        22.01381
546.47        22.06945
546.91        22.22436
547.35        22.47157
547.79        22.71645
548.22        22.91179
548.66        23.10784
549.10        23.30194
549.53        23.38824
549.97        23.35916
550.41        23.68436
550.84        23.66641
551.28        23.82542
551.72        23.94273
552.15        24.21757
552.59        24.34162
553.03        24.55802
553.46        24.75792
553.90        24.90623
554.34        24.99153
554.77         25.0498
555.21        25.10446
555.65        25.12805
556.08         25.1534
556.52        25.29121
556.96        25.50426
557.39        25.67304
557.83        25.77637
558.27        25.81408
558.70        25.83066
559.14        25.92875
559.57        26.09598
560.01        26.27713
560.45        26.42838
560.88        26.41081
561.32        26.38594
561.75        26.38131
562.19        26.44913
562.63        26.48408
563.06        26.48829
563.50        26.53941
563.93        26.62934
564.37         26.7339
564.80         26.8402
565.24        26.96004
565.68        27.07808
566.11        27.18768
566.55        27.28701
566.98        27.33956
567.42        27.39502
567.85        27.47269
568.29        27.56971
568.72        27.79024
569.16        28.16696
569.60        28.05034
570.03        28.28335
570.47        28.72705
570.90        28.62112
571.34        28.87701
571.77        28.92941
572.21        28.98855
572.64        28.98996
573.08        29.13555
573.51        29.43586
573.95        29.56634
574.38         29.6451
574.82        29.77403
