SpectraSmart Spectrum 2.9.0.0
--------- Device Information -----------
Spectrum Name :  反射率_0
Saving Time :  2024/04/30 01:20:58
Spectro-Module Model Name : SE2030-DUVN
Spectro-Module Serial Number : OS361AC55029948
Wavelength Start : 200
Wavelength End : 1025
Wavelength Unit : Wavelength(nm)
Spectrum Unit : Reflectance(%)
-----------Spectrum Setting ------------
Integration Time : 20ms
Average : 10
Boxcar : 0
Background removal :  enabled
linearity correction :  enabled
SC :  disabled
Intensity correction :  disabled
DWT denoise :  enabled
savitzky-golay :  disabled
FFT :  disabled
Running average :  disabled
Kalman :  disabled
High pass :  disabled
---------------BEGIN--------------------
Wavelength(nm)             Reflectance(%)
200.29               0
200.75        72.13391
201.21        58.40986
201.67        45.37148
202.13        38.39048
202.58        39.87253
203.04        49.35645
203.50        64.76571
203.96        80.53839
204.42        92.53011
204.88        100.2677
205.34        101.7095
205.80        96.28728
206.26        87.33984
206.72        77.74713
207.18        69.86462
207.64         64.6663
208.10        61.35821
208.55        59.03606
209.01        57.69572
209.47        58.15807
209.93        60.07984
210.39        62.89613
210.85        64.84626
211.31        64.23932
211.77        60.81921
212.23        54.09561
212.69        45.27472
213.14        42.14971
213.60        47.93532
214.06        58.16056
214.52           67.57
214.98        73.31863
215.44        76.33832
215.90         78.1169
216.36        80.02736
216.81        84.44576
217.27        92.78932
217.73        105.6796
218.19        122.6367
218.65        136.4356
219.11        140.3278
219.57        135.4303
220.02        128.0594
220.48        124.0538
220.94        122.8882
221.40        123.5912
221.86        123.2451
222.32        116.1564
222.77        103.9437
223.23        92.97648
223.69        86.19025
224.15        84.21268
224.61        85.80503
225.06        90.17152
225.52        95.60079
225.98        97.71083
226.44        95.58945
226.90         91.5708
227.36         88.0649
227.81        86.67247
228.27        87.33824
228.73        89.22734
229.19        91.45585
229.65        92.19301
230.10        91.02268
230.56        89.32182
231.02        87.75828
231.48        86.91486
231.93        86.68489
232.39        86.84833
232.85        87.36422
233.31        88.34637
233.77        89.70354
234.22        91.56068
234.68        93.16813
235.14        93.31134
235.60        91.81232
236.05        89.05086
236.51        86.32838
236.97        85.24992
237.43        86.17319
237.88        89.20912
238.34        93.39847
238.80        96.46125
239.26        96.68463
239.71        94.66018
240.17        91.52193
240.63        89.09049
241.08        87.90413
241.54        87.22775
242.00        87.44276
242.46        89.23367
242.91        93.11543
243.37         98.1389
243.83        103.0759
244.28        107.5597
244.74        111.8516
245.20        115.4977
245.66        118.6424
246.11        121.6624
246.57        124.1666
247.03        127.0063
247.48        127.2023
247.94        119.5501
248.40         107.587
248.85        95.86879
249.31         88.8307
249.77        87.29929
250.22        90.72441
250.68        99.75764
251.14        114.2968
251.59        122.8724
252.05        117.0151
252.51        105.4001
252.96        96.05817
253.42        92.15391
253.88        91.67296
254.33        92.96457
254.79        94.64627
255.25        93.76258
255.70        90.39606
256.16        87.09826
256.62        84.93753
257.07         84.4531
257.53        85.64403
257.99        87.52417
258.44         88.9305
258.90        89.11631
259.35        87.68026
259.81        85.94151
260.27        84.22288
260.72        82.77596
261.18        81.89648
261.63        81.03718
262.09         80.3567
262.55        79.61388
263.00        78.69691
263.46        77.93713
263.91        77.10849
264.37        76.41241
264.83        75.71737
265.28        74.94115
265.74        74.23989
266.19        73.53485
266.65        72.93597
267.11        72.38016
267.56        71.83426
268.02        71.30119
268.47        70.71252
268.93        70.08697
269.38        69.36854
269.84        68.57963
270.30        67.72573
270.75        66.80991
271.21         65.8862
271.66        64.93631
272.12        63.97811
272.57        62.96827
273.03        61.94662
273.48         60.8653
273.94        59.82053
274.39         58.7723
274.85        57.81488
275.31        56.92521
275.76        56.05958
276.22        55.26561
276.67        54.47322
277.13        53.75338
277.58        53.02531
278.04        52.34895
278.49        51.60939
278.95        50.80349
279.40        49.87001
279.86        48.92909
280.31        47.98871
280.77        47.23427
281.22        46.63225
281.68         46.1816
282.13        45.80179
282.59        45.48359
283.04        45.14892
283.50        44.81165
283.95        44.38417
284.41        43.79406
284.86         43.0205
285.32         42.1617
285.77        41.25832
286.22        40.46584
286.68        39.83963
287.13        39.31378
287.59        38.90643
288.04        38.56066
288.50        38.28444
288.95        38.04021
289.41        37.84674
289.86        37.66142
290.32        37.50084
290.77        37.35928
291.22        37.19721
291.68        36.95698
292.13        36.62605
292.59        36.25109
293.04        35.97129
293.50        36.03616
293.95        36.45989
294.40        37.18234
294.86        37.95741
295.31        38.40911
295.77        38.45982
296.22        38.21403
296.68        37.94981
297.13        38.08006
297.58        38.69823
298.04        39.63056
298.49        40.61853
298.95        41.26706
299.40        41.47565
299.85        41.39576
300.31        41.20428
300.76        41.10008
301.21        41.18357
301.67        41.38698
302.12        41.65268
302.58        42.04646
303.03         42.5234
303.48         42.9674
303.94        43.29774
304.39        43.95709
304.84        43.93878
305.30        44.07297
305.75        44.09383
306.20        44.13126
306.66        44.22463
307.11        44.33419
307.57        44.47323
308.02         44.5679
308.47        44.62281
308.93        44.65897
309.38        44.67603
309.83        44.72948
310.29        44.82297
310.74        44.92709
311.19        44.98171
311.65         44.8889
312.10        44.63251
312.55        44.25963
313.00        43.87322
313.46        43.63084
313.91        43.55685
314.36        43.60857
314.82        43.70232
315.27        43.72227
315.72        43.61835
316.18        43.43198
316.63        43.18538
317.08        42.92607
317.53        42.68035
317.99        42.44329
318.44        42.21178
318.89        41.99236
319.35        41.78398
319.80        41.58276
320.25        41.41604
320.70        41.32274
321.16         41.2879
321.61         41.3186
322.06        41.31729
322.51        41.13707
322.97        40.75443
323.42        40.22328
323.87        39.67511
324.32        39.32452
324.78        39.20817
325.23        39.28275
325.68        39.41609
326.13        39.38607
326.59         39.1218
327.04        38.70626
327.49        38.23912
327.94         37.8984
328.39        37.73141
328.85        37.66527
329.30        37.65127
329.75         37.5442
330.20        37.30848
330.66        36.99908
331.11        36.68456
331.56        36.43657
332.01        36.28297
332.46        36.19036
332.92        36.14242
333.37        36.16348
333.82        36.22492
334.27        36.31778
334.72        36.39048
335.17        36.35642
335.63        36.19349
336.08        35.94711
336.53        35.64848
336.98        35.37764
337.43        35.17172
337.88        35.00989
338.34        34.91616
338.79        34.94498
339.24        35.08115
339.69        35.31331
340.14        35.53842
340.59        35.58226
341.05        35.41309
341.50        35.08238
341.95        34.71187
342.40        34.50654
342.85        34.51313
343.30        34.65917
343.75        34.85421
344.20        34.95302
344.66        34.91839
345.11        34.79649
345.56        34.61069
346.01        34.39103
346.46        34.17081
346.91        33.94791
347.36        33.77305
347.81        33.72702
348.26        33.81383
348.72        33.99835
349.17        34.22369
349.62        34.38021
350.07        34.42649
350.52        34.39217
350.97        34.28348
351.42        34.11304
351.87        33.90454
352.32        33.66444
352.77        33.44946
353.22        33.35384
353.67        33.39278
354.13        33.53017
354.58        33.71186
355.03        33.84518
355.48        33.89054
355.93        33.86719
356.38        33.76151
356.83         33.5578
357.28        33.26892
357.73        32.90482
358.18        32.52624
358.63        32.23162
359.08        32.04312
359.53        31.93738
359.98        31.86594
360.43        31.74404
360.88        31.54972
361.33        31.31315
361.78        31.05972
362.23        30.82837
362.68        30.63525
363.13        30.46706
363.58        30.32412
364.03        30.21053
364.48        30.11853
364.93        30.03926
365.38        29.96321
365.83        29.87352
366.28        29.76542
366.73        29.64991
367.18         29.5085
367.63         29.3136
368.08        29.06866
368.53        28.78161
368.98        28.51982
369.43         28.3907
369.88        28.41325
370.33        28.55891
370.78        28.72661
371.23        28.74968
371.68        28.58496
372.13        28.27098
372.58        27.91433
373.03        27.69143
373.48        27.64067
373.93        27.70481
374.38        27.77403
374.83        27.66929
375.28        27.35925
375.72        26.91675
376.17         26.4705
376.62        26.15012
377.07        25.98707
377.52        25.92563
377.97        25.93552
378.42        25.97018
378.87        26.00023
379.32         26.0397
379.77        26.04717
380.22        25.95919
380.67        25.76798
381.11        25.48161
381.56        25.17206
382.01        24.96499
382.46        24.89511
382.91        24.93773
383.36        25.00742
383.81        24.96863
384.26        24.79527
384.71         24.5267
385.15        24.25533
385.60        24.15373
386.05        24.23686
386.50        24.44321
386.95        24.64994
387.40        24.67027
387.85        24.47249
388.29        24.11443
388.74        23.74489
389.19        23.49215
389.64        23.38545
390.09        23.37437
390.54        23.40737
390.98        23.39806
391.43        23.33215
391.88        23.24223
392.33        23.14335
392.78        23.07415
393.23        23.04377
393.67        22.97903
394.12        22.90083
394.57        22.99583
395.02        22.92458
395.47        22.94767
395.91        22.94901
396.36        22.89083
396.81         22.7753
397.26        22.62191
397.71        22.45437
398.15         22.2974
398.60        22.19151
399.05        22.08489
399.50        21.97956
399.95        21.97186
400.39        21.94604
400.84        21.89579
401.29         21.7961
401.74        21.73773
402.18        21.72834
402.63        21.69967
403.08        21.67595
403.53        21.71248
403.97        21.80716
404.42        21.94261
404.87        22.04989
405.32        22.02011
405.76        21.83225
406.21          21.531
406.66        21.21352
407.11        21.03356
407.55        21.03226
408.00        21.16626
408.45        21.33973
408.90        21.37631
409.34        21.22887
409.79         20.9527
410.24        20.66993
410.68        20.56152
411.13        20.66465
411.58        20.92092
412.03        21.20459
412.47        21.30486
412.92          21.158
413.37        20.85065
413.81         20.5068
414.26        20.33727
414.71        20.37095
415.15        20.54367
415.60        20.75949
416.05        20.88082
416.49        20.86232
416.94        20.75518
417.39        20.59487
417.83        20.43124
418.28        20.29354
418.73        20.15777
419.17        20.05215
419.62        20.02649
420.07        20.08101
420.51        20.20304
420.96        20.33295
421.41        20.36118
421.85        20.26395
422.30        20.09601
422.74        19.91123
423.19        19.82452
423.64        19.84811
424.08        19.95209
424.53        20.08198
424.98        20.17557
425.42        20.20995
425.87        20.19341
426.31        20.12588
426.76        20.03662
427.21        19.87238
427.65        19.66698
428.10        19.46057
428.54          19.294
428.99        19.19588
429.44         19.2776
429.88        19.44378
430.33        19.29326
430.77        18.94784
431.22        19.05685
431.66        19.56056
432.11        19.78851
432.56        19.65506
433.00         19.4992
433.45        19.35834
433.89        19.11603
434.34        18.89217
434.78        18.91607
435.23        19.11825
435.67        19.17207
436.12        19.05402
436.57        18.93309
437.01        18.85832
437.46        18.84083
437.90         18.8907
438.35        18.99461
438.79        19.10688
439.24        19.12404
439.68        19.05796
440.13        19.02111
440.57        18.99877
441.02        18.97083
441.46        18.94633
441.91        18.79401
442.35        18.59756
442.80        18.88106
443.24        19.46849
443.69        19.42304
444.13        18.81347
444.58        18.54667
445.02        18.63119
445.47        18.58458
445.91         18.4049
446.36        18.32874
446.80        18.35493
447.24         18.4263
447.69        18.51359
448.13        18.56738
448.58        18.57522
449.02         18.5522
449.47        18.52034
449.91        18.50152
450.36        18.50668
450.80          18.526
451.25         18.5484
451.69        18.55339
452.13        18.53486
452.58        18.50745
453.02        18.48006
453.47         18.4635
453.91        18.45563
454.36        18.50521
454.80        18.50838
455.24        18.51351
455.69        18.49406
456.13        18.45366
456.58         18.4162
457.02        18.40102
457.46        18.41645
457.91        18.45303
458.35        18.48924
458.79        18.50279
459.24         18.4996
459.68        18.49673
460.13        18.50793
460.57        18.47108
461.01        18.53094
461.46        18.50022
461.90         18.4511
462.34        18.60433
462.79         18.8755
463.23        18.86003
463.68        18.59551
464.12        18.48592
464.56        18.54905
465.01        18.58622
465.45        18.56651
465.89        18.52694
466.34        18.49757
466.78        18.55681
467.22        18.72619
467.67        18.73906
468.11        18.60098
468.55        18.41371
468.99        18.25095
469.44        18.17948
469.88        18.21901
470.32        18.35356
470.77        18.51734
471.21        18.61699
471.65        18.61888
472.10         18.5591
472.54        18.47618
472.98        18.44868
473.42        18.49417
473.87        18.58307
474.31        18.67907
474.75        18.73343
475.20        18.73934
475.64        18.71283
476.08        18.67684
476.52        18.65391
476.97        18.65351
477.41        18.67386
477.85        18.72459
478.29        18.76355
478.74        18.88272
479.18        18.98976
479.62        19.08338
480.06        19.16264
480.50        19.23272
480.95         19.1264
481.39        19.15611
481.83        19.16363
482.27        19.26012
482.72        19.27994
483.16        19.47451
483.60        19.58425
484.04        19.66158
484.48        19.74971
484.93         19.8955
485.37        19.97407
485.81        19.92926
486.25        20.28279
486.69        20.06322
487.14        20.03164
487.58        20.22867
488.02        20.44143
488.46        20.81738
488.90        21.03651
489.34          20.434
489.79        20.39701
490.23        20.58203
490.67        20.87805
491.11         21.1219
491.55        21.06169
491.99        20.79272
492.43        20.80677
492.88        21.13026
493.32        21.43435
493.76        21.65715
494.20        21.88002
494.64        22.08903
495.08        22.26997
495.52        22.39947
495.96        22.46317
496.41        22.49516
496.85        22.45058
497.29        22.38318
497.73        22.69883
498.17        23.04136
498.61        23.10623
499.05        22.84917
499.49        22.77286
499.93        22.92115
500.37        23.08841
500.82         23.2406
501.26        23.37791
501.70        23.48665
502.14        23.59703
502.58        23.72212
503.02         23.8545
503.46        23.99538
503.90        24.14886
504.34         24.2954
504.78        24.40069
505.22        24.45685
505.66        24.46877
506.10         24.4546
506.54         24.4723
506.98        24.53775
507.42        24.58896
507.86        24.58776
508.30        24.74974
508.74        24.61832
509.18        24.57677
509.62        24.53124
510.06        24.55594
510.50        24.66055
510.94        24.82623
511.38        25.01694
511.82        25.16015
512.26        25.23218
512.70        25.24927
513.14        25.23237
513.58        25.21566
514.02        25.21207
514.46        25.21323
514.90        25.21071
515.34        25.19313
515.78        25.15966
516.22        25.11729
516.66        25.08367
517.10        25.08271
517.54        25.11554
517.98        25.17165
518.42        25.22228
518.86        25.22135
519.30         25.1612
519.74        25.06068
520.18        24.94901
520.62        24.87087
521.06        24.84031
521.50        24.84467
521.93        24.87793
522.37        24.92087
522.81        24.96602
523.25        25.01539
523.69        25.05797
524.13        25.07748
524.57        25.06934
525.01        25.03193
525.45         24.9754
525.89        24.92056
526.32        24.86985
526.76        24.82633
527.20        24.77711
527.64         24.7026
528.08        24.60276
528.52        24.48986
528.96        24.38294
529.40        24.31053
529.83        24.27807
530.27        24.27719
530.71        24.29337
531.15        24.30744
531.59        24.30839
532.03        24.29647
532.46        24.26616
532.90        24.21778
533.34        24.15341
533.78        24.08167
534.22        24.00435
534.66        23.92368
535.09        23.84362
535.53        23.77194
535.97         23.7312
536.41        23.76231
536.85        23.86547
537.28        24.02125
537.72        24.17974
538.16        24.26402
538.60        24.25607
539.04        24.18223
539.47        24.07389
539.91        24.00413
540.35        23.98776
540.79        24.01317
541.22        24.07206
541.66         24.1544
542.10        24.25171
542.54        24.37077
542.97        24.50768
543.41         24.6567
543.85        24.81262
544.29        24.97617
544.72        25.12879
545.16        25.26218
545.60        25.37322
546.04         25.4547
546.47        25.53392
546.91        25.69443
547.35        25.92569
547.79        26.12751
548.22        26.27141
548.66        26.45538
549.10        26.68063
549.53        26.80879
549.97         26.8073
550.41        27.17666
550.84        27.10644
551.28        27.21162
551.72        27.24772
552.15        27.44902
552.59        27.47672
553.03         27.6071
553.46        27.74344
553.90        27.88707
554.34        28.02753
554.77        28.18953
555.21        28.36019
555.65        28.44408
556.08        28.46034
556.52        28.55159
556.96        28.70097
557.39        28.81427
557.83        28.88169
558.27        28.89358
558.70        28.89329
559.14        28.98529
559.57        29.15393
560.01        29.34525
560.45        29.51542
560.88        29.51481
561.32        29.52098
561.75        29.55494
562.19        29.66723
562.63        29.72928
563.06        29.73843
563.50        29.78674
563.93        29.85906
564.37        29.91713
564.80        29.95145
565.24        29.98994
565.68         30.0406
566.11        30.12013
566.55         30.2393
566.98        30.37327
567.42        30.54335
567.85        30.69563
568.29        30.81784
568.72        31.03521
569.16         31.3975
569.60        31.23717
570.03        31.50385
570.47        31.81664
570.90        31.85158
571.34        31.93265
571.77        32.12991
572.21        32.27903
572.64         32.4246
573.08        32.50254
573.51        32.55174
573.95        32.67151
574.38        32.95563
574.82        32.87718
