SpectraSmart Spectrum 2.9.0.0
--------- Device Information -----------
Spectrum Name :  反射率_0
Saving Time :  2024/04/30 00:57:14
Spectro-Module Model Name : SE2030-DUVN
Spectro-Module Serial Number : OS361AC55029948
Wavelength Start : 200
Wavelength End : 1025
Wavelength Unit : Wavelength(nm)
Spectrum Unit : Reflectance(%)
-----------Spectrum Setting ------------
Integration Time : 20ms
Average : 10
Boxcar : 0
Background removal :  enabled
linearity correction :  enabled
SC :  disabled
Intensity correction :  disabled
DWT denoise :  enabled
savitzky-golay :  disabled
FFT :  disabled
Running average :  disabled
Kalman :  disabled
High pass :  disabled
---------------BEGIN--------------------
Wavelength(nm)             Reflectance(%)
200.29               0
200.75        56.09485
201.21        48.53165
201.67        39.60767
202.13        30.72245
202.58        22.88645
203.04        15.50322
203.50        12.03161
203.96        19.62384
204.42        39.42308
204.88         68.1955
205.34        93.12395
205.80        96.60217
206.26        81.66975
206.72        60.30298
207.18        41.65783
207.64        30.89416
208.10        26.61296
208.55        25.73754
209.01        27.27715
209.47        30.01025
209.93         32.6762
210.39        35.71696
210.85        37.84682
211.31        37.81671
211.77        35.57352
212.23        30.39537
212.69        23.57237
213.14        22.37059
213.60        29.00286
214.06        39.09283
214.52        47.35224
214.98        50.67741
215.44        50.02657
215.90         46.8859
216.36        43.16842
216.81        42.50658
217.27        46.93585
217.73        56.40483
218.19        70.53265
218.65        82.80745
219.11        87.02271
219.57         84.4558
220.02        79.28372
220.48        75.34048
220.94        72.24599
221.40        68.51541
221.86        63.25873
222.32        57.13503
222.77        52.32722
223.23        50.19734
223.69        49.23436
224.15        47.80357
224.61        45.57696
225.06        42.58303
225.52        39.96198
225.98        40.00974
226.44        42.71825
226.90        46.30983
227.36        49.17294
227.81        50.33994
228.27        50.06628
228.73        48.72771
229.19        46.92117
229.65        45.94854
230.10        46.15794
230.56        46.99746
231.02        47.73326
231.48        47.74699
231.93        46.93767
232.39        45.57549
232.85        43.98059
233.31        42.84127
233.77        42.37545
234.22        42.48201
234.68        42.57274
235.14        41.64412
235.60        39.64573
236.05        37.15979
236.51        35.10331
236.97        34.52642
237.43        35.67833
237.88        38.47828
238.34        42.76916
238.80         47.6604
239.26        51.72812
239.71        54.72424
240.17        55.95631
240.63        55.28828
241.08        52.68979
241.54        46.86701
242.00        37.46285
242.46        29.45959
242.91        30.18284
243.37        40.21879
243.83        53.61462
244.28        63.51933
244.74        69.20177
245.20        72.06758
245.66        72.41336
246.11        71.04497
246.57        68.65305
247.03         64.9886
247.48        60.04348
247.94        54.86924
248.40        51.42573
248.85        49.85052
249.31        50.33416
249.77        52.54555
250.22        56.70177
250.68        63.83386
251.14        74.03137
251.59        79.82159
252.05        75.64588
252.51        67.46845
252.96        60.24925
253.42        55.49304
253.88        51.81827
254.33        47.99735
254.79        44.73168
255.25        43.29538
255.70        43.62972
256.16        45.06979
256.62        46.18473
257.07        45.94158
257.53        44.78071
257.99         42.9543
258.44         41.0718
258.90        40.56818
259.35        41.06851
259.81        42.09665
260.27        42.83745
260.72        42.65386
261.18        41.79153
261.63        40.42934
262.09        39.11002
262.55        38.27711
263.00        37.91652
263.46        37.91288
263.91        37.83924
264.37        37.41021
264.83        36.56124
265.28        35.40012
265.74        34.30804
266.19        33.66504
266.65        33.57941
267.11         33.8463
267.56         34.1484
268.02        34.02912
268.47        33.38863
268.93        32.38859
269.38        31.25072
269.84        30.46286
270.30        30.14245
270.75        30.13772
271.21        30.22496
271.66        30.07406
272.12        29.60586
272.57        28.91086
273.03        28.15678
273.48        27.52407
273.94        27.11382
274.39        26.82203
274.85        26.57776
275.31        26.23177
275.76        25.74541
276.22        25.19632
276.67        24.64804
277.13        24.25769
277.58        24.00577
278.04        23.86601
278.49        23.70187
278.95        23.39498
279.40        22.90081
279.86        22.34244
280.31        21.78337
280.77        21.41668
281.22         21.2431
281.68          21.212
282.13        21.26417
282.59        21.35472
283.04        21.43411
283.50        21.49924
283.95        21.48437
284.41        21.29251
284.86        20.91777
285.32        20.43864
285.77        19.90878
286.22        19.46576
286.68        19.15503
287.13        18.91135
287.59        18.76493
288.04        18.70703
288.50           18.73
288.95        18.81098
289.41        18.87693
289.86        18.78672
290.32        18.54586
290.77        18.20009
291.22        17.85606
291.68        17.68557
292.13        17.72185
292.59        17.91901
293.04        18.24702
293.50        18.67799
293.95         19.1823
294.40        19.77017
294.86        20.34697
295.31        20.78168
295.77        21.04844
296.22        21.17145
296.68        21.28224
297.13        21.57284
297.58        22.09002
298.04        22.74567
298.49         23.4183
298.95        23.90488
299.40        24.15915
299.85        24.25469
300.31        24.27961
300.76        24.31898
301.21        24.43239
301.67        24.59179
302.12        24.77154
302.58        25.07125
303.03        25.48172
303.48        25.83439
303.94         26.0533
304.39        26.79839
304.84        26.75661
305.30        26.98319
305.75        27.11553
306.20        27.25816
306.66        27.42541
307.11        27.59541
307.57        27.75622
308.02        27.82572
308.47        27.80577
308.93        27.72833
309.38         27.6301
309.83        27.61014
310.29        27.68405
310.74        27.81873
311.19         27.9412
311.65        27.93257
312.10        27.77195
312.55        27.50394
313.00         27.2195
313.46        27.05891
313.91        27.04226
314.36        27.12443
314.82        27.23136
315.27        27.26267
315.72        27.17685
316.18        27.01747
316.63        26.80064
317.08        26.56207
317.53        26.32928
317.99        26.10274
318.44        25.90515
318.89        25.77843
319.35         25.7262
319.80        25.73116
320.25        25.78116
320.70        25.85249
321.16        25.91712
321.61        25.98887
322.06        26.00992
322.51        25.89851
322.97        25.64705
323.42        25.28698
323.87        24.91163
324.32        24.67433
324.78        24.60385
325.23        24.67382
325.68        24.79461
326.13        24.81057
326.59        24.67131
327.04        24.43227
327.49        24.15903
327.94        23.97095
328.39        23.89618
328.85        23.87957
329.30        23.88309
329.75         23.8077
330.20        23.62968
330.66        23.39394
331.11        23.13669
331.56        22.88851
332.01        22.67099
332.46         22.4694
332.92        22.32235
333.37        22.32102
333.82        22.46815
334.27        22.74043
334.72        23.03248
335.17        23.16621
335.63        23.09333
336.08        22.86261
336.53        22.56669
336.98         22.3853
337.43        22.37368
337.88        22.47881
338.34        22.63245
338.79        22.74523
339.24        22.78181
339.69        22.78602
340.14        22.77308
340.59        22.76418
341.05        22.76969
341.50        22.76228
341.95        22.76593
342.40        22.83137
342.85        22.95561
343.30        23.12203
343.75        23.24623
344.20        23.19264
344.66        22.95356
345.11         22.5754
345.56        22.17282
346.01        21.92586
346.46        21.88601
346.91        21.99959
347.36        22.19724
347.81        22.37369
348.26         22.4898
348.72        22.56782
349.17        22.61457
349.62        22.64103
350.07        22.65028
350.52        22.63204
350.97        22.57925
351.42        22.48709
351.87        22.36647
352.32         22.2362
352.77        22.12945
353.22        22.09454
353.67        22.13915
354.13        22.23819
354.58        22.36962
355.03        22.49813
355.48        22.59987
355.93         22.6784
356.38        22.69813
356.83         22.6089
357.28        22.41343
357.73        22.13212
358.18        21.83476
358.63        21.63354
359.08        21.55161
359.53        21.55464
359.98        21.58503
360.43        21.54656
360.88        21.41329
361.33         21.2208
361.78        20.99633
362.23        20.78065
362.68        20.59605
363.13        20.43535
363.58        20.31023
364.03        20.23996
364.48         20.2232
364.93        20.24959
365.38         20.3032
365.83        20.35705
366.28        20.39299
366.73        20.40644
367.18        20.37768
367.63        20.28123
368.08        20.11622
368.53        19.89434
368.98        19.64451
369.43        19.41412
369.88         19.2243
370.33        19.07317
370.78        18.95674
371.23        18.86335
371.68        18.78515
372.13        18.71975
372.58        18.66637
373.03        18.62324
373.48        18.58108
373.93        18.53168
374.38        18.44879
374.83        18.29564
375.28        18.07686
375.72        17.81286
376.17        17.56235
376.62        17.37159
377.07        17.25325
377.52        17.18937
377.97        17.17888
378.42        17.21743
378.87        17.29062
379.32        17.39207
379.77        17.47858
380.22         17.4895
380.67        17.41154
381.11        17.25202
381.56        17.05971
382.01         16.9173
382.46        16.85109
382.91        16.84975
383.36        16.85748
383.81        16.78564
384.26        16.62095
384.71        16.38984
385.15        16.16962
385.60        16.10476
386.05        16.20156
386.50        16.40484
386.95        16.60004
387.40        16.61075
387.85        16.41084
388.29        16.06581
388.74         15.7027
389.19        15.43886
389.64        15.30515
390.09        15.25587
390.54        15.27426
390.98         15.3303
391.43        15.40624
391.88        15.50831
392.33        15.59262
392.78        15.61176
393.23        15.56256
393.67        15.41619
394.12        15.24045
394.57         15.2375
395.02        15.19937
395.47        15.28087
395.91        15.35749
396.36        15.32039
396.81        15.15694
397.26        14.91267
397.71        14.66862
398.15        14.53302
398.60        14.54413
399.05        14.62712
399.50        14.71924
399.95        14.79687
400.39        14.76233
400.84        14.63703
401.29        14.44505
401.74         14.3208
402.18        14.29452
402.63        14.29858
403.08        14.31868
403.53        14.34456
403.97        14.36441
404.42        14.38683
404.87        14.38796
405.32         14.3269
405.76        14.19798
406.21        14.01807
406.66        13.84053
407.11        13.75311
407.55        13.77822
408.00         13.8934
408.45        14.03194
408.90        14.06946
409.34        13.97472
409.79        13.78646
410.24        13.60041
410.68        13.56156
411.13        13.69918
411.58        13.96592
412.03        14.25858
412.47        14.40091
412.92        14.33626
413.37        14.13417
413.81        13.88925
414.26        13.76597
414.71         13.7888
415.15        13.90722
415.60        14.05723
416.05        14.15072
416.49         14.1569
416.94        14.11586
417.39        14.03599
417.83        13.92397
418.28        13.79852
418.73        13.64906
419.17        13.52831
419.62        13.52285
420.07        13.63991
420.51        13.85126
420.96        14.07022
421.41         14.1503
421.85        14.06159
422.30        13.86952
422.74        13.65164
423.19          13.546
423.64        13.57648
424.08        13.70648
424.53         13.8783
424.98        14.01623
425.42        14.08951
425.87        14.11036
426.31        14.08691
426.76        14.05447
427.21        13.97772
427.65         13.8739
428.10        13.75604
428.54        13.62876
428.99        13.51538
429.44        13.50934
429.88        13.56882
430.33         13.4525
430.77        13.24939
431.22        13.39678
431.66        13.84342
432.11        14.08011
432.56        14.03032
433.00         13.9694
433.45        13.91958
433.89        13.71093
434.34         13.4699
434.78        13.51465
435.23        13.77284
435.67        13.84809
436.12        13.71601
436.57         13.5946
437.01        13.53513
437.46        13.53065
437.90        13.59314
438.35        13.71466
438.79        13.85118
439.24        13.90915
439.68        13.89076
440.13         13.8791
440.57        13.86662
441.02         13.8453
441.46        13.82343
441.91        13.71022
442.35        13.56231
442.80        13.74263
443.24        14.12874
443.69        14.07322
444.13        13.63292
444.58        13.44826
445.02        13.52573
445.47        13.52801
445.91        13.44495
446.36         13.4294
446.80        13.47714
447.24        13.55269
447.69        13.63667
448.13        13.69898
448.58         13.7319
449.02        13.74298
449.47        13.75186
449.91        13.78136
450.36        13.83789
450.80        13.91181
451.25        13.98232
451.69        14.01561
452.13        14.00372
452.58        13.96517
453.02        13.91932
453.47        13.89602
453.91        13.89921
454.36        13.95881
454.80        13.99054
455.24        14.02029
455.69        14.02362
456.13        14.00664
456.58        13.98521
457.02        13.96967
457.46        13.96771
457.91        13.97323
458.35        13.97821
458.79        13.97697
459.24        13.97733
459.68        13.98902
460.13        14.01739
460.57        14.00438
461.01        14.05809
461.46         14.0381
461.90        14.00526
462.34        14.13423
462.79        14.36242
463.23        14.37903
463.68        14.20422
464.12         14.1363
464.56        14.18649
465.01        14.20583
465.45        14.17705
465.89        14.13771
466.34        14.11317
466.78        14.16207
467.22        14.29476
467.67        14.29758
468.11        14.17268
468.55        14.00098
468.99        13.85179
469.44         13.7951
469.88        13.84911
470.32        13.99796
470.77        14.17189
471.21        14.27068
471.65        14.26122
472.10        14.17981
472.54        14.07955
472.98        14.05974
473.42        14.13976
473.87        14.28173
474.31         14.4291
474.75        14.49894
475.20        14.47716
475.64        14.39149
476.08        14.28458
476.52        14.21648
476.97         14.2061
477.41         14.2316
477.85        14.28352
478.29        14.34543
478.74        14.41216
479.18         14.4804
479.62         14.5372
480.06        14.59676
480.50        14.66454
480.95        14.60271
481.39         14.6489
481.83        14.68668
482.27        14.79919
482.72        14.85508
483.16        15.03131
483.60        15.11393
484.04        15.14266
484.48        15.13658
484.93        15.16041
485.37        15.25777
485.81         15.3443
486.25        15.70412
486.69        15.15782
487.14        15.37551
487.58        15.94109
488.02        15.91461
488.46        15.94849
488.90        16.36049
489.34        15.91236
489.79        15.94213
490.23        16.01211
490.67        16.25282
491.11        16.55089
491.55        16.55629
491.99        16.34635
492.43        16.36951
492.88        16.64777
493.32         16.8937
493.76        17.06288
494.20        17.24463
494.64        17.43146
495.08        17.59212
495.52        17.71241
495.96        17.81386
496.41        17.90505
496.85        17.89189
497.29        17.81774
497.73        18.03754
498.17        18.28507
498.61        18.34896
499.05        18.18827
499.49        18.15088
499.93        18.26859
500.37        18.41342
500.82        18.55618
501.26        18.67427
501.70        18.75644
502.14        18.83619
502.58        18.92849
503.02        19.03458
503.46        19.15765
503.90        19.29623
504.34        19.43816
504.78         19.5613
505.22        19.65773
505.66         19.7306
506.10        19.77595
506.54        19.81174
506.98        19.84666
507.42        19.83719
507.86        19.78279
508.30        19.90695
508.74        19.85089
509.18        19.90554
509.62        19.95912
510.06        20.01353
510.50        20.06454
510.94        20.11934
511.38        20.17744
511.82        20.22779
512.26        20.26872
512.70        20.29841
513.14        20.32828
513.58        20.37739
514.02        20.44866
514.46        20.53819
514.90        20.62221
515.34        20.66206
515.78        20.64992
516.22        20.59522
516.66        20.53331
517.10        20.52028
517.54        20.56543
517.98        20.65004
518.42         20.7308
518.86        20.73715
519.30        20.65597
519.74        20.51621
520.18        20.36117
520.62        20.25549
521.06        20.21888
521.50        20.23359
521.93        20.28376
522.37        20.33331
522.81        20.36933
523.25        20.40308
523.69         20.4355
524.13         20.4437
524.57        20.46494
525.01        20.45953
525.45        20.43437
525.89        20.38543
526.32        20.31213
526.76        20.22584
527.20        20.13036
527.64        20.03158
528.08        19.93538
528.52        19.84539
528.96        19.77135
529.40        19.72689
529.83        19.71201
530.27        19.72226
530.71        19.74361
531.15        19.75686
531.59        19.75259
532.03        19.73092
532.46        19.69077
532.90         19.6386
533.34        19.57807
533.78        19.51473
534.22        19.44804
534.66        19.37651
535.09        19.30182
535.53        19.23098
535.97        19.18294
536.41        19.19229
536.85         19.2596
537.28        19.36981
537.72        19.48091
538.16        19.52873
538.60        19.50103
539.04        19.42422
539.47        19.32784
539.91        19.27723
540.35         19.2856
540.79        19.33936
541.22        19.43366
541.66        19.56367
542.10        19.71727
542.54        19.89393
542.97        20.07457
543.41        20.22999
543.85        20.35311
544.29        20.45419
544.72         20.5333
545.16        20.60897
545.60        20.68781
546.04        20.75887
546.47        20.84402
546.91        21.00935
547.35        21.24211
547.79        21.45933
548.22         21.6298
548.66        21.82138
549.10        22.03398
549.53        22.15799
549.97        22.16939
550.41        22.48782
550.84        22.44588
551.28        22.54883
551.72        22.60331
552.15        22.81878
552.59         22.9115
553.03        23.10386
553.46        23.29328
553.90        23.44562
554.34         23.5481
554.77        23.63746
555.21        23.72423
555.65        23.76257
556.08        23.78032
556.52        23.88548
556.96        24.06381
557.39        24.23647
557.83        24.38829
558.27        24.50804
558.70        24.60834
559.14         24.7386
559.57        24.87833
560.01        24.99334
560.45        25.07263
560.88        25.03063
561.32        25.02981
561.75        25.07792
562.19         25.2078
562.63         25.2925
563.06        25.32387
563.50        25.38646
563.93         25.4706
564.37        25.54901
564.80        25.61368
565.24        25.67793
565.68        25.74523
566.11        25.83845
566.55        25.96033
566.98        26.06662
567.42        26.18518
567.85        26.30354
568.29        26.41295
568.72        26.61785
569.16        26.96082
569.60        26.84136
570.03        27.07211
570.47        27.45298
570.90        27.44812
571.34         27.5965
571.77        27.75554
572.21         27.8326
572.64         27.8542
573.08        28.00973
573.51        28.32232
573.95        28.25793
574.38        28.51126
574.82        28.39581
