SpectraSmart Spectrum 2.9.0.0
--------- Device Information -----------
Spectrum Name :  反射率_0
Saving Time :  2024/04/30 01:10:12
Spectro-Module Model Name : SE2030-DUVN
Spectro-Module Serial Number : OS361AC55029948
Wavelength Start : 200
Wavelength End : 1025
Wavelength Unit : Wavelength(nm)
Spectrum Unit : Reflectance(%)
-----------Spectrum Setting ------------
Integration Time : 20ms
Average : 10
Boxcar : 0
Background removal :  enabled
linearity correction :  enabled
SC :  disabled
Intensity correction :  disabled
DWT denoise :  enabled
savitzky-golay :  disabled
FFT :  disabled
Running average :  disabled
Kalman :  disabled
High pass :  disabled
---------------BEGIN--------------------
Wavelength(nm)             Reflectance(%)
200.29               0
200.75        41.77501
201.21        33.63573
201.67        24.17214
202.13        15.13227
202.58        7.680152
203.04        1.684597
203.50      -0.5356509
203.96         5.81681
204.42        21.23008
204.88        42.89338
205.34        62.52934
205.80         68.4222
206.26        61.77927
206.72        50.41753
207.18        39.08975
207.64        30.12888
208.10        22.98876
208.55        15.76341
209.01        10.31277
209.47        11.65876
209.93        19.47577
210.39        30.72754
210.85        40.03217
211.31        43.01874
211.77        39.55045
212.23        29.09295
212.69        13.96413
213.14        8.097247
213.60        17.75304
214.06        34.69668
214.52        48.69489
214.98        53.30173
215.44        49.87365
215.90        41.15857
216.36        30.74636
216.81        25.46547
217.27        28.91929
217.73        40.62749
218.19        59.38543
218.65        74.69774
219.11        77.85667
219.57        72.02039
220.02        63.92604
220.48        58.79209
220.94        56.10923
221.40        53.97297
221.86        50.54311
222.32        43.84492
222.77        36.17034
223.23        31.05493
223.69        28.44825
224.15        27.45276
224.61        27.45982
225.06        27.93801
225.52        29.72677
225.98        33.41319
226.44        37.80934
226.90        41.87507
227.36        44.23178
227.81        44.01266
228.27        41.60547
228.73         37.2371
229.19        32.53065
229.65         31.0902
230.10        33.41425
230.56        37.51649
231.02        41.07492
231.48         42.0643
231.93        40.52243
232.39        37.36317
232.85        33.59125
233.31        31.13473
233.77        30.73941
234.22        31.93648
234.68        34.00628
235.14        35.58736
235.60        36.18097
236.05        36.18828
236.51        36.26048
236.97        37.27523
237.43        39.54868
237.88        43.15362
238.34        47.49581
238.80        50.80579
239.26        51.62961
239.71        50.33581
240.17        47.95274
240.63         46.2005
241.08        45.58397
241.54        45.84451
242.00        47.56732
242.46        51.44324
242.91        57.13988
243.37        63.21234
243.83        67.96436
244.28        71.21207
244.74        73.31445
245.20        73.70659
245.66        72.76389
246.11        71.74579
246.57        71.41682
247.03        72.54922
247.48        73.22362
247.94         69.3334
248.40        62.66937
248.85        56.05227
249.31        52.66133
249.77        53.82828
250.22         59.5894
250.68        71.09354
251.14        88.10965
251.59        97.06758
252.05        88.89487
252.51        74.73814
252.96         63.4925
253.42        57.72932
253.88        55.38807
254.33        54.59983
254.79        55.36052
255.25        56.96612
255.70        58.44036
256.16        59.98904
256.62        61.14462
257.07        61.63463
257.53        61.93492
257.99         61.9187
258.44        61.42236
258.90         60.9597
259.35        60.25456
259.81        59.65201
260.27        59.04121
260.72        58.34795
261.18        57.74399
261.63        56.99088
262.09        56.20399
262.55        55.21121
263.00        54.01162
263.46        52.88165
263.91        51.74243
264.37        50.78682
264.83        49.93132
265.28        49.08795
265.74        48.38852
266.19        47.80332
266.65        47.39604
267.11        47.10915
267.56        46.84776
268.02         46.4835
268.47        45.95194
268.93        45.28419
269.38        44.51422
269.84        43.82519
270.30        43.24293
270.75        42.71791
271.21         42.1653
271.66        41.41346
272.12        40.44789
272.57        39.32222
273.03        38.17844
273.48         37.1514
273.94        36.36154
274.39        35.72976
274.85        35.26689
275.31        34.89937
275.76        34.56606
276.22        34.29552
276.67         34.0186
277.13        33.73951
277.58        33.39632
278.04        33.02448
278.49        32.56398
278.95        32.04091
279.40        31.42246
279.86          30.789
280.31        30.14252
280.77        29.60746
281.22        29.17069
281.68        28.84892
282.13        28.60207
282.59        28.42145
283.04        28.27015
283.50        28.14794
283.95        28.02369
284.41        27.86787
284.86         27.6629
285.32        27.45467
285.77         27.2162
286.22        26.98774
286.68        26.79094
287.13        26.57787
287.59        26.41421
288.04        26.33778
288.50        26.36567
288.95         26.4589
289.41        26.54322
289.86        26.46216
290.32        26.22743
290.77        25.89143
291.22        25.58287
291.68        25.50094
292.13        25.67624
292.59         26.0561
293.04        26.57191
293.50         27.1546
293.95        27.76488
294.40        28.43295
294.86        29.10036
295.31        29.69179
295.77        30.19579
296.22        30.61786
296.68        31.06058
297.13        31.66524
297.58        32.46539
298.04        33.38876
298.49        34.32737
298.95        35.11005
299.40        35.68865
299.85        36.11784
300.31        36.47667
300.76        36.82719
301.21         37.2238
301.67        37.65139
302.12        38.06676
302.58        38.54947
303.03        39.08048
303.48        39.53204
303.94        39.87331
304.39         40.6682
304.84        40.85869
305.30        41.29132
305.75        41.62014
306.20        41.87019
306.66        42.05093
307.11        42.15464
307.57        42.22996
308.02        42.26156
308.47        42.27272
308.93        42.27079
309.38        42.25179
309.83        42.26237
310.29        42.31054
310.74        42.38725
311.19         42.4402
311.65        42.37756
312.10        42.18464
312.55         41.8954
313.00        41.61933
313.46        41.52798
313.91        41.63508
314.36        41.88213
314.82        42.13661
315.27        42.20719
315.72        42.03086
316.18        41.67675
316.63        41.22186
317.08        40.80199
317.53        40.47525
317.99        40.22142
318.44        40.02128
318.89        39.84847
319.35        39.69157
319.80        39.56077
320.25        39.48481
320.70        39.50285
321.16        39.59554
321.61        39.75318
322.06        39.87401
322.51        39.81011
322.97        39.52985
323.42        39.08435
323.87        38.58393
324.32        38.21154
324.78        38.00598
325.23        37.94051
325.68        37.92804
326.13        37.82147
326.59         37.5745
327.04        37.25299
327.49        36.92226
327.94        36.70082
328.39        36.61157
328.85        36.58817
329.30        36.59254
329.75        36.50231
330.20        36.28728
330.66        35.99572
331.11        35.66755
331.56        35.33337
332.01        35.01832
332.46        34.70388
332.92        34.44023
333.37        34.36113
333.82        34.46731
334.27        34.72327
334.72        34.98998
335.17        35.03021
335.63        34.77903
336.08        34.31818
336.53        33.76477
336.98        33.34645
337.43        33.14509
337.88        33.10027
338.34        33.15946
338.79        33.25552
339.24        33.34457
339.69        33.45497
340.14         33.5575
340.59        33.59792
341.05         33.5659
341.50        33.45735
341.95        33.31391
342.40         33.2208
342.85        33.19375
343.30        33.20506
343.75        33.20408
344.20        33.10942
344.66        32.91479
345.11        32.64937
345.56        32.35952
346.01        32.11099
346.46        31.93625
346.91        31.82614
347.36        31.77655
347.81        31.78069
348.26        31.82485
348.72        31.89425
349.17        31.98461
349.62        32.08108
350.07        32.16719
350.52        32.24265
350.97        32.26205
351.42        32.16058
351.87        31.94353
352.32         31.6413
352.77        31.35094
353.22         31.2306
353.67        31.30945
354.13         31.5271
354.58         31.7896
355.03        31.94258
355.48        31.93454
355.93        31.81301
356.38        31.59862
356.83        31.32495
357.28         31.0194
357.73        30.67433
358.18        30.34108
358.63         30.1046
359.08        29.97647
359.53        29.93452
359.98        29.91692
360.43        29.81702
360.88        29.60958
361.33        29.33144
361.78        29.02186
362.23        28.74358
362.68        28.52313
363.13        28.34522
363.58        28.21185
364.03        28.12721
364.48        28.08174
364.93        28.06579
365.38        28.06256
365.83        28.04351
366.28        27.99497
366.73        27.92101
367.18        27.80168
367.63        27.61067
368.08        27.35115
368.53        27.03335
368.98        26.71416
369.43        26.48495
369.88        26.36818
370.33        26.34512
370.78        26.35113
371.23        26.27642
371.68          26.091
372.13        25.82037
372.58        25.52984
373.03        25.32571
373.48        25.22976
373.93        25.20638
374.38        25.18285
374.83        25.04312
375.28         24.7709
375.72        24.41304
376.17        24.06957
376.62        23.83487
377.07        23.72972
377.52         23.7126
377.97        23.75372
378.42        23.80539
378.87        23.84191
379.32        23.87564
379.77        23.88162
380.22        23.82356
380.67        23.69677
381.11         23.5007
381.56        23.28422
382.01        23.13301
382.46        23.06968
382.91        23.07967
383.36        23.09659
383.81        23.01425
384.26        22.81593
384.71        22.53546
385.15        22.25275
385.60        22.12021
386.05        22.15016
386.50        22.28804
386.95        22.43424
387.40        22.43567
387.85        22.26501
388.29        21.97038
388.74        21.66248
389.19        21.42199
389.64        21.27174
390.09        21.17515
390.54        21.12223
390.98         21.0967
391.43        21.09381
391.88        21.11692
392.33        21.13018
392.78        21.10093
393.23        21.02715
393.67        20.86677
394.12        20.67695
394.57        20.67904
395.02        20.58089
395.47        20.60306
395.91        20.61866
396.36        20.55531
396.81        20.40828
397.26        20.21226
397.71        20.01555
398.15        19.87704
398.60        19.83568
399.05        19.82475
399.50         19.8189
399.95        19.86968
400.39        19.86351
400.84        19.80414
401.29        19.67901
401.74        19.58962
402.18        19.55072
402.63        19.49443
403.08        19.44161
403.53        19.43986
403.97        19.48757
404.42        19.57585
404.87        19.64203
405.32        19.58366
405.76        19.38446
406.21        19.08817
406.66        18.79173
407.11         18.6493
407.55        18.69839
408.00        18.89019
408.45        19.12664
408.90        19.22746
409.34        19.13884
409.79          18.915
410.24        18.66074
410.68        18.53326
411.13        18.56986
411.58        18.72021
412.03        18.89392
412.47         18.9426
412.92        18.81833
413.37         18.5874
413.81        18.33502
414.26         18.2109
414.71        18.23158
415.15        18.35292
415.60        18.50069
416.05        18.57365
416.49        18.53985
416.94        18.43726
417.39        18.29886
417.83        18.17192
418.28        18.08074
418.73        18.00354
419.17        17.95248
419.62        17.95044
420.07        17.99283
420.51        18.07185
420.96        18.14924
421.41        18.15273
421.85        18.06586
422.30        17.93006
422.74        17.77794
423.19         17.6878
423.64        17.66861
424.08        17.70696
424.53        17.76912
424.98        17.82669
425.42        17.86773
425.87        17.88607
426.31        17.87959
426.76        17.87286
427.21        17.80911
427.65        17.71594
428.10        17.59864
428.54        17.44309
428.99         17.2761
429.44         17.2255
429.88        17.24636
430.33        17.04498
430.77         16.7402
431.22        16.88101
431.66        17.40875
432.11        17.69084
432.56        17.62853
433.00        17.60081
433.45        17.60531
433.89        17.28734
434.34         16.8417
434.78        16.87218
435.23        17.27099
435.67        17.36448
436.12        17.11859
436.57        16.90757
437.01        16.81026
437.46        16.79719
437.90        16.88517
438.35        17.07035
438.79        17.27283
439.24        17.33808
439.68        17.26266
440.13        17.16031
440.57        17.05199
441.02        16.98199
441.46        16.97321
441.91        16.88705
442.35        16.76378
442.80        17.03026
443.24        17.52059
443.69        17.40866
444.13        16.79358
444.58        16.53615
445.02        16.65171
445.47        16.69149
445.91        16.62469
446.36        16.62103
446.80        16.66905
447.24        16.73342
447.69        16.79948
448.13        16.84226
448.58        16.85666
449.02        16.84469
449.47        16.83279
449.91        16.85292
450.36        16.91175
450.80         16.9977
451.25        17.07157
451.69         17.0679
452.13        16.97608
452.58        16.82761
453.02        16.67125
453.47        16.58216
453.91        16.57442
454.36        16.67172
454.80        16.75064
455.24        16.80577
455.69        16.79685
456.13        16.74059
456.58        16.66971
457.02        16.61879
457.46        16.60166
457.91        16.60282
458.35        16.60075
458.79        16.57313
459.24        16.52667
459.68        16.48151
460.13        16.45469
460.57        16.39542
461.01        16.43422
461.46        16.40253
461.90        16.36329
462.34        16.50926
462.79        16.76331
463.23        16.76525
463.68        16.54385
464.12        16.45324
464.56         16.5076
465.01        16.53017
465.45        16.49601
465.89        16.44243
466.34        16.39693
466.78        16.42818
467.22        16.55299
467.67        16.53256
468.11        16.37351
468.55        16.16975
468.99        15.99169
469.44        15.90499
469.88        15.92876
470.32        16.04749
470.77        16.20105
471.21         16.3045
471.65        16.32492
472.10        16.29352
472.54        16.24098
472.98         16.2329
473.42        16.28405
473.87        16.36898
474.31        16.45643
474.75        16.50498
475.20        16.50933
475.64        16.48091
476.08        16.44245
476.52        16.42326
476.97        16.43193
477.41        16.45476
477.85        16.48758
478.29        16.52286
478.74        16.56088
479.18        16.59429
479.62        16.61298
480.06        16.63996
480.50        16.68537
480.95         16.5982
481.39        16.64609
481.83        16.68562
482.27        16.80985
482.72        16.87377
483.16        17.08669
483.60        17.21121
484.04         17.2898
484.48        17.34699
484.93        17.42947
485.37        17.50333
485.81        17.50342
486.25         17.8092
486.69        17.41836
487.14        17.51891
487.58        17.65291
488.02        17.82332
488.46        18.06215
488.90        18.51386
489.34        17.85343
489.79        17.78258
490.23        17.92355
490.67        18.14642
491.11        18.35846
491.55        18.34621
491.99        18.18839
492.43        18.26364
492.88        18.58797
493.32        18.90013
493.76        19.13878
494.20         19.3601
494.64        19.55073
495.08        19.68422
495.52        19.75831
495.96        19.82288
496.41        19.89767
496.85        19.87307
497.29         19.7885
497.73        20.02876
498.17        20.29288
498.61        20.33824
499.05        20.13982
499.49        20.12436
499.93        20.32926
500.37        20.59153
500.82        20.84521
501.26         21.0168
501.70        21.08195
502.14        21.09331
502.58         21.0957
503.02        21.13586
503.46         21.2321
503.90        21.37166
504.34        21.52849
504.78        21.65625
505.22        21.73915
505.66        21.78922
506.10        21.80997
506.54        21.83101
506.98        21.86465
507.42        21.85932
507.86        21.80537
508.30        21.93636
508.74        21.85469
509.18        21.88433
509.62        21.91644
510.06        21.97556
510.50        22.05988
510.94        22.16908
511.38        22.28246
511.82        22.35411
512.26         22.3751
512.70        22.35635
513.14        22.32879
513.58         22.3424
514.02        22.40765
514.46          22.508
514.90        22.61336
515.34        22.67446
515.78        22.67759
516.22        22.63882
516.66        22.58129
517.10        22.54053
517.54        22.52683
517.98        22.52864
518.42        22.53312
518.86        22.52044
519.30        22.48555
519.74        22.43763
520.18        22.38578
520.62        22.34123
521.06        22.30844
521.50        22.28522
521.93        22.26871
522.37        22.24824
522.81        22.22396
523.25        22.19639
523.69        22.17203
524.13        22.16122
524.57        22.16199
525.01        22.16655
525.45        22.15977
525.89        22.11829
526.32        22.03653
526.76        21.93278
527.20        21.81801
527.64        21.71004
528.08        21.61671
528.52        21.53287
528.96        21.46811
529.40        21.43714
529.83        21.43644
530.27        21.46205
530.71        21.48463
531.15        21.46041
531.59        21.37985
532.03        21.25504
532.46        21.11246
532.90        21.00254
533.34        20.93873
533.78        20.91216
534.22        20.90243
534.66        20.87654
535.09        20.82554
535.53        20.76578
535.97        20.71767
536.41        20.71902
536.85         20.7731
537.28        20.86074
537.72        20.94796
538.16        20.98533
538.60        20.96205
539.04        20.90046
539.47        20.81731
539.91        20.75804
540.35        20.73244
540.79        20.73591
541.22        20.77477
541.66        20.86217
542.10        20.99279
542.54         21.1616
542.97         21.3483
543.41        21.52167
543.85        21.67177
544.29        21.80942
544.72        21.92767
545.16        22.03461
545.60        22.13354
546.04         22.2128
546.47        22.30084
546.91        22.47795
547.35        22.73286
547.79        22.97471
548.22        23.16244
548.66        23.35802
549.10         23.5592
549.53        23.65103
549.97        23.62185
550.41        23.94013
550.84        23.90056
551.28        24.03856
551.72        24.12639
552.15        24.35311
552.59        24.41171
553.03        24.54979
553.46        24.69211
553.90        24.85573
554.34        25.03356
554.77        25.24372
555.21        25.45392
555.65        25.54485
556.08        25.53112
556.52         25.5548
556.96        25.63593
557.39        25.74474
557.83        25.88157
558.27        26.01655
558.70        26.15242
559.14         26.3257
559.57        26.50517
560.01        26.65783
560.45        26.76354
560.88        26.72262
561.32        26.70617
561.75        26.71336
562.19        26.79616
562.63        26.86339
563.06        26.91348
563.50        27.01071
563.93        27.13586
564.37        27.26432
564.80        27.37264
565.24        27.44411
565.68        27.48498
566.11        27.55256
566.55        27.65474
566.98        27.72748
567.42         27.8078
567.85        27.90891
568.29        28.03713
568.72        28.26334
569.16        28.62056
569.60        28.55574
570.03        28.94366
570.47        29.13044
570.90        29.34587
571.34        29.42311
571.77        29.59408
572.21        29.68527
572.64        29.75048
573.08        29.84633
573.51        30.05133
573.95        30.19208
574.38        30.39385
574.82         30.8616
