SpectraSmart Spectrum 2.9.0.0
--------- Device Information -----------
Spectrum Name :  反射率_0
Saving Time :  2024/04/30 01:09:42
Spectro-Module Model Name : SE2030-DUVN
Spectro-Module Serial Number : OS361AC55029948
Wavelength Start : 200
Wavelength End : 1025
Wavelength Unit : Wavelength(nm)
Spectrum Unit : Reflectance(%)
-----------Spectrum Setting ------------
Integration Time : 20ms
Average : 10
Boxcar : 0
Background removal :  enabled
linearity correction :  enabled
SC :  disabled
Intensity correction :  disabled
DWT denoise :  enabled
savitzky-golay :  disabled
FFT :  disabled
Running average :  disabled
Kalman :  disabled
High pass :  disabled
---------------BEGIN--------------------
Wavelength(nm)             Reflectance(%)
200.29               0
200.75        80.75066
201.21         62.3116
201.67        39.62489
202.13        20.43104
202.58         8.53548
203.04        2.120111
203.50        1.498255
203.96         6.79743
204.42        16.70412
204.88         31.1937
205.34        44.74312
205.80        48.69154
206.26         44.0263
206.72        36.01794
207.18        28.08744
207.64        22.26605
208.10        18.10315
208.55        13.93737
209.01        11.30982
209.47        13.96152
209.93        21.22647
210.39        30.85176
210.85        38.15423
211.31        39.09908
211.77        33.39774
212.23        20.09573
212.69        1.888483
213.14         -4.9308
213.60         7.01096
214.06        27.70948
214.52        45.15023
214.98        51.99091
215.44        49.84247
215.90        41.87415
216.36        31.68075
216.81        26.01353
217.27        28.44926
217.73        38.29503
218.19        54.72946
218.65        69.06263
219.11        73.46331
219.57        70.14734
220.02        64.46758
220.48        60.98366
220.94        59.39136
221.40        58.04963
221.86          54.979
222.32        47.83003
222.77        38.97702
223.23        32.44733
223.69        28.51455
224.15        26.15811
224.61        24.67948
225.06        23.67706
225.52        24.11793
225.98        27.15763
226.44        31.78214
226.90        36.38764
227.36        39.68032
227.81        41.09709
228.27        41.01113
228.73        39.73389
229.19        37.83936
229.65        36.65201
230.10        36.62693
230.56        37.28112
231.02        37.96469
231.48        38.08667
231.93        37.56971
232.39        36.71138
232.85        35.80758
233.31        35.44889
233.77        35.81215
234.22        36.77934
234.68         37.8533
235.14        38.17149
235.60        37.54868
236.05        36.28536
236.51        35.11135
236.97        34.91934
237.43         35.9617
237.88        38.32916
238.34        41.58464
238.80        44.41526
239.26        45.68788
239.71        45.60159
240.17        44.77892
240.63        44.60112
241.08         45.6071
241.54        47.76234
242.00         51.5765
242.46        56.43513
242.91        60.40447
243.37        62.36924
243.83        62.24497
244.28        60.84292
244.74        58.32531
245.20        53.95462
245.66        49.12591
246.11        47.52663
246.57        51.05231
247.03        59.55344
247.48        69.10989
247.94        70.15541
248.40        63.04333
248.85         53.6011
249.31         46.8566
249.77        44.76199
250.22        46.90188
250.68        53.04458
251.14        64.00494
251.59        73.71299
252.05        74.67704
252.51        70.77189
252.96        66.03861
253.42         62.4261
253.88        59.25623
254.33        55.53604
254.79         52.3358
255.25        51.51503
255.70        52.85795
256.16         55.3349
256.62        57.45301
257.07        58.24822
257.53        58.27917
257.99        57.79119
258.44        57.01066
258.90        56.87857
259.35        57.01138
259.81        57.35458
260.27        57.50683
260.72        57.19912
261.18        56.64561
261.63        55.73087
262.09        54.73197
262.55        53.66256
263.00        52.55013
263.46        51.62418
263.91        50.65266
264.37        49.64814
264.83         48.5331
265.28        47.26315
265.74        46.20766
266.19        45.69562
266.65        45.79917
267.11        46.31959
267.56        46.77755
268.02        46.50374
268.47        45.36865
268.93        43.58166
269.38        41.60732
269.84        40.37467
270.30        40.09951
270.75        40.47843
271.21         40.9907
271.66        40.85044
272.12        39.90619
272.57        38.40739
273.03        36.75902
273.48        35.50434
273.94        34.85833
274.39        34.58008
274.85        34.47842
275.31          34.222
275.76        33.71141
276.22        33.09037
276.67        32.44767
277.13        31.99256
277.58        31.70344
278.04        31.53817
278.49        31.31567
278.95         30.8892
279.40        30.20454
279.86        29.41049
280.31        28.62001
280.77        28.11482
281.22        27.89862
281.68         27.9023
282.13        27.98928
282.59        28.02199
283.04        27.93432
283.50        27.77282
283.95        27.53752
284.41        27.24482
284.86        26.90393
285.32         26.5521
285.77        26.18639
286.22        25.87828
286.68        25.65476
287.13        25.46983
287.59        25.36045
288.04        25.31714
288.50        25.34333
288.95        25.40473
289.41        25.45934
289.86        25.40361
290.32         25.2521
290.77        25.03917
291.22        24.83453
291.68         24.7449
292.13        24.79222
292.59        24.96486
293.04        25.27447
293.50        25.76668
293.95        26.42459
294.40        27.23616
294.86        28.08495
295.31        28.80334
295.77        29.34741
296.22        29.74653
296.68        30.12259
297.13        30.64892
297.58        31.37283
298.04        32.21283
298.49        33.06096
298.95        33.74698
299.40        34.23005
299.85        34.57748
300.31        34.87956
300.76        35.21137
301.21        35.62703
301.67        36.09981
302.12        36.57948
302.58        37.13619
303.03        37.74146
303.48        38.25943
303.94        38.64305
304.39        39.44743
304.84        39.59399
305.30        39.96089
305.75        40.21684
306.20        40.41857
306.66         40.5872
307.11        40.70931
307.57        40.83678
308.02        40.95955
308.47        41.09445
308.93        41.24396
309.38        41.37831
309.83        41.50244
310.29        41.61307
310.74        41.70742
311.19        41.75558
311.65        41.70547
312.10         41.5494
312.55        41.30626
313.00        41.06573
313.46        40.96685
313.91        41.02086
314.36        41.19268
314.82        41.36478
315.27        41.36655
315.72        41.14803
316.18        40.77174
316.63        40.33619
317.08        40.01044
317.53        39.84723
317.99        39.80748
318.44        39.81499
318.89        39.75484
319.35        39.59356
319.80        39.36249
320.25        39.13834
320.70        39.04222
321.16        39.08189
321.61        39.23111
322.06        39.36242
322.51           39.28
322.97        38.94501
323.42        38.43609
323.87        37.89259
324.32        37.53842
324.78        37.41888
325.23        37.48051
325.68        37.61983
326.13        37.66407
326.59        37.54668
327.04        37.33732
327.49        37.06956
327.94        36.81264
328.39        36.58918
328.85        36.35069
329.30        36.12587
329.75        35.91446
330.20        35.72037
330.66        35.55439
331.11        35.40276
331.56        35.20341
332.01        34.94821
332.46           34.65
332.92        34.34911
333.37        34.16376
333.82        34.10833
334.27        34.15164
334.72        34.22896
335.17         34.2319
335.63        34.12238
336.08        33.94522
336.53        33.72891
336.98        33.54251
337.43        33.41342
337.88        33.31971
338.34        33.25162
338.79        33.21663
339.24        33.20215
339.69        33.21603
340.14        33.23485
340.59        33.21729
341.05         33.1554
341.50        33.05117
341.95        32.93652
342.40        32.87216
342.85        32.86501
343.30        32.89019
343.75        32.89491
344.20        32.79677
344.66        32.59236
345.11        32.31164
345.56        32.00702
346.01        31.75793
346.46        31.59513
346.91        31.49548
347.36        31.45628
347.81        31.47185
348.26         31.5258
348.72        31.61218
349.17        31.68977
349.62        31.68374
350.07        31.57933
350.52        31.40082
350.97        31.19552
351.42        31.03679
351.87        30.94925
352.32        30.91873
352.77        30.93232
353.22        30.96734
353.67        31.00803
354.13        31.04851
354.58        31.08687
355.03         31.1218
355.48        31.14111
355.93        31.13482
356.38        31.06633
356.83        30.88424
357.28        30.59204
357.73          30.221
358.18        29.83335
358.63        29.52531
359.08        29.32189
359.53         29.1939
359.98        29.11316
360.43        29.02978
360.88         28.9233
361.33        28.81201
361.78         28.6779
362.23        28.49201
362.68        28.25708
363.13        27.97972
363.58         27.7112
364.03        27.53603
364.48        27.46891
364.93        27.48353
365.38        27.52163
365.83        27.48803
366.28         27.3567
366.73        27.15428
367.18        26.92159
367.63        26.72365
368.08        26.57854
368.53        26.46659
368.98        26.36366
369.43        26.23066
369.88        26.06198
370.33        25.88035
370.78        25.70761
371.23        25.57712
371.68        25.49424
372.13        25.43373
372.58         25.3884
373.03        25.35047
373.48        25.30364
373.93        25.24529
374.38        25.13111
374.83        24.89256
375.28        24.53625
375.72        24.09767
376.17        23.67633
376.62        23.36671
377.07         23.1903
377.52        23.11294
377.97         23.1136
378.42        23.15304
378.87        23.20601
379.32        23.27949
379.77        23.33102
380.22        23.30106
380.67        23.17767
381.11        22.96047
381.56        22.71504
382.01        22.55583
382.46        22.51198
382.91         22.5647
383.36          22.619
383.81        22.52425
384.26        22.26149
384.71        21.88226
385.15        21.51518
385.60        21.38835
386.05        21.52296
386.50        21.83043
386.95        22.15664
387.40        22.26157
387.85        22.09886
388.29        21.75428
388.74        21.36452
389.19        21.04648
389.64        20.83734
390.09        20.68353
390.54        20.60224
390.98        20.62278
391.43        20.73564
391.88        20.92529
392.33         21.0868
392.78        21.08872
393.23        20.92304
393.67        20.58848
394.12        20.21322
394.57        20.11847
395.02        20.04302
395.47        20.16825
395.91        20.32997
396.36        20.38409
396.81        20.29974
397.26         20.1364
397.71        19.95263
398.15        19.82241
398.60        19.79206
399.05        19.78281
399.50        19.78297
399.95        19.86942
400.39        19.92924
400.84        19.96032
401.29        19.91905
401.74        19.84944
402.18        19.75426
402.63        19.58866
403.08        19.40994
403.53        19.32117
403.97        19.33701
404.42         19.4302
404.87        19.53213
405.32           19.53
405.76         19.3947
406.21        19.16965
406.66        18.92791
407.11        18.78518
407.55        18.77537
408.00        18.86373
408.45        18.97952
408.90        18.99506
409.34        18.87674
409.79        18.66379
410.24        18.45811
410.68        18.41058
411.13        18.54916
411.58        18.82525
412.03        19.11511
412.47        19.21043
412.92        19.05129
413.37        18.72192
413.81        18.35452
414.26        18.17061
414.71        18.20236
415.15        18.38515
415.60        18.61584
416.05        18.74169
416.49        18.71374
416.94        18.58721
417.39        18.40874
417.83        18.24681
418.28        18.13318
418.73        18.03603
419.17        17.96807
419.62        17.95472
420.07        17.99184
420.51        18.07717
420.96        18.16381
421.41        18.16315
421.85        18.05894
422.30        17.89761
422.74         17.7314
423.19        17.66971
423.64        17.72284
424.08        17.86207
424.53        18.02829
424.98        18.14738
425.42        18.19234
425.87        18.17379
426.31        18.09903
426.76        18.00866
427.21        17.85861
427.65        17.67541
428.10        17.49341
428.54        17.34336
428.99        17.25331
429.44        17.33251
429.88        17.49117
430.33        17.36182
430.77        17.04921
431.22        17.13164
431.66        17.57723
432.11        17.79589
432.56        17.70853
433.00        17.69031
433.45        17.71607
433.89        17.37861
434.34        16.87283
434.78        16.84273
435.23         17.2056
435.67        17.31008
436.12        17.12757
436.57        17.03008
437.01        17.05635
437.46        17.10197
437.90        17.16755
438.35        17.27029
438.79        17.38259
439.24        17.43297
439.68        17.43136
440.13        17.46238
440.57        17.49156
441.02        17.45823
441.46        17.36545
441.91        17.15319
442.35        16.90796
442.80        17.03618
443.24        17.41847
443.69        17.38985
444.13        16.99255
444.58        16.85682
445.02        16.98048
445.47        17.02271
445.91        16.96719
446.36        16.96498
446.80        17.00939
447.24        17.06315
447.69        17.11076
448.13        17.12863
448.58        17.11475
449.02        17.07902
449.47         17.0438
449.91         17.0324
450.36        17.05362
450.80        17.09718
451.25        17.14804
451.69        17.17897
452.13        17.17992
452.58        17.16462
453.02         17.1375
453.47        17.10443
453.91        17.06445
454.36        17.06514
454.80         17.0194
455.24        16.98608
455.69        16.94439
456.13        16.89412
456.58        16.85308
457.02        16.83071
457.46        16.83308
457.91        16.85664
458.35        16.87938
458.79        16.87671
459.24        16.85452
459.68        16.82605
460.13        16.81631
460.57        16.78875
461.01        16.87573
461.46        16.89865
461.90        16.89807
462.34        17.03574
462.79        17.22652
463.23        17.11569
463.68        16.77082
464.12        16.60639
464.56        16.64927
465.01          16.705
465.45         16.7268
465.89        16.72101
466.34        16.70613
466.78        16.76034
467.22        16.90589
467.67        16.90627
468.11        16.76878
468.55        16.58281
468.99         16.4147
469.44        16.32573
469.88        16.33534
470.32        16.43202
470.77        16.56133
471.21        16.64662
471.65        16.65803
472.10        16.62502
472.54        16.57644
472.98        16.57467
473.42        16.63221
473.87        16.72364
474.31         16.8155
474.75        16.86304
475.20        16.86107
475.64        16.82298
476.08        16.77316
476.52        16.74361
476.97         16.7448
477.41        16.76276
477.85        16.79775
478.29        16.84861
478.74        16.91564
479.18        16.98814
479.62        17.04602
480.06        17.09901
480.50        17.15299
480.95        17.05293
481.39         17.0827
481.83        17.11008
482.27        17.23392
482.72        17.30139
483.16        17.51253
483.60        17.61205
484.04        17.65641
484.48        17.63233
484.93        17.60615
485.37        17.70894
485.81        17.87788
486.25        17.97749
486.69         17.7607
487.14        17.81022
487.58        18.00333
488.02        18.24842
488.46        18.64484
488.90        18.67053
489.34        18.18012
489.79        18.03535
490.23        18.22323
490.67         18.5933
491.11        19.00105
491.55        19.03807
491.99        18.78096
492.43        18.82619
492.88        19.19531
493.32        19.48503
493.76        19.64757
494.20        19.83541
494.64        20.04576
495.08        20.22984
495.52        20.36007
495.96        20.44945
496.41        20.50823
496.85        20.42462
497.29        20.27844
497.73        20.54156
498.17        20.90655
498.61        21.06178
499.05        20.92931
499.49         20.9148
499.93        21.04719
500.37        21.16083
500.82        21.25254
501.26        21.36275
501.70        21.48995
502.14        21.64726
502.58        21.82811
503.02         21.9963
503.46        22.14393
503.90        22.28595
504.34        22.40981
504.78        22.49184
505.22        22.52996
505.66        22.52562
506.10        22.50215
506.54        22.52405
506.98        22.60784
507.42        22.69514
507.86        22.73938
508.30        22.92109
508.74        22.81149
509.18        22.76701
509.62         22.7128
510.06        22.73758
510.50         22.8547
510.94        23.04304
511.38        23.24999
511.82        23.37658
512.26        23.39701
512.70        23.33873
513.14        23.25454
513.58        23.22654
514.02        23.27642
514.46        23.38066
514.90        23.49556
515.34        23.55114
515.78        23.52929
516.22        23.45181
516.66        23.36512
517.10        23.33934
517.54        23.38811
517.98        23.48723
518.42        23.58343
518.86        23.59286
519.30        23.49857
519.74        23.33131
520.18        23.14879
520.62        23.03737
521.06        23.02019
521.50        23.07456
521.93        23.15896
522.37        23.19714
522.81        23.17114
523.25        23.10212
523.69        23.02917
524.13        23.01182
524.57        23.05919
525.01        23.14503
525.45        23.22456
525.89        23.22905
526.32         23.1395
526.76        22.98775
527.20         22.8117
527.64        22.66896
528.08        22.57711
528.52        22.52125
528.96        22.48349
529.40        22.43578
529.83        22.36752
530.27        22.28948
530.71        22.21186
531.15        22.15157
531.59        22.11015
532.03        22.07958
532.46         22.0386
532.90        21.96317
533.34        21.85129
533.78        21.71955
534.22        21.59344
534.66        21.50981
535.09        21.47541
535.53         21.4831
535.97        21.51856
536.41        21.56467
536.85        21.60975
537.28        21.65396
537.72        21.68654
538.16        21.69357
538.60        21.67395
539.04        21.63559
539.47         21.5829
539.91        21.54478
540.35        21.52583
540.79        21.52965
541.22        21.56458
541.66        21.64555
542.10        21.76965
542.54        21.93029
542.97        22.11309
543.41        22.29758
543.85        22.47385
544.29        22.64821
544.72        22.80319
545.16         22.9303
545.60         23.0292
546.04        23.09404
546.47        23.16019
546.91         23.3206
547.35        23.56864
547.79        23.80876
548.22        24.00265
548.66        24.22001
549.10        24.45958
549.53        24.60243
549.97        24.62663
550.41        25.00563
550.84        24.99591
551.28        25.15236
551.72        25.24827
552.15        25.50106
552.59         25.5908
553.03        25.77311
553.46        25.94067
553.90        26.06628
554.34        26.14232
554.77        26.20995
555.21        26.28559
555.65        26.32607
556.08        26.36034
556.52        26.50241
556.96        26.73126
557.39         26.9439
557.83        27.11825
558.27        27.26624
558.70        27.39108
559.14        27.48643
559.57         27.5554
560.01        27.66484
560.45        27.79931
560.88        27.78734
561.32        27.79691
561.75        27.85037
562.19        27.98812
562.63        28.08579
563.06        28.13402
563.50        28.20721
563.93        28.29325
564.37        28.37182
564.80        28.43449
565.24        28.49368
565.68        28.55285
566.11        28.63721
566.55        28.75138
566.98        28.84792
567.42        28.96094
567.85        29.08843
568.29        29.23566
568.72        29.47424
569.16        29.82523
569.60        29.75169
570.03        30.17485
570.47         30.3045
570.90        30.37199
571.34        30.68596
571.77        30.68231
572.21        30.83304
572.64        30.97132
573.08        31.05737
573.51        31.08143
573.95        31.35569
574.38        31.38813
574.82        31.36654
