SpectraSmart Spectrum 2.9.0.0
--------- Device Information -----------
Spectrum Name :  反射率_0
Saving Time :  2024/04/30 01:18:36
Spectro-Module Model Name : SE2030-DUVN
Spectro-Module Serial Number : OS361AC55029948
Wavelength Start : 200
Wavelength End : 1025
Wavelength Unit : Wavelength(nm)
Spectrum Unit : Reflectance(%)
-----------Spectrum Setting ------------
Integration Time : 20ms
Average : 10
Boxcar : 0
Background removal :  enabled
linearity correction :  enabled
SC :  disabled
Intensity correction :  disabled
DWT denoise :  enabled
savitzky-golay :  disabled
FFT :  disabled
Running average :  disabled
Kalman :  disabled
High pass :  disabled
---------------BEGIN--------------------
Wavelength(nm)             Reflectance(%)
200.29               0
200.75        59.44483
201.21        51.83054
201.67        42.94479
202.13        32.17866
202.58        19.88098
203.04        6.283086
203.50       -4.551801
203.96       -3.848496
204.42        10.93007
204.88        36.22487
205.34        61.91845
205.80        72.71522
206.26        68.36165
206.72        57.60334
207.18        45.81146
207.64        35.69257
208.10        26.84707
208.55        17.24961
209.01        8.862267
209.47        7.662666
209.93        13.98298
210.39        24.59076
210.85        33.80327
211.31        36.80822
211.77        33.39202
212.23        23.36692
212.69         8.89854
213.14        3.199589
213.60        12.27828
214.06        28.05366
214.52        41.53441
214.98        47.36838
215.44        46.85004
215.90        42.63683
216.36        37.04853
216.81        34.30939
217.27        36.77402
217.73        43.59691
218.19        55.21677
218.65        68.04789
219.11         76.3175
219.57        79.38239
220.02        78.19152
220.48        74.63041
220.94        68.67493
221.40        59.05499
221.86        46.29974
222.32        37.25244
222.77        36.30813
223.23        40.59091
223.69         45.2962
224.15        47.52364
224.61         47.5489
225.06        46.20907
225.52        44.86387
225.98        45.76475
226.44        48.78182
226.90        52.15476
227.36        54.50618
227.81         55.0146
228.27        53.97621
228.73        51.78078
229.19        49.14632
229.65        47.71385
230.10        47.92855
230.56        49.02974
231.02        50.16748
231.48        50.64653
231.93        50.35735
232.39        49.65956
232.85        48.68767
233.31        47.76485
233.77        47.04959
234.22         46.5202
234.68        46.03326
235.14        45.43829
235.60        44.78584
236.05        44.20209
236.51        44.02114
236.97         44.5894
237.43        46.00943
237.88        48.46802
238.34        51.57399
238.80        54.32001
239.26        55.71449
239.71        55.86606
240.17        55.06413
240.63         54.2029
241.08        53.59297
241.54        52.78925
242.00        52.38148
242.46        54.51384
242.91        60.76192
243.37        69.68478
243.83        77.57673
244.28        82.03079
244.74        83.19173
245.20        80.71083
245.66        76.25218
246.11        74.31079
246.57         76.9882
247.03        84.18793
247.48        91.10052
247.94        87.42295
248.40         75.2446
248.85        61.92614
249.31        53.10593
249.77        50.49801
250.22         53.4262
250.68        61.92365
251.14         76.8365
251.59        89.22937
252.05        89.09642
252.51        82.17829
252.96         75.0064
253.42        70.50893
253.88        67.50905
254.33        64.63341
254.79        61.91156
255.25        59.65707
255.70        58.14077
256.16        57.57356
256.62        57.55061
257.07        57.67857
257.53        58.11644
257.99        58.68023
258.44        58.71496
258.90        58.04559
259.35        56.55287
259.81        54.96634
260.27        53.65847
260.72        52.97833
261.18         52.9324
261.63        53.01491
262.09        53.01381
262.55        52.37104
263.00        51.08758
263.46        49.65646
263.91        48.16933
264.37        46.98035
264.83        46.03495
265.28        45.15089
265.74        44.47531
266.19        44.02629
266.65        43.83413
267.11        43.83608
267.56        43.79316
268.02         43.3512
268.47        42.44316
268.93        41.19126
269.38        39.84181
269.84        38.95005
270.30        38.63248
270.75        38.69394
271.21        38.87218
271.66        38.75896
272.12        38.25224
272.57        37.46161
273.03        36.50573
273.48         35.4875
273.94        34.54845
274.39         33.6363
274.85        32.84943
275.31        32.24854
275.76        31.80802
276.22         31.5273
276.67        31.31431
277.13        31.12037
277.58        30.86588
278.04        30.59524
278.49        30.23814
278.95        29.79457
279.40        29.23626
279.86        28.65045
280.31        28.05323
280.77        27.58972
281.22        27.25068
281.68        27.02912
282.13        26.89431
282.59        26.85143
283.04         26.8498
283.50        26.86734
283.95        26.81966
284.41        26.59468
284.86        26.17306
285.32        25.64851
285.77        25.05313
286.22        24.50129
286.68        24.04566
287.13         23.6314
287.59        23.33402
288.04        23.20968
288.50        23.26108
288.95        23.42899
289.41        23.60483
289.86        23.58598
290.32        23.36273
290.77          22.999
291.22        22.59724
291.68         22.3244
292.13        22.22411
292.59        22.25898
293.04        22.44152
293.50        22.81466
293.95        23.35283
294.40         24.0447
294.86        24.74282
295.31        25.22804
295.77        25.45296
296.22        25.46864
296.68         25.4416
297.13         25.6201
297.58         26.0697
298.04        26.68348
298.49         27.3327
298.95        27.80661
299.40        28.05155
299.85        28.14949
300.31        28.17548
300.76        28.18769
301.21        28.24397
301.67         28.3215
302.12        28.41786
302.58        28.67266
303.03         29.0768
303.48        29.45449
303.94        29.69972
304.39        30.38345
304.84        30.24939
305.30        30.32441
305.75        30.29066
306.20        30.29519
306.66        30.36815
307.11        30.47212
307.57        30.58915
308.02        30.62239
308.47        30.56804
308.93         30.4624
309.38        30.33328
309.83        30.26818
310.29        30.28051
310.74         30.3356
311.19        30.37217
311.65        30.29077
312.10        30.07384
312.55        29.76396
313.00        29.43654
313.46        29.20644
313.91         29.0902
314.36        29.05098
314.82        29.04043
315.27        29.00001
315.72        28.89538
316.18        28.75514
316.63         28.5629
317.08        28.30276
317.53        27.98994
317.99        27.64187
318.44        27.30672
318.89        27.06752
319.35        26.94014
319.80        26.89473
320.25         26.9069
320.70        26.93277
321.16        26.93791
321.61        26.94591
322.06        26.90283
322.51        26.73288
322.97        26.43068
323.42        26.02095
323.87        25.59933
324.32          25.325
324.78        25.22281
325.23        25.26283
325.68        25.33975
326.13        25.27112
326.59        25.00647
327.04        24.61946
327.49        24.19559
327.94         23.8848
328.39         23.7264
328.85        23.65329
329.30        23.64095
329.75        23.61161
330.20        23.53375
330.66        23.44027
331.11         23.3059
331.56        23.06421
332.01        22.71678
332.46        22.27264
332.92        21.83824
333.37        21.63044
333.82        21.69334
334.27        21.97113
334.72        22.31173
335.17        22.45197
335.63        22.31383
336.08        21.97551
336.53         21.5437
336.98        21.21951
337.43        21.07272
337.88        21.04046
338.34        21.06926
338.79        21.09734
339.24        21.09005
339.69        21.08279
340.14        21.06856
340.59        21.02752
341.05        20.96115
341.50        20.86029
341.95        20.75833
342.40        20.72089
342.85        20.75511
343.30        20.83872
343.75        20.91233
344.20        20.88033
344.66        20.73521
345.11         20.5073
345.56        20.25713
346.01        20.07851
346.46        20.00194
346.91        19.99581
347.36        20.04129
347.81        20.11102
348.26        20.18621
348.72        20.27155
349.17        20.33554
349.62        20.32677
350.07        20.23646
350.52        20.07884
350.97        19.89647
351.42        19.75556
351.87        19.67772
352.32        19.65576
352.77        19.66734
353.22        19.67212
353.67        19.65853
354.13        19.63315
354.58        19.62499
355.03        19.68202
355.48        19.80162
355.93        19.95447
356.38        20.07601
356.83        20.07349
357.28        19.93289
357.73         19.6904
358.18        19.40928
358.63        19.18851
359.08        19.05778
359.53        18.99092
359.98         18.9599
360.43        18.91731
360.88         18.8472
361.33        18.76748
361.78        18.68379
362.23        18.60167
362.68        18.52506
363.13        18.44892
363.58        18.37501
364.03        18.31007
364.48        18.25344
364.93        18.20067
365.38        18.15252
365.83        18.10927
366.28         18.0701
366.73        18.03757
367.18        17.99575
367.63        17.92064
368.08        17.80828
368.53        17.66107
368.98         17.5143
369.43        17.42462
369.88         17.4039
370.33        17.44234
370.78        17.48237
371.23        17.42871
371.68        17.26341
372.13        17.01282
372.58        16.76056
373.03        16.64218
373.48        16.68145
373.93        16.82919
374.38        16.98824
374.83        16.99862
375.28        16.82568
375.72        16.52911
376.17        16.20217
376.62        15.94353
377.07        15.78431
377.52        15.68779
377.97        15.65437
378.42        15.68579
378.87        15.76804
379.32         15.9006
379.77        16.02879
380.22        16.07029
380.67        16.00761
381.11         15.8499
381.56        15.66055
382.01        15.54787
382.46        15.54012
382.91        15.61431
383.36         15.6908
383.81        15.64597
384.26        15.46169
384.71         15.1791
385.15        14.89905
385.60        14.80167
386.05        14.90392
386.50        15.13964
386.95        15.38414
387.40        15.44377
387.85        15.28484
388.29        14.97836
388.74        14.64821
389.19        14.41022
389.64        14.29629
390.09        14.25932
390.54        14.28668
390.98        14.35722
391.43        14.45202
391.88        14.57248
392.33        14.66956
392.78        14.68696
393.23        14.62185
393.67        14.45527
394.12        14.25458
394.57         14.2135
395.02        14.14094
395.47        14.17838
395.91        14.22216
396.36        14.19087
396.81        14.07405
397.26        13.90727
397.71        13.73861
398.15        13.62814
398.60        13.60787
399.05        13.62304
399.50        13.64478
399.95         13.6936
400.39        13.68751
400.84        13.63293
401.29        13.53085
401.74        13.46795
402.18        13.45753
402.63        13.44572
403.08        13.43229
403.53        13.42832
403.97        13.42953
404.42        13.43815
404.87         13.4246
405.32        13.34002
405.76        13.17906
406.21        12.96529
406.66         12.7611
407.11        12.66549
407.55        12.70257
408.00        12.84496
408.45        13.01756
408.90        13.08223
409.34        13.00001
409.79        12.80933
410.24         12.6074
410.68         12.5424
411.13        12.64506
411.58        12.86868
412.03        13.10622
412.47        13.17802
412.92        13.03165
413.37        12.74026
413.81        12.41693
414.26        12.24733
414.71        12.25876
415.15        12.39799
415.60        12.57312
416.05        12.64831
416.49        12.58278
416.94        12.42726
417.39        12.23604
417.83        12.09003
418.28        12.02112
418.73        11.99573
419.17        12.00336
419.62        12.03071
420.07        12.06554
420.51        12.11314
420.96        12.15381
421.41        12.14753
421.85        12.08673
422.30         11.9958
422.74        11.89601
423.19        11.84142
423.64         11.8375
424.08        11.87558
424.53        11.93078
424.98        11.98295
425.42        12.02101
425.87        12.03756
426.31        12.02724
426.76        12.00292
427.21        11.92603
427.65        11.82012
428.10        11.69051
428.54        11.52909
428.99        11.36057
429.44        11.26932
429.88         11.2378
430.33        11.09603
430.77        10.91958
431.22        11.05578
431.66        11.44816
432.11        11.63804
432.56        11.55085
433.00        11.45232
433.45        11.36356
433.89        11.08139
434.34        10.75944
434.78        10.80118
435.23        11.11732
435.67        11.21598
436.12        11.06337
436.57        10.93186
437.01        10.87131
437.46         10.8513
437.90        10.88454
438.35        10.96713
438.79        11.06481
439.24        11.10447
439.68         11.0873
440.13        11.07873
440.57        11.06381
441.02        11.02547
441.46        10.96992
441.91        10.82668
442.35        10.65613
442.80        10.77069
443.24         11.0716
443.69        11.02611
444.13        10.67221
444.58        10.52057
445.02        10.57268
445.47        10.55472
445.91        10.46851
446.36        10.45484
446.80        10.51184
447.24          10.605
447.69         10.7002
448.13        10.74656
448.58        10.73346
449.02        10.67738
449.47        10.61668
449.91        10.60563
450.36         10.6566
450.80        10.74997
451.25        10.84811
451.69        10.89246
452.13         10.8671
452.58        10.79721
453.02        10.71025
453.47        10.64976
453.91        10.62585
454.36        10.65676
454.80        10.67232
455.24        10.68287
455.69        10.66832
456.13        10.63743
456.58        10.61122
457.02        10.60964
457.46        10.63867
457.91        10.68574
458.35        10.73185
458.79        10.75236
459.24        10.75074
459.68        10.74216
460.13        10.74073
460.57        10.71593
461.01        10.75605
461.46         10.7464
461.90        10.73569
462.34        10.85902
462.79        11.06593
463.23        11.11672
463.68        11.01104
464.12        10.95752
464.56         10.9635
465.01         10.9234
465.45        10.84286
465.89        10.77778
466.34        10.75304
466.78         10.8057
467.22        10.93486
467.67        10.96068
468.11         10.8782
468.55        10.75565
468.99        10.64982
469.44        10.61914
469.88        10.67931
470.32        10.81559
470.77        10.97484
471.21        11.08493
471.65          11.118
472.10        11.09984
472.54        11.06489
472.98        11.08174
473.42        11.16318
473.87        11.28212
474.31        11.39714
474.75        11.44659
475.20        11.42261
475.64        11.34687
476.08         11.2565
476.52        11.20446
476.97        11.20579
477.41        11.24061
477.85        11.29841
478.29        11.35987
478.74        11.41941
479.18        11.47917
479.62        11.52578
480.06        11.56678
480.50        11.60754
480.95        11.53815
481.39        11.56159
481.83        11.61309
482.27        11.76187
482.72        11.89342
483.16        12.11871
483.60        12.22695
484.04        12.24469
484.48        12.17906
484.93        12.11498
485.37        12.20366
485.81        12.33334
486.25        12.61242
486.69         12.0188
487.14        12.18835
487.58        12.80071
488.02        12.92262
488.46        13.06274
488.90        13.22444
489.34        12.62976
489.79        12.64593
490.23        12.94458
490.67        13.25708
491.11        13.46081
491.55        13.43253
491.99        13.25617
492.43        13.28495
492.88        13.54051
493.32        13.76722
493.76        13.91617
494.20        14.06441
494.64        14.20542
495.08         14.3083
495.52           14.38
495.96        14.47558
496.41        14.60736
496.85        14.67498
497.29        14.68958
497.73        14.93385
498.17        15.16864
498.61        15.17161
499.05        14.94205
499.49        14.87117
499.93        14.99936
500.37        15.17463
500.82        15.35259
501.26        15.49844
501.70         15.5927
502.14        15.66852
502.58        15.74745
503.02        15.84365
503.46        15.96414
503.90        16.10409
504.34        16.24603
504.78        16.36037
505.22        16.43878
505.66        16.48793
506.10        16.51747
506.54        16.56219
506.98        16.63192
507.42        16.68252
507.86         16.6949
508.30        16.82788
508.74        16.77175
509.18        16.78297
509.62        16.78304
510.06        16.79909
510.50        16.83544
510.94        16.89011
511.38        16.95794
511.82        17.02109
512.26        17.07352
512.70        17.11711
513.14        17.15623
513.58        17.19841
514.02        17.24503
514.46        17.29295
514.90        17.33241
515.34         17.3492
515.78        17.34097
516.22        17.31223
516.66         17.2794
517.10        17.26733
517.54        17.28099
517.98        17.31388
518.42        17.34633
518.86        17.34603
519.30        17.30677
519.74        17.23987
520.18        17.16856
520.62        17.12756
521.06        17.12616
521.50        17.15602
521.93        17.19861
522.37        17.21802
522.81        17.20669
523.25        17.17276
523.69        17.13732
524.13        17.13324
524.57        17.16442
525.01        17.21673
525.45        17.26185
525.89        17.25537
526.32        17.18663
526.76        17.07797
527.20        16.95581
527.64        16.86068
528.08        16.80453
528.52        16.77581
528.96        16.76458
529.40        16.75467
529.83        16.73828
530.27        16.72248
530.71        16.70425
531.15        16.68038
531.59        16.64953
532.03        16.60917
532.46        16.56162
532.90        16.51721
533.34        16.47919
533.78        16.45143
534.22        16.42817
534.66        16.39896
535.09        16.36218
535.53        16.32516
535.97        16.30415
536.41        16.33057
536.85        16.40421
537.28         16.5084
537.72         16.6078
538.16        16.65051
538.60        16.62575
539.04          16.557
539.47        16.46284
539.91         16.3883
540.35        16.34638
540.79        16.33368
541.22        16.36118
541.66        16.44832
542.10        16.59004
542.54        16.77646
542.97        16.98296
543.41        17.17026
543.85        17.32512
544.29        17.45823
544.72        17.56098
545.16        17.63706
545.60         17.6918
546.04        17.71967
546.47        17.75481
546.91        17.87981
547.35        18.08993
547.79        18.30679
548.22         18.4918
548.66        18.68347
549.10         18.8766
549.53        18.98343
549.97        18.98658
550.41        19.25016
550.84        19.20502
551.28        19.28071
551.72        19.31517
552.15        19.49352
552.59        19.57384
553.03        19.74614
553.46        19.91534
553.90        20.03979
554.34         20.1067
554.77        20.15027
555.21        20.19143
555.65        20.20978
556.08        20.23266
556.52        20.34688
556.96        20.52515
557.39        20.67696
557.83        20.78489
558.27        20.84624
558.70        20.88875
559.14        20.98207
559.57        21.11326
560.01         21.2408
560.45        21.33786
560.88        21.30513
561.32        21.27646
561.75        21.27169
562.19        21.32707
562.63         21.3478
563.06        21.33424
563.50        21.35289
563.93         21.4068
564.37        21.49019
564.80        21.59526
565.24        21.72711
565.68        21.86095
566.11        21.97244
566.55        22.05613
566.98        22.08752
567.42        22.12061
567.85        22.19161
568.29        22.29992
568.72        22.52545
569.16        22.88786
569.60        22.80423
570.03        22.94622
570.47        23.29443
570.90        23.26482
571.34        23.23343
571.77        23.41545
572.21        23.45813
572.64        23.48642
573.08        23.60465
573.51        23.84488
573.95        23.91113
574.38        24.08561
574.82        24.23738
