SpectraSmart Spectrum 2.9.0.0
--------- Device Information -----------
Spectrum Name :  反射率_0
Saving Time :  2024/04/30 01:05:29
Spectro-Module Model Name : SE2030-DUVN
Spectro-Module Serial Number : OS361AC55029948
Wavelength Start : 200
Wavelength End : 1025
Wavelength Unit : Wavelength(nm)
Spectrum Unit : Reflectance(%)
-----------Spectrum Setting ------------
Integration Time : 20ms
Average : 10
Boxcar : 0
Background removal :  enabled
linearity correction :  enabled
SC :  disabled
Intensity correction :  disabled
DWT denoise :  enabled
savitzky-golay :  disabled
FFT :  disabled
Running average :  disabled
Kalman :  disabled
High pass :  disabled
---------------BEGIN--------------------
Wavelength(nm)             Reflectance(%)
200.29               0
200.75        55.79546
201.21        44.10088
201.67        29.37104
202.13         17.1844
202.58        10.31467
203.04         8.17747
203.50        10.12317
203.96        14.66088
204.42        20.36984
204.88        26.82303
205.34        34.17068
205.80        41.73345
206.26        47.72092
206.72        51.72885
207.18          52.021
207.64        46.95115
208.10        37.18618
208.55         23.2386
209.01        8.872017
209.47        4.160699
209.93        10.97939
210.39        23.96697
210.85        36.22424
211.31        42.44755
211.77        42.63401
212.23        37.52332
212.69         28.7942
213.14         25.4871
213.60        31.31752
214.06        40.99666
214.52        48.53487
214.98        50.14825
215.44        46.70423
215.90        40.13699
216.36        32.70582
216.81        28.68384
217.27        30.50297
217.73          37.577
218.19        50.13183
218.65        63.49078
219.11        71.23438
219.57        72.93105
220.02        70.50585
220.48        66.46267
220.94        60.60704
221.40        51.44823
221.86        38.53601
222.32        26.85418
222.77        21.64868
223.23        21.96637
223.69        23.98326
224.15        24.82584
224.61        24.31481
225.06        22.95927
225.52        22.10992
225.98        23.77823
226.44         27.5697
226.90        31.73428
227.36        34.66405
227.81        35.46682
228.27        34.47284
228.73        32.09842
229.19        29.47942
229.65        28.95317
230.10        30.79946
230.56        33.65315
231.02        36.07126
231.48        36.85019
231.93        35.99575
232.39        34.08184
232.85        31.67735
233.31        29.90021
233.77        29.18571
234.22        29.29591
234.68         29.7743
235.14        29.79035
235.60        29.16878
236.05        28.30112
236.51        27.73414
236.97        28.10202
237.43        29.61196
237.88         32.3056
238.34        35.93179
238.80        39.55072
239.26        41.99723
239.71        43.16665
240.17        43.11003
240.63        42.51235
241.08         41.5865
241.54        39.81928
242.00        37.06152
242.46        34.60087
242.91          34.671
243.37        37.72972
243.83        42.25375
244.28         46.3218
244.74        49.69555
245.20        52.80589
245.66        55.95197
246.11        59.45784
246.57        63.31474
247.03         67.6258
247.48        70.40924
247.94        67.76915
248.40        61.42308
248.85        54.33574
249.31        49.87541
249.77        49.13761
250.22        51.82262
250.68        58.48255
251.14        68.74374
251.59        73.69575
252.05        67.88934
252.51        58.58022
252.96        51.41105
253.42        48.07986
253.88         47.0541
254.33         46.8653
254.79        47.25846
255.25         47.2206
255.70        46.53181
256.16        46.12189
256.62        45.65378
257.07        44.73676
257.53        43.68688
257.99        42.38327
258.44          41.273
258.90        41.54658
259.35        42.62643
259.81        44.05703
260.27        44.99854
260.72         44.7851
261.18        43.72963
261.63        42.06927
262.09        40.38205
262.55        39.16019
263.00        38.43378
263.46        38.08776
263.91        37.76398
264.37        37.25365
264.83        36.47001
265.28        35.48546
265.74        34.56079
266.19        33.89228
266.65        33.57113
267.11        33.46419
267.56        33.38836
268.02        33.07497
268.47         32.4519
268.93        31.60878
269.38        30.66424
269.84        29.93544
270.30        29.48496
270.75        29.22026
271.21        28.98623
271.66        28.53839
272.12        27.83535
272.57        26.97097
273.03         26.0904
273.48        25.34655
273.94        24.83915
274.39        24.46202
274.85        24.22446
275.31        24.09498
275.76        24.00894
276.22        23.96795
276.67        23.84284
277.13        23.51526
277.58        22.94948
278.04        22.24194
278.49        21.46588
278.95        20.79537
279.40        20.24885
279.86         19.8475
280.31        19.54119
280.77        19.34527
281.22        19.21394
281.68         19.1559
282.13        19.15763
282.59        19.22652
283.04        19.33139
283.50        19.44135
283.95        19.48032
284.41        19.33841
284.86        19.01049
285.32        18.58536
285.77        18.12776
286.22        17.78477
286.68        17.60036
287.13         17.4978
287.59         17.4993
288.04        17.58712
288.50        17.74317
288.95        17.94486
289.41        18.10285
289.86        18.05571
290.32        17.81133
290.77        17.42719
291.22        17.04068
291.68        16.87163
292.13        16.96684
292.59        17.26941
293.04        17.72763
293.50        18.27838
293.95         18.8855
294.40          19.571
294.86        20.25532
295.31        20.83006
295.77        21.27131
296.22        21.58862
296.68        21.89654
297.13        22.36361
297.58         23.0267
298.04        23.80085
298.49        24.56676
298.95        25.12806
299.40        25.44104
299.85        25.57795
300.31        25.63068
300.76        25.68829
301.21        25.81527
301.67        25.99039
302.12        26.18795
302.58        26.50545
303.03        26.93423
303.48        27.31026
303.94        27.56826
304.39        28.36584
304.84         28.4159
305.30        28.74337
305.75        28.97305
306.20        29.17802
306.66        29.36883
307.11        29.53489
307.57        29.68046
308.02        29.74588
308.47        29.73941
308.93        29.68073
309.38        29.60808
309.83          29.625
310.29        29.74193
310.74        29.92405
311.19        30.07102
311.65        30.02061
312.10        29.74875
312.55        29.31805
313.00        28.86316
313.46         28.5931
313.91        28.54411
314.36        28.65121
314.82        28.80649
315.27         28.8528
315.72        28.73093
316.18        28.50084
316.63        28.19431
317.08        27.87378
317.53        27.57215
317.99        27.27334
318.44        26.99532
318.89        26.77467
319.35          26.614
319.80        26.50875
320.25        26.43333
320.70        26.33905
321.16        26.19963
321.61        26.03515
322.06        25.84089
322.51        25.62575
322.97        25.39654
323.42        25.15339
323.87         24.9077
324.32        24.68147
324.78        24.47227
325.23        24.29304
325.68        24.11774
326.13        23.90596
326.59        23.64871
327.04        23.36629
327.49        23.09843
327.94        22.92023
328.39        22.83801
328.85        22.81343
329.30        22.79357
329.75        22.65192
330.20        22.36311
330.66        21.97674
331.11        21.55672
331.56         21.1838
332.01        20.89093
332.46         20.6483
332.92        20.47858
333.37        20.44061
333.82         20.5227
334.27        20.70819
334.72        20.88494
335.17        20.86321
335.63        20.59879
336.08        20.14714
336.53        19.62143
336.98         19.2374
337.43        19.06473
337.88        19.04271
338.34        19.10589
338.79        19.16382
339.24        19.17224
339.69        19.17411
340.14        19.15193
340.59        19.07273
341.05        18.94107
341.50        18.74939
341.95        18.56809
342.40         18.5234
342.85         18.6271
343.30        18.83164
343.75        19.02345
344.20        19.01914
344.66        18.78891
345.11        18.39311
345.56        17.92825
346.01        17.54741
346.46        17.30919
346.91        17.17293
347.36        17.12102
347.81        17.12602
348.26         17.1621
348.72        17.23056
349.17        17.29404
349.62        17.28889
350.07        17.19946
350.52        17.04457
350.97        16.84363
351.42        16.62963
351.87        16.42718
352.32        16.24209
352.77        16.11057
353.22        16.08734
353.67        16.17692
354.13        16.35229
354.58        16.57216
355.03        16.76954
355.48        16.90948
355.93        16.99699
356.38        17.01007
356.83        16.92335
357.28          16.745
357.73         16.4896
358.18        16.21151
358.63        15.99815
359.08        15.87247
359.53        15.81502
359.98        15.79457
360.43        15.75352
360.88        15.67516
361.33        15.58178
361.78        15.47897
362.23        15.37428
362.68        15.27513
363.13        15.17522
363.58        15.09199
364.03        15.05682
364.48        15.06931
364.93        15.11413
365.38        15.15994
365.83        15.15658
366.28        15.08984
366.73        14.97481
367.18        14.82624
367.63        14.66809
368.08        14.51389
368.53        14.36248
368.98        14.22457
369.43        14.11632
369.88        14.04134
370.33        13.99691
370.78        13.97466
371.23        13.95772
371.68        13.93629
372.13        13.90882
372.58        13.86673
373.03        13.79969
373.48        13.70457
373.93        13.58115
374.38        13.44071
374.83        13.30478
375.28        13.18516
375.72        13.07994
376.17        12.99389
376.62        12.90263
377.07        12.80168
377.52        12.69205
377.97        12.60093
378.42        12.57286
378.87        12.61206
379.32         12.7022
379.77        12.78624
380.22         12.7814
380.67        12.67292
381.11        12.48125
381.56        12.27701
382.01        12.17406
382.46        12.20037
382.91        12.32462
383.36        12.46629
383.81        12.50177
384.26        12.40818
384.71         12.2249
385.15        12.02992
385.60        11.96847
386.05        12.05418
386.50        12.23015
386.95         12.4105
387.40        12.46312
387.85        12.36337
388.29        12.16201
388.74        11.93497
389.19        11.73767
389.64        11.59247
390.09        11.47424
390.54         11.4065
390.98        11.42902
391.43        11.53688
391.88        11.70929
392.33        11.87046
392.78        11.92449
393.23        11.86056
393.67        11.68216
394.12        11.46605
394.57        11.39924
395.02        11.33633
395.47        11.37893
395.91          11.436
396.36        11.42822
396.81        11.34241
397.26        11.21366
397.71        11.07973
398.15        10.98572
398.60        10.96013
399.05        10.95904
399.50        10.96633
399.95         11.0106
400.39        11.02608
400.84        11.01176
401.29        10.96161
401.74         10.9319
402.18        10.92948
402.63        10.91973
403.08        10.89793
403.53        10.86597
403.97        10.82444
404.42        10.77576
404.87        10.72598
405.32        10.68408
405.76        10.64748
406.21        10.61417
406.66        10.58491
407.11          10.564
407.55        10.55445
408.00        10.55729
408.45        10.54681
408.90        10.47637
409.34        10.34145
409.79        10.15812
410.24        9.997053
410.68         9.96383
411.13        10.07527
411.58        10.29973
412.03        10.53972
412.47        10.62725
412.92        10.51259
413.37        10.25891
413.81        9.968943
414.26        9.814885
414.71        9.824548
415.15        9.951089
415.60        10.11575
416.05        10.20277
416.49        10.17497
416.94         10.0734
417.39        9.942549
417.83        9.848696
418.28        9.816091
418.73        9.814068
419.17        9.824792
419.62         9.82343
420.07        9.801338
420.51        9.772791
420.96        9.737635
421.41        9.687605
421.85        9.624159
422.30        9.560118
422.74        9.507302
423.19        9.502112
423.64        9.543123
424.08        9.622733
424.53        9.712004
424.98        9.780478
425.42        9.814738
425.87         9.81276
426.31        9.773629
426.76        9.716047
427.21        9.614763
427.65        9.489517
428.10        9.358221
428.54        9.233572
428.99        9.136029
429.44         9.12298
429.88        9.160679
430.33        9.082066
430.77        8.941195
431.22        9.030241
431.66        9.311835
432.11        9.424298
432.56        9.317111
433.00        9.204619
433.45        9.107409
433.89        8.866499
434.34        8.609682
434.78        8.658454
435.23        8.944161
435.67        9.076158
436.12        9.019899
436.57        8.987037
437.01        9.004688
437.46        9.023853
437.90        9.048716
438.35          9.0871
438.79        9.116858
439.24         9.08634
439.68        9.006659
440.13        8.932274
440.57        8.874211
441.02        8.856854
441.46        8.885013
441.91        8.880963
442.35        8.854447
442.80        9.016137
443.24        9.275623
443.69        9.199004
444.13        8.838655
444.58         8.65115
445.02        8.646393
445.47        8.593357
445.91        8.493375
446.36        8.460003
446.80         8.49111
447.24        8.562571
447.69        8.647113
448.13        8.702705
448.58        8.717511
449.02        8.701582
449.47        8.679631
449.91        8.687411
450.36        8.732871
450.80        8.803391
451.25        8.870963
451.69        8.894216
452.13        8.862414
452.58        8.794396
453.02        8.716584
453.47        8.671369
453.91        8.666346
454.36        8.714477
454.80        8.747129
455.24        8.754127
455.69        8.715969
456.13        8.645865
456.58        8.575059
457.02        8.541391
457.46        8.555336
457.91        8.599902
458.35         8.64928
458.79        8.666562
459.24        8.650583
459.68        8.617396
460.13        8.587792
460.57        8.549756
461.01        8.577888
461.46        8.577213
461.90        8.576384
462.34        8.665177
462.79        8.800307
463.23        8.797356
463.68        8.676702
464.12        8.633615
464.56        8.675889
465.01        8.706207
465.45        8.703725
465.89        8.678765
466.34        8.644775
466.78        8.642406
467.22        8.684293
467.67        8.652658
468.11        8.554068
468.55        8.435525
468.99        8.337835
469.44        8.300077
469.88        8.330903
470.32         8.42299
470.77        8.532607
471.21        8.600585
471.65        8.604633
472.10        8.567327
472.54        8.517485
472.98          8.5144
473.42        8.569462
473.87        8.658216
474.31        8.750967
474.75        8.801668
475.20        8.803312
475.64        8.772259
476.08        8.727656
476.52        8.695904
476.97        8.686937
477.41        8.688959
477.85        8.709185
478.29        8.757757
478.74        8.834003
479.18        8.930725
479.62        9.018898
480.06        9.075568
480.50        9.098815
480.95        9.014348
481.39        8.993062
481.83        9.002959
482.27         9.10509
482.72         9.20962
483.16        9.399015
483.60        9.492072
484.04         9.50382
484.48        9.466852
484.93        9.451437
485.37        9.519481
485.81        9.635718
486.25        9.958166
486.69        9.652256
487.14         9.86791
487.58        10.33467
488.02        10.18745
488.46        10.48519
488.90        10.53199
489.34        10.21148
489.79        10.17507
490.23        10.28009
490.67        10.43558
491.11        10.56502
491.55        10.54341
491.99        10.43246
492.43        10.50329
492.88        10.76904
493.32        11.04862
493.76        11.28228
494.20        11.47953
494.64        11.62602
495.08        11.71282
495.52        11.75652
495.96        11.82111
496.41        11.92547
496.85        11.98146
497.29        12.00436
497.73        12.23551
498.17        12.47949
498.61        12.55119
499.05        12.42874
499.49        12.40332
499.93         12.5031
500.37        12.61151
500.82        12.71074
501.26        12.80494
501.70        12.88699
502.14        12.97367
502.58        13.07469
503.02         13.1881
503.46        13.31452
503.90        13.45662
504.34        13.59474
504.78        13.69517
505.22        13.75012
505.66        13.76414
506.10        13.76226
506.54        13.80159
506.98        13.89561
507.42        14.00238
507.86        14.07794
508.30        14.21063
508.74        14.13055
509.18        14.06741
509.62        13.99362
510.06        13.99325
510.50        14.08222
510.94        14.23994
511.38        14.41862
511.82        14.53031
512.26        14.55178
512.70        14.50889
513.14          14.447
513.58        14.43696
514.02        14.49646
514.46        14.60163
514.90        14.71686
515.34        14.78542
515.78        14.79132
516.22        14.75425
516.66        14.70208
517.10        14.67663
517.54        14.68834
517.98        14.72126
518.42        14.75517
518.86        14.75919
519.30        14.72517
519.74        14.66553
520.18        14.59397
520.62        14.52937
521.06        14.47861
521.50        14.43708
521.93        14.40219
522.37        14.36593
522.81        14.32867
523.25        14.29445
523.69        14.26662
524.13        14.24864
524.57        14.23985
525.01        14.23634
525.45        14.23338
525.89         14.2247
526.32        14.20567
526.76        14.17964
527.20        14.14594
527.64        14.10541
528.08         14.0588
528.52        14.00636
528.96        13.94973
529.40        13.89163
529.83        13.83326
530.27        13.77736
530.71        13.72307
531.15        13.67042
531.59        13.61846
532.03        13.56522
532.46        13.51169
532.90        13.46301
533.34        13.41945
533.78        13.38358
534.22        13.34576
534.66        13.29017
535.09        13.21583
535.53        13.13355
535.97        13.06476
536.41        13.04851
536.85        13.08962
537.28        13.17203
537.72        13.26535
538.16        13.32486
538.60        13.33819
539.04        13.32297
539.47        13.28738
539.91        13.25931
540.35        13.24634
540.79        13.24619
541.22        13.27194
541.66        13.34727
542.10        13.47101
542.54        13.63537
542.97        13.81784
543.41        13.98065
543.85        14.11427
544.29        14.23078
544.72        14.33154
545.16        14.43274
545.60        14.53965
546.04        14.64178
546.47        14.75475
546.91        14.92714
547.35         15.1485
547.79         15.3573
548.22        15.52929
548.66        15.71057
549.10        15.90156
549.53        16.02482
549.97        16.06179
550.41        16.31314
550.84        16.29658
551.28         16.3824
551.72        16.43728
552.15        16.62443
552.59        16.73846
553.03        16.93605
553.46        17.13798
553.90         17.3126
554.34        17.44573
554.77        17.56322
555.21        17.66684
555.65        17.71154
556.08        17.71754
556.52        17.77187
556.96        17.87251
557.39         17.9743
557.83        18.07223
558.27        18.15656
558.70           18.24
559.14        18.36263
559.57         18.5068
560.01        18.64228
560.45        18.75179
560.88        18.75718
561.32        18.77706
561.75        18.82292
562.19        18.92102
562.63        18.97869
563.06        18.99374
563.50        19.02908
563.93        19.09038
564.37        19.17688
564.80         19.2835
565.24        19.41249
565.68        19.54496
566.11        19.66388
566.55        19.76512
566.98        19.82715
567.42        19.88907
567.85        19.97248
568.29         20.0856
568.72         20.2812
569.16        20.57917
569.60        20.56231
570.03        20.85477
570.47        21.06833
570.90        21.19089
571.34        21.33382
571.77        21.46008
572.21        21.57417
572.64        21.67063
573.08        21.77299
573.51         21.9081
573.95        22.08538
574.38        22.13228
574.82        22.41869
