SpectraSmart Spectrum 2.9.0.0
--------- Device Information -----------
Spectrum Name :  反射率_0
Saving Time :  2024/04/30 01:02:50
Spectro-Module Model Name : SE2030-DUVN
Spectro-Module Serial Number : OS361AC55029948
Wavelength Start : 200
Wavelength End : 1025
Wavelength Unit : Wavelength(nm)
Spectrum Unit : Reflectance(%)
-----------Spectrum Setting ------------
Integration Time : 20ms
Average : 10
Boxcar : 0
Background removal :  enabled
linearity correction :  enabled
SC :  disabled
Intensity correction :  disabled
DWT denoise :  enabled
savitzky-golay :  disabled
FFT :  disabled
Running average :  disabled
Kalman :  disabled
High pass :  disabled
---------------BEGIN--------------------
Wavelength(nm)             Reflectance(%)
200.29               0
200.75        16.96075
201.21        10.44722
201.67         1.99047
202.13       -7.517571
202.58       -17.39025
203.04        -27.0969
203.50       -33.70015
203.96       -31.33031
204.42       -18.31462
204.88        3.084409
205.34        24.98803
205.80        35.33041
206.26        33.64257
206.72        26.34025
207.18        18.23978
207.64        12.28485
208.10        8.207174
208.55        4.449444
209.01        1.454218
209.47        1.230941
209.93        3.796066
210.39         8.34744
210.85        12.24265
211.31        13.06967
211.77        10.72381
212.23        4.872342
212.69       -2.557913
213.14        -2.57444
213.60        7.182298
214.06        20.45121
214.52        30.86229
214.98        34.98575
215.44        34.10189
215.90        30.10601
216.36        24.96797
216.81         22.3779
217.27        24.49166
217.73        30.75221
218.19        41.73848
218.65        54.22337
219.11         62.6587
219.57        65.98897
220.02        65.11444
220.48        61.96706
220.94        56.46098
221.40        47.18664
221.86        34.08188
222.32        22.90756
222.77        18.88099
223.23        20.57229
223.69        23.31523
224.15          23.711
224.61        21.79269
225.06         18.1976
225.52        15.42303
225.98        17.87941
226.44        24.98092
226.90        33.14687
227.36        39.21476
227.81        41.41204
228.27        40.34412
228.73        36.85898
229.19        32.53766
229.65        30.74114
230.10        32.24624
230.56         35.3894
231.02        38.33006
231.48        39.52067
231.93        38.96165
232.39        37.34474
232.85        35.51333
233.31        35.00428
233.77        36.26656
234.22        38.88021
234.68        41.74128
235.14        42.86791
235.60        41.76052
236.05        39.14924
236.51        36.39339
236.97        35.17294
237.43         35.9157
237.88        38.47107
238.34         42.2927
238.80        45.67097
239.26        47.10445
239.71        46.91255
240.17        45.61086
240.63        44.28094
241.08        43.18173
241.54        41.67962
242.00        39.55893
242.46        37.58012
242.91        37.16626
243.37        38.64219
243.83        41.03143
244.28         42.7065
244.74        43.23868
245.20         43.1235
245.66        42.16323
246.11         40.1251
246.57        37.41256
247.03         33.6403
247.48        30.57279
247.94         31.3581
248.40        35.52426
248.85        40.58001
249.31        44.66827
249.77        46.76266
250.22        47.37883
250.68        46.83257
251.14        45.88049
251.59        47.37719
252.05        51.35514
252.51        54.92739
252.96        56.57856
253.42        56.66026
253.88        55.49847
254.33        53.33234
254.79        51.17224
255.25        50.34361
255.70        50.93284
256.16        52.37636
256.62        53.80784
257.07        54.72698
257.53        55.53428
257.99        56.21746
258.44        56.65102
258.90        57.22741
259.35        57.47112
259.81        57.58957
260.27        57.41123
260.72        56.84115
261.18         56.1221
261.63        55.11702
262.09        54.02706
262.55        52.79354
263.00        51.46748
263.46        50.30738
263.91        49.23172
264.37        48.41423
264.83        47.76604
265.28        47.18613
265.74        46.80929
266.19        46.61102
266.65        46.61406
267.11        46.72249
267.56        46.77575
268.02        46.56224
268.47        46.01763
268.93        45.22164
269.38        44.25305
269.84        43.37631
270.30        42.67062
270.75        42.08014
271.21        41.57373
271.66        41.05228
272.12        40.48815
272.57        39.89433
273.03        39.28946
273.48        38.60881
273.94        37.91896
274.39        37.19089
274.85        36.52638
275.31        35.98495
275.76        35.54242
276.22        35.19671
276.67         34.8499
277.13        34.46478
277.58        33.98233
278.04        33.48019
278.49        32.92913
278.95        32.38919
279.40        31.83511
279.86        31.32862
280.31        30.85911
280.77        30.53734
281.22        30.32429
281.68         30.2149
282.13        30.14503
282.59        30.08368
283.04        29.98321
283.50        29.85055
283.95         29.6413
284.41        29.31398
284.86        28.86592
285.32        28.36864
285.77        27.84774
286.22        27.41216
286.68        27.10021
287.13        26.85322
287.59        26.69997
288.04        26.61839
288.50        26.60667
288.95        26.62972
289.41        26.64735
289.86        26.55579
290.32        26.36543
290.77        26.10373
291.22        25.82692
291.68        25.62429
292.13        25.51779
292.59        25.50636
293.04        25.61709
293.50        25.91702
293.95        26.39198
294.40        27.02066
294.86        27.68075
295.31        28.19658
295.77        28.51973
296.22         28.6819
296.68        28.79665
297.13        29.02503
297.58        29.41507
298.04        29.89149
298.49        30.36596
298.95        30.69558
299.40        30.84907
299.85        30.88894
300.31        30.89042
300.76        30.90894
301.21        30.99236
301.67        31.11745
302.12        31.25414
302.58        31.49751
303.03        31.83349
303.48        32.11498
303.94        32.26126
304.39        32.85462
304.84         32.6962
305.30        32.76225
305.75        32.75775
306.20        32.84514
306.66        33.04594
307.11        33.30989
307.57        33.56674
308.02        33.63995
308.47        33.51627
308.93         33.2537
309.38        32.94361
309.83        32.77752
310.29         32.7947
310.74        32.93494
311.19        33.07385
311.65        33.01218
312.10        32.71253
312.55        32.25075
313.00        31.77602
313.46        31.51637
313.91         31.5095
314.36        31.68025
314.82        31.89536
315.27        31.96142
315.72        31.81217
316.18        31.51935
316.63        31.14837
317.08        30.81449
317.53        30.56356
317.99        30.36621
318.44        30.20637
318.89        30.06631
319.35        29.93558
319.80        29.82459
320.25        29.74188
320.70        29.69458
321.16        29.66672
321.61        29.65953
322.06          29.628
322.51        29.51353
322.97        29.30656
323.42        29.03392
323.87        28.74097
324.32        28.50461
324.78        28.33781
325.23        28.23286
325.68        28.15756
326.13        28.06113
326.59         27.9198
327.04        27.75773
327.49        27.58035
327.94        27.40825
328.39        27.24092
328.85        27.05382
329.30        26.85003
329.75        26.59739
330.20        26.30276
330.66        25.99313
331.11        25.69756
331.56        25.43256
332.01        25.20977
332.46          25.019
332.92        24.88775
333.37        24.88935
333.82        25.01616
334.27        25.24133
334.72        25.46039
335.17        25.50286
335.63        25.32478
336.08        24.97919
336.53        24.56235
336.98        24.26028
337.43        24.13534
337.88        24.13866
338.34        24.21167
338.79        24.27707
339.24        24.29653
339.69        24.30442
340.14         24.2997
340.59        24.27593
341.05        24.23832
341.50        24.17481
341.95        24.10963
342.40        24.09607
342.85        24.13673
343.30        24.20787
343.75         24.2652
344.20        24.23653
344.66        24.11852
345.11        23.94007
345.56        23.72729
346.01        23.51875
346.46        23.34171
346.91        23.18586
347.36         23.0956
347.81         23.1384
348.26         23.3087
348.72        23.57667
349.17        23.84232
349.62        23.93501
350.07        23.81421
350.52        23.53662
350.97        23.19671
351.42        22.93945
351.87        22.81234
352.32        22.78286
352.77        22.82368
353.22        22.88721
353.67        22.95156
354.13        23.02654
354.58        23.11559
355.03        23.22225
355.48        23.33319
355.93        23.42592
356.38        23.46352
356.83        23.39983
357.28        23.23254
357.73        22.98705
358.18        22.70408
358.63        22.44681
359.08        22.23831
359.53         22.0658
359.98        21.92906
360.43        21.82236
360.88          21.739
361.33        21.68513
361.78        21.63527
362.23         21.5458
362.68        21.41151
363.13        21.24413
363.58        21.07995
364.03        20.98041
364.48        20.95505
364.93        20.97651
365.38        21.01239
365.83        21.01185
366.28        20.95706
366.73         20.8654
367.18         20.7369
367.63        20.57104
368.08        20.37729
368.53        20.15929
368.98        19.95062
369.43        19.80559
369.88        19.73759
370.33         19.7357
370.78         19.7639
371.23        19.76023
371.68        19.70242
372.13        19.59755
372.58         19.4721
373.03        19.37117
373.48        19.30383
373.93        19.25741
374.38         19.1911
374.83        19.04214
375.28         18.8086
375.72        18.51522
376.17        18.24657
376.62        18.08605
377.07        18.04345
377.52        18.08046
377.97        18.14344
378.42        18.14374
378.87        18.05732
379.32        17.92135
379.77         17.7523
380.22        17.57246
380.67         17.3954
381.11        17.20827
381.56        17.05487
382.01        17.00631
382.46        17.07051
382.91        17.22832
383.36        17.39379
383.81        17.43387
384.26        17.32305
384.71         17.0951
385.15        16.83613
385.60        16.71105
386.05        16.74022
386.50        16.87022
386.95        17.00642
387.40        17.00133
387.85        16.83258
388.29        16.55591
388.74        16.27752
389.19        16.08341
389.64        15.99578
390.09        15.97434
390.54        16.00504
390.98        16.06446
391.43         16.1367
391.88        16.22378
392.33        16.28416
392.78        16.27405
393.23        16.19503
393.67        16.02488
394.12        15.82913
394.57        15.80894
395.02        15.74751
395.47        15.80185
395.91        15.86593
396.36        15.86551
396.81        15.78656
397.26        15.65916
397.71        15.51043
398.15        15.37078
398.60        15.27548
399.05         15.1826
399.50        15.09307
399.95         15.0746
400.39        15.04636
400.84        15.00283
401.29        14.92944
401.74        14.89122
402.18        14.89286
402.63        14.88743
403.08        14.87807
403.53        14.88273
403.97        14.89837
404.42        14.91787
404.87        14.91933
405.32        14.86847
405.76        14.75849
406.21        14.60986
406.66        14.45776
407.11        14.35905
407.55        14.33257
408.00        14.36257
408.45        14.41479
408.90        14.42309
409.34        14.36788
409.79        14.26654
410.24        14.17166
410.68        14.16275
411.13        14.25395
411.58        14.41869
412.03        14.58148
412.47        14.61815
412.92        14.49191
413.37        14.25504
413.81        13.99472
414.26        13.86307
414.71        13.87802
415.15        13.99869
415.60         14.1457
416.05        14.20332
416.49        14.13809
416.94         13.9944
417.39        13.81834
417.83        13.67833
418.28        13.60403
418.73        13.56769
419.17        13.56846
419.62        13.60775
420.07        13.67435
420.51        13.76466
420.96        13.84894
421.41        13.87082
421.85        13.81804
422.30        13.72382
422.74        13.60976
423.19        13.53307
423.64        13.50136
424.08        13.50395
424.53        13.52898
424.98        13.58103
425.42        13.65389
425.87        13.73438
426.31         13.7895
426.76        13.78913
427.21        13.68161
427.65        13.50802
428.10        13.30808
428.54        13.12804
428.99        13.00336
429.44         13.0062
429.88        13.08514
430.33        12.99336
430.77        12.80697
431.22        12.95261
431.66        13.37624
432.11        13.56401
432.56        13.43924
433.00        13.30547
433.45        13.19051
433.89        12.86807
434.34        12.51488
434.78        12.59979
435.23        13.00932
435.67        13.15017
436.12        12.97705
436.57        12.81079
437.01        12.72056
437.46        12.68939
437.90        12.73688
438.35        12.85553
438.79        12.98886
439.24        13.02646
439.68        12.96736
440.13        12.89805
440.57        12.82876
441.02        12.78327
441.46         12.7753
441.91        12.70206
442.35        12.59979
442.80        12.79718
443.24        13.17054
443.69        13.09649
444.13        12.64063
444.58        12.43884
445.02        12.50115
445.47        12.49627
445.91        12.41263
446.36        12.39547
446.80        12.43923
447.24        12.51072
447.69        12.59048
448.13        12.64755
448.58        12.67404
449.02        12.67836
449.47        12.67772
449.91        12.69273
450.36        12.72906
450.80        12.77597
451.25        12.81912
451.69        12.83595
452.13        12.81877
452.58        12.78226
453.02        12.73101
453.47         12.6718
453.91        12.60633
454.36        12.57061
454.80        12.50782
455.24        12.47118
455.69         12.4469
456.13        12.43262
456.58        12.43008
457.02        12.42768
457.46        12.42692
457.91        12.42966
458.35        12.43375
458.79        12.44078
459.24        12.45936
459.68        12.49174
460.13          12.543
460.57        12.56294
461.01        12.64555
461.46        12.66062
461.90        12.65462
462.34        12.77123
462.79        12.95217
463.23        12.92574
463.68        12.71799
464.12        12.60798
464.56        12.61197
465.01        12.59506
465.45        12.55301
465.89        12.53447
466.34        12.55932
466.78        12.67288
467.22        12.86142
467.67        12.89062
468.11        12.75077
468.55        12.52881
468.99        12.30936
469.44        12.19177
469.88        12.20389
470.32        12.32073
470.77        12.47721
471.21        12.57899
471.65        12.59144
472.10        12.55164
472.54        12.49274
472.98        12.48072
473.42        12.53016
473.87        12.61126
474.31        12.69703
474.75        12.75119
475.20        12.76719
475.64        12.75714
476.08         12.7314
476.52         12.7003
476.97        12.67223
477.41        12.64295
477.85        12.62849
478.29        12.65373
478.74        12.72387
479.18        12.82088
479.62        12.91787
480.06        13.00479
480.50        13.07842
480.95        13.02374
481.39        13.05258
481.83        13.06212
482.27         13.1294
482.72         13.1362
483.16        13.24924
483.60        13.30259
484.04        13.34005
484.48         13.3482
484.93        13.37126
485.37        13.50663
485.81        13.64629
486.25        13.84391
486.69        13.29018
487.14        13.46194
487.58        13.91855
488.02        14.08653
488.46        14.28187
488.90        14.52432
489.34        14.03899
489.79        14.01466
490.23        14.16729
490.67        14.32922
491.11         14.4287
491.55        14.39177
491.99        14.29002
492.43        14.37112
492.88        14.64606
493.32        14.93781
493.76        15.17734
494.20        15.36465
494.64        15.48466
495.08         15.5284
495.52        15.52478
495.96        15.56852
496.41        15.68646
496.85        15.76195
497.29        15.79577
497.73        16.07544
498.17        16.33724
498.61        16.34384
499.05        16.10063
499.49        16.03857
499.93        16.20123
500.37        16.42001
500.82        16.62947
501.26        16.76582
501.70        16.80617
502.14        16.79741
502.58         16.7907
503.02        16.84549
503.46        16.97895
503.90        17.17149
504.34        17.38006
504.78        17.53158
505.22        17.60351
505.66        17.61533
506.10        17.58871
506.54        17.57884
506.98        17.60456
507.42        17.61491
507.86        17.59161
508.30        17.70573
508.74        17.63184
509.18        17.64025
509.62        17.64811
510.06        17.68114
510.50        17.74162
510.94        17.82737
511.38        17.92497
511.82        18.00354
512.26        18.05438
512.70        18.08128
513.14        18.10223
513.58         18.1471
514.02        18.22107
514.46        18.31453
514.90        18.40028
515.34        18.43483
515.78        18.40963
516.22        18.33953
516.66        18.25885
517.10        18.22087
517.54        18.23685
517.98        18.28893
518.42        18.34605
518.86        18.35769
519.30        18.31143
519.74        18.22663
520.18        18.12624
520.62        18.04335
521.06        17.99085
521.50        17.96193
521.93        17.95278
522.37        17.95185
522.81        17.95648
523.25        17.96738
523.69        17.98796
524.13        18.02316
524.57        18.06862
525.01        18.11582
525.45        18.14551
525.89        18.12957
526.32        18.06121
526.76        17.95635
527.20        17.83402
527.64        17.72446
528.08        17.63811
528.52        17.56941
528.96        17.51557
529.40        17.47005
529.83        17.42925
530.27        17.39918
530.71        17.37399
531.15        17.34591
531.59         17.3113
532.03        17.26653
532.46        17.21648
532.90        17.17634
533.34        17.14721
533.78        17.12851
534.22        17.10378
534.66         17.0467
535.09        16.95492
535.53        16.84503
535.97        16.74647
536.41        16.71113
536.85        16.74795
537.28        16.83748
537.72        16.94426
538.16        17.01486
538.60         17.0331
539.04        17.01736
539.47        16.97843
539.91        16.95072
540.35        16.94233
540.79        16.95137
541.22        16.98192
541.66        17.04512
542.10        17.13803
542.54         17.2551
542.97        17.39355
543.41        17.54715
543.85        17.70978
544.29        17.88603
544.72          18.042
545.16         18.1403
545.60        18.17721
546.04        18.15746
546.47         18.1443
546.91        18.26773
547.35        18.53107
547.79        18.83744
548.22        19.11206
548.66        19.34377
549.10        19.51813
549.53        19.56205
549.97        19.49194
550.41        19.73594
550.84        19.72457
551.28         19.8804
551.72        20.00822
552.15        20.25631
552.59        20.36065
553.03        20.52979
553.46         20.6838
553.90        20.80806
554.34        20.89612
554.77        20.97531
555.21        21.04743
555.65        21.05869
556.08         21.0308
556.52        21.07819
556.96        21.20538
557.39        21.33316
557.83        21.44444
558.27         21.6622
558.70        21.74059
559.14        21.89538
559.57        22.02892
560.01        22.12253
560.45        22.17117
560.88        22.11132
561.32        22.09286
561.75        22.11774
562.19        22.21561
562.63        22.27542
563.06        22.29095
563.50        22.33842
563.93        22.41116
564.37        22.48653
564.80        22.55699
565.24        22.63242
565.68        22.71214
566.11        22.81104
566.55        22.92955
566.98        23.02838
567.42        23.13244
567.85        23.23632
568.29        23.34152
568.72        23.51554
569.16        23.78879
569.60        23.69629
570.03         23.9674
570.47        24.11302
570.90        24.23654
571.34        24.29817
571.77        24.45179
572.21        24.55159
572.64        24.65235
573.08        24.76508
573.51        24.91019
573.95        25.03573
574.38        25.33542
574.82         25.2046
