SpectraSmart Spectrum 2.9.0.0
--------- Device Information -----------
Spectrum Name :  反射率_0
Saving Time :  2024/04/30 01:01:19
Spectro-Module Model Name : SE2030-DUVN
Spectro-Module Serial Number : OS361AC55029948
Wavelength Start : 200
Wavelength End : 1025
Wavelength Unit : Wavelength(nm)
Spectrum Unit : Reflectance(%)
-----------Spectrum Setting ------------
Integration Time : 20ms
Average : 10
Boxcar : 0
Background removal :  enabled
linearity correction :  enabled
SC :  disabled
Intensity correction :  disabled
DWT denoise :  enabled
savitzky-golay :  disabled
FFT :  disabled
Running average :  disabled
Kalman :  disabled
High pass :  disabled
---------------BEGIN--------------------
Wavelength(nm)             Reflectance(%)
200.29               0
200.75        62.30188
201.21        48.36759
201.67         31.6116
202.13        16.61874
202.58        5.969688
203.04        -0.73528
203.50       -1.704124
203.96        6.047845
204.42        22.16868
204.88        44.41326
205.34        65.23489
205.80        73.61346
206.26         69.8582
206.72        60.63548
207.18        50.12484
207.64        40.30759
208.10        30.81635
208.55        20.03833
209.01        10.21127
209.47        7.945996
209.93        13.97252
210.39        24.87844
210.85        34.52648
211.31        37.73784
211.77        34.22045
212.23        23.62931
212.69        8.634055
213.14        3.921756
213.60        15.52078
214.06        34.21447
214.52        49.23557
214.98        54.02003
215.44        50.14346
215.90         40.5664
216.36        29.06446
216.81        22.85727
217.27         25.7535
217.73        37.08821
218.19        56.19769
218.65        73.49837
219.11        79.88985
219.57        77.54451
220.02        71.78037
220.48        67.37344
220.94        64.15005
221.40        60.15489
221.86         54.5092
222.32        48.26051
222.77        43.77565
223.23        42.30399
223.69        42.05423
224.15        41.25761
224.61          39.701
225.06        37.49237
225.52        35.94579
225.98        37.33353
226.44        41.29967
226.90        45.90255
227.36        49.46728
227.81        51.10686
228.27         51.2068
228.73        50.17099
229.19        48.70226
229.65        48.21434
230.10        48.95601
230.56        50.28691
231.02        51.37766
231.48        51.54641
231.93        50.74033
232.39        49.30133
232.85        47.63536
233.31        46.57392
233.77        46.40177
234.22        47.00755
234.68        47.75014
235.14        47.51985
235.60        46.14412
236.05        44.08527
236.51        42.33342
236.97        42.10551
237.43        43.68351
237.88        47.05618
238.34        51.59933
238.80        55.33657
239.26        56.59573
239.71         55.7925
240.17        53.50969
240.63        50.84755
241.08        47.94818
241.54        43.66586
242.00        38.30044
242.46        36.20529
242.91         42.1948
243.37        55.31117
243.83        68.80316
244.28        76.56954
244.74        78.38722
245.20        74.88936
245.66        67.68258
246.11        61.62485
246.57        59.67393
247.03        61.01918
247.48         64.1705
247.94        65.00874
248.40        63.04689
248.85        60.36134
249.31        58.81047
249.77         58.6679
250.22        59.92229
250.68        62.69937
251.14        66.61917
251.59        67.90165
252.05        64.71066
252.51        60.28823
252.96        57.12788
253.42        56.23448
253.88         56.7507
254.33        58.00292
254.79         59.4752
255.25        59.46894
255.70        57.86794
256.16        56.09036
256.62        54.68363
257.07        53.86805
257.53        53.78219
257.99        54.01235
258.44        54.05363
258.90        53.89835
259.35        53.23398
259.81        52.53386
260.27        51.89432
260.72        51.42996
261.18        51.22901
261.63        50.96712
262.09        50.59136
262.55        49.75465
263.00        48.49508
263.46        47.20982
263.91        45.95203
264.37        45.02348
264.83        44.36283
265.28        43.80992
265.74        43.48785
266.19        43.37139
266.65         43.4657
267.11        43.68966
267.56        43.83389
268.02        43.60522
268.47        42.93616
268.93        41.92382
269.38        40.73515
269.84        39.78885
270.30        39.19848
270.75        38.86255
271.21         38.6305
271.66        38.23939
272.12        37.62796
272.57        36.85573
273.03        36.04931
273.48        35.31708
273.94        34.75191
274.39        34.26505
274.85        33.82589
275.31         33.3208
275.76        32.71127
276.22        32.06482
276.67        31.41762
277.13        30.91173
277.58        30.51663
278.04        30.23008
278.49        29.91579
278.95        29.47303
279.40        28.85523
279.86        28.18851
280.31        27.54109
280.77        27.12796
281.22        26.94282
281.68        26.93517
282.13        27.01381
282.59        27.10655
283.04        27.14981
283.50        27.15101
283.95        27.06437
284.41        26.83631
284.86         26.4622
285.32        26.01419
285.77        25.50468
286.22        25.02369
286.68         24.6138
287.13        24.22434
287.59        23.93505
288.04        23.80507
288.50        23.84001
288.95        23.98366
289.41        24.11724
289.86        24.02246
290.32        23.69324
290.77          23.201
291.22        22.68723
291.68        22.37916
292.13        22.32943
292.59        22.48135
293.04         22.7934
293.50        23.22763
293.95        23.74451
294.40        24.35879
294.86        24.97289
295.31        25.44875
295.77        25.75613
296.22        25.91467
296.68        26.04997
297.13        26.34585
297.58        26.85082
298.04        27.48413
298.49        28.13301
298.95        28.61164
299.40          28.877
299.85         28.9985
300.31        29.06726
300.76        29.16654
301.21        29.35253
301.67        29.59696
302.12        29.85463
302.58        30.19878
303.03        30.61165
303.48        30.94411
303.94        31.14467
304.39        31.85185
304.84        31.84904
305.30        32.11008
305.75        32.27412
306.20        32.41074
306.66        32.53144
307.11        32.62402
307.57        32.70009
308.02         32.7026
308.47        32.64256
308.93        32.54394
309.38        32.43154
309.83        32.38974
310.29        32.43229
310.74        32.53275
311.19        32.62368
311.65        32.59364
312.10        32.42035
312.55        32.14091
313.00        31.84916
313.46        31.69134
313.91        31.68423
314.36        31.78157
314.82        31.88689
315.27          31.865
315.72        31.67134
316.18        31.36345
316.63        30.99592
317.08        30.66511
317.53        30.41292
317.99        30.22292
318.44         30.0833
318.89        29.98034
319.35        29.90125
319.80        29.84375
320.25        29.81807
320.70        29.83701
321.16        29.88179
321.61        29.95541
322.06         29.9808
322.51        29.84731
322.97         29.5404
323.42        29.10292
323.87         28.6482
324.32        28.35965
324.78        28.27085
325.23        28.34641
325.68        28.47642
326.13        28.47134
326.59        28.27328
327.04        27.95462
327.49        27.59719
327.94        27.34728
328.39        27.24171
328.85         27.2121
329.30        27.22581
329.75        27.18661
330.20        27.06347
330.66         26.8971
331.11         26.6939
331.56         26.4346
332.01        26.13234
332.46        25.78557
332.92        25.46858
333.37        25.34458
333.82        25.43791
334.27        25.70763
334.72         26.0268
335.17        26.17574
335.63        26.09063
336.08        25.84023
336.53        25.51323
336.98         25.2836
337.43        25.20983
337.88        25.23277
338.34         25.3141
338.79        25.41616
339.24        25.50741
339.69        25.61519
340.14        25.69946
340.59         25.6877
341.05         25.5732
341.50        25.36536
341.95        25.14702
342.40        25.06158
342.85        25.13215
343.30        25.31126
343.75        25.49264
344.20        25.50393
344.66        25.31795
345.11        24.99247
345.56        24.62037
346.01        24.34627
346.46        24.22013
346.91        24.19669
347.36         24.2489
347.81        24.33792
348.26         24.4381
348.72        24.55555
349.17        24.66026
349.62        24.69737
350.07        24.65392
350.52        24.54242
350.97        24.39187
351.42        24.25077
351.87        24.14173
352.32        24.06461
352.77        24.02543
353.22        24.02978
353.67        24.07423
354.13        24.14911
354.58        24.25065
355.03        24.37266
355.48        24.49681
355.93         24.6095
356.38        24.66609
356.83        24.60497
357.28        24.42285
357.73        24.14691
358.18        23.83462
358.63        23.57762
359.08        23.40202
359.53        23.28368
359.98        23.19975
360.43        23.10827
360.88        22.99506
361.33        22.88027
361.78        22.75584
362.23        22.60581
362.68        22.43434
363.13        22.24432
363.58        22.07072
364.03         21.9724
364.48        21.95552
364.93        21.99553
365.38        22.04847
365.83        22.04354
366.28         21.9602
366.73        21.82041
367.18        21.64255
367.63        21.45683
368.08        21.27794
368.53        21.09853
368.98        20.93347
369.43        20.80582
369.88        20.72141
370.33        20.68227
370.78        20.66336
371.23         20.6201
371.68        20.53885
372.13        20.42109
372.58        20.29842
373.03        20.22594
373.48        20.20798
373.93        20.22228
374.38        20.21123
374.83        20.08293
375.28        19.83002
375.72        19.49444
376.17        19.16335
376.62        18.92115
377.07          18.788
377.52         18.7281
377.97        18.73064
378.42        18.77577
378.87        18.84365
379.32        18.94035
379.77         19.0113
380.22        18.97645
380.67        18.82435
381.11        18.56527
381.56        18.28782
382.01         18.1424
382.46        18.16213
382.91        18.30779
383.36        18.46094
383.81        18.43796
384.26        18.20667
384.71        17.82639
385.15        17.42363
385.60        17.22143
386.05        17.25133
386.50        17.43656
386.95        17.64645
387.40        17.67806
387.85        17.49494
388.29        17.17291
388.74        16.83858
389.19        16.60379
389.64        16.49913
390.09        16.47512
390.54        16.51753
390.98        16.60372
391.43        16.71359
391.88        16.84576
392.33        16.95037
392.78        16.97285
393.23        16.91136
393.67        16.74326
394.12         16.5357
394.57        16.49724
395.02        16.40399
395.47        16.42432
395.91        16.45354
396.36        16.42443
396.81        16.32828
397.26        16.19537
397.71        16.05788
398.15        15.95241
398.60        15.91024
399.05        15.87993
399.50        15.84934
399.95        15.87187
400.39        15.85995
400.84        15.81514
401.29         15.7231
401.74        15.65694
402.18        15.62568
402.63        15.57596
403.08        15.53097
403.53        15.53852
403.97        15.59816
404.42        15.69877
404.87          15.776
405.32        15.72608
405.76        15.53157
406.21        15.23436
406.66        14.93347
407.11        14.78439
407.55        14.82622
408.00        15.01674
408.45        15.25304
408.90        15.34695
409.34         15.2462
409.79        15.00707
410.24        14.75613
410.68        14.68461
411.13        14.83245
411.58        15.13696
412.03        15.46679
412.47        15.60067
412.92        15.47128
413.37        15.16602
413.81        14.81399
414.26        14.62671
414.71        14.63848
415.15        14.78863
415.60        14.98137
416.05        15.07559
416.49        15.02915
416.94        14.89781
417.39        14.73427
417.83        14.61521
418.28        14.57105
418.73        14.56461
419.17        14.59309
419.62         14.6575
420.07        14.74531
420.51        14.85708
420.96        14.95218
421.41        14.95594
421.85        14.85806
422.30        14.70075
422.74        14.53443
423.19        14.46022
423.64        14.49048
424.08        14.60056
424.53        14.74408
424.98        14.86354
425.42        14.93467
425.87         14.9634
426.31        14.94362
426.76        14.89147
427.21        14.76582
427.65        14.59249
428.10        14.40985
428.54        14.25996
428.99        14.17272
429.44        14.23351
429.88        14.36357
430.33        14.25542
430.77        13.99246
431.22        14.04991
431.66        14.40532
432.11        14.57548
432.56        14.49801
433.00        14.48632
433.45        14.51383
433.89        14.22132
434.34        13.77709
434.78        13.73709
435.23         14.0441
435.67        14.16394
436.12        14.07049
436.57        14.06985
437.01        14.17453
437.46        14.25772
437.90        14.30937
438.35        14.35836
438.79        14.39187
439.24        14.36535
439.68        14.29929
440.13         14.2626
440.57        14.24248
441.02        14.22084
441.46        14.19952
441.91        14.09899
442.35        13.96792
442.80        14.14247
443.24        14.50491
443.69        14.44529
444.13        14.01421
444.58        13.81427
445.02        13.85164
445.47        13.80982
445.91        13.69494
446.36        13.67364
446.80        13.74408
447.24        13.86628
447.69        13.99907
448.13        14.07732
448.58        14.08713
449.02         14.0476
449.47        13.99973
449.91         14.0009
450.36        14.06514
450.80        14.16901
451.25        14.27833
451.69        14.33801
452.13        14.33357
452.58        14.29362
453.02        14.23641
453.47         14.1893
453.91        14.15937
454.36        14.17631
454.80        14.17287
455.24        14.20569
455.69        14.25248
456.13         14.3085
456.58        14.35995
457.02        14.37046
457.46         14.3396
457.91        14.27857
458.35        14.20576
458.79        14.15582
459.24        14.14702
459.68        14.17564
460.13        14.23467
460.57        14.24636
461.01        14.31304
461.46        14.29752
461.90        14.26232
462.34        14.38539
462.79        14.60377
463.23        14.60046
463.68        14.39803
464.12        14.30334
464.56        14.32965
465.01         14.3265
465.45        14.28001
465.89        14.23172
466.34        14.20655
466.78        14.26258
467.22        14.40386
467.67         14.4036
468.11        14.26216
468.55        14.06558
468.99        13.89208
469.44        13.82579
469.88        13.88792
470.32        14.05661
470.77        14.25716
471.21        14.38112
471.65        14.39115
472.10        14.32609
472.54        14.23479
472.98        14.21002
473.42        14.27236
473.87        14.38706
474.31        14.50874
474.75        14.57224
475.20        14.56688
475.64        14.51451
476.08        14.44752
476.52        14.41002
476.97        14.41524
477.41        14.44401
477.85         14.4909
478.29        14.54631
478.74        14.60774
479.18        14.67141
479.62        14.72067
480.06        14.76352
480.50        14.80805
480.95        14.72182
481.39        14.75385
481.83         14.8009
482.27        14.94457
482.72         15.0389
483.16        15.25869
483.60        15.37165
484.04        15.41647
484.48        15.44718
484.93         15.4861
485.37        15.49445
485.81        15.44268
486.25        15.64205
486.69        15.09484
487.14        15.37731
487.58         16.0863
488.02        15.83126
488.46        16.43584
488.90         16.5415
489.34        15.80342
489.79        15.89849
490.23        16.07175
490.67        16.35623
491.11        16.50301
491.55        16.52395
491.99        16.46042
492.43        16.52206
492.88        16.72043
493.32        16.86434
493.76        16.94814
494.20         17.0913
494.64         17.3004
495.08        17.52936
495.52        17.73626
495.96        17.90264
496.41        18.02276
496.85        18.00501
497.29         17.9084
497.73        18.12937
498.17        18.40036
498.61        18.46578
499.05        18.28283
499.49        18.23124
499.93        18.34405
500.37        18.47813
500.82        18.60661
501.26        18.71829
501.70        18.80194
502.14        18.88505
502.58        18.98304
503.02        19.09736
503.46        19.23107
503.90        19.38675
504.34        19.54095
504.78        19.65314
505.22        19.71367
505.66          19.728
506.10        19.72314
506.54        19.76616
506.98        19.87252
507.42         19.9846
507.86        20.05002
508.30        20.21172
508.74        20.08921
509.18        20.00435
509.62        19.90448
510.06        19.88774
510.50        19.97252
510.94         20.1365
511.38        20.32761
511.82        20.44787
512.26        20.47091
512.70        20.42413
513.14        20.35658
513.58        20.34484
514.02        20.40733
514.46        20.51812
514.90        20.63519
515.34        20.69205
515.78        20.67196
516.22        20.59907
516.66        20.51169
517.10         20.4676
517.54         20.4804
517.98        20.52878
518.42        20.58397
518.86        20.60045
519.30        20.56664
519.74        20.50175
520.18        20.42305
520.62        20.35458
521.06        20.30659
521.50        20.27217
521.93        20.25528
522.37        20.25698
522.81        20.27655
523.25        20.31122
523.69        20.34937
524.13        20.37241
524.57        20.37405
525.01        20.35556
525.45        20.32012
525.89         20.2763
526.32        20.22473
526.76        20.16776
527.20          20.105
527.64        20.03688
528.08        19.96533
528.52        19.89539
528.96        19.82744
529.40        19.76066
529.83        19.69546
530.27        19.63404
530.71        19.58347
531.15        19.55675
531.59         19.5537
532.03        19.56889
532.46         19.5819
532.90        19.56752
533.34        19.51969
533.78        19.44798
534.22          19.372
534.66        19.32206
535.09         19.3031
535.53        19.31123
535.97        19.32987
536.41        19.33785
536.85        19.32848
537.28        19.30878
537.72        19.28636
538.16        19.27508
538.60        19.27913
539.04        19.29691
539.47        19.31605
539.91        19.33765
540.35        19.35707
540.79        19.38207
541.22        19.42423
541.66        19.50476
542.10        19.62337
542.54         19.7708
542.97         19.9324
543.41        20.08756
543.85        20.22883
544.29        20.36564
544.72        20.48715
545.16        20.59233
545.60        20.68224
546.04        20.74921
546.47         20.8219
546.91        20.97891
547.35        21.21121
547.79        21.43255
548.22        21.60711
548.66        21.79565
549.10        21.99761
549.53        22.10781
549.97        22.10839
550.41        22.42699
550.84        22.39905
551.28        22.52271
551.72        22.60016
552.15        22.83357
552.59        22.93612
553.03         23.1332
553.46        23.31801
553.90        23.45026
554.34        23.51833
554.77        23.56081
555.21        23.60249
555.65        23.62095
556.08        23.64826
556.52        23.78561
556.96        24.00051
557.39        24.18509
557.83        24.31826
558.27        24.39783
558.70         24.4546
559.14        24.56758
559.57        24.72241
560.01        24.87289
560.45        24.99171
560.88        24.96961
561.32        24.96296
561.75        24.98891
562.19        25.08752
562.63        25.14334
563.06        25.15365
563.50        25.19953
563.93        25.27361
564.37        25.35264
564.80        25.42809
565.24        25.51187
565.68        25.60161
566.11        25.71042
566.55        25.83811
566.98        25.94123
567.42        26.04842
567.85        26.15676
568.29        26.26994
568.72        26.45574
569.16        26.74608
569.60        26.64339
570.03         26.9748
570.47        27.10516
570.90        27.24707
571.34        27.37498
571.77        27.49442
572.21        27.58571
572.64        27.67276
573.08        27.80335
573.51         27.9395
573.95         28.2812
574.38        28.12721
574.82        28.18471
