SpectraSmart Spectrum 2.9.0.0
--------- Device Information -----------
Spectrum Name :  反射率_0
Saving Time :  2024/04/30 01:15:20
Spectro-Module Model Name : SE2030-DUVN
Spectro-Module Serial Number : OS361AC55029948
Wavelength Start : 200
Wavelength End : 1025
Wavelength Unit : Wavelength(nm)
Spectrum Unit : Reflectance(%)
-----------Spectrum Setting ------------
Integration Time : 20ms
Average : 10
Boxcar : 0
Background removal :  enabled
linearity correction :  enabled
SC :  disabled
Intensity correction :  disabled
DWT denoise :  enabled
savitzky-golay :  disabled
FFT :  disabled
Running average :  disabled
Kalman :  disabled
High pass :  disabled
---------------BEGIN--------------------
Wavelength(nm)             Reflectance(%)
200.29               0
200.75         47.0355
201.21        38.03548
201.67        26.67889
202.13        15.54037
202.58        6.404742
203.04       -1.181135
203.50        -4.38901
203.96        2.889781
204.42        21.47499
204.88         47.8893
205.34         73.0443
205.80        83.54861
206.26         79.6308
206.72        69.58557
207.18        58.06315
207.64        47.12698
208.10        36.52177
208.55        24.44297
209.01        13.89108
209.47         13.0801
209.93         22.2925
210.39        36.65485
210.85        48.91135
211.31        53.12321
211.77        48.97721
212.23        36.28121
212.69        16.71507
213.14        4.887519
213.60        9.715652
214.06        23.55374
214.52        36.60107
214.98        42.36111
215.44        41.69137
215.90        37.43795
216.36        31.93548
216.81        29.26935
217.27        31.86493
217.73        39.13805
218.19        51.05933
218.65        63.06321
219.11        69.43642
219.57        70.03261
220.02        67.89484
220.48        66.52863
220.94        65.94215
221.40        65.26875
221.86        62.40251
222.32        54.49657
222.77        44.27916
223.23        36.27505
223.69         31.4394
224.15        29.15851
224.61        28.51979
225.06        28.95389
225.52        30.85481
225.98        33.99498
226.44        37.31008
226.90        40.22294
227.36        42.03785
227.81        42.47393
228.27          41.816
228.73        40.09426
229.19        38.15656
229.65        37.80575
230.10        39.20615
230.56        41.42957
231.02        43.15756
231.48        43.20895
231.93        41.59019
232.39        38.82933
232.85        35.71254
233.31        33.79414
233.77        33.64409
234.22        34.97459
234.68        36.92205
235.14        37.87534
235.60        37.37558
236.05        35.90851
236.51        34.59951
236.97        34.92672
237.43          37.323
237.88        41.89835
238.34         47.7252
238.80        51.76777
239.26        51.84475
239.71        48.55894
240.17        44.06875
240.63        41.59573
241.08        42.07795
241.54        45.65447
242.00         52.7271
242.46        59.88229
242.91        61.96116
243.37        58.16856
243.83        52.45853
244.28        49.87797
244.74        50.90018
245.20        54.21286
245.66        58.23514
246.11        59.25143
246.57        55.65497
247.03        49.11656
247.48        41.07122
247.94        35.15862
248.40          33.545
248.85        34.16613
249.31        36.44454
249.77          40.382
250.22        46.59888
250.68        57.07032
251.14        71.84857
251.59        79.78963
252.05         73.2209
252.51        61.01055
252.96        51.30961
253.42        46.72328
253.88        45.40718
254.33        45.71146
254.79        46.96359
255.25        47.31278
255.70        46.45185
256.16        45.66249
256.62        45.24553
257.07        45.31964
257.53        46.06007
257.99        47.08483
258.44        47.99312
258.90        48.80038
259.35        49.05982
259.81        49.12173
260.27        48.99184
260.72        48.72665
261.18        48.48326
261.63        48.03806
262.09        47.46779
262.55        46.60302
263.00        45.47929
263.46        44.39302
263.91        43.30389
264.37        42.38563
264.83        41.57616
265.28        40.77425
265.74         40.1556
266.19        39.78394
266.65        39.69473
267.11        39.79354
267.56        39.85295
268.02        39.54401
268.47        38.79374
268.93          37.708
269.38        36.48558
269.84        35.59328
270.30        35.14384
270.75        35.00949
271.21        34.96986
271.66        34.67597
272.12        34.05287
272.57        33.19247
273.03        32.28577
273.48        31.54748
273.94        31.08941
274.39        30.78979
274.85        30.55798
275.31        30.20664
275.76        29.68493
276.22        29.08296
276.67          28.472
277.13        28.03428
277.58        27.74652
278.04        27.57617
278.49        27.36697
278.95        26.98583
279.40        26.38166
279.86        25.69127
280.31        24.99043
280.77        24.49793
281.22        24.22115
281.68        24.11367
282.13        24.10485
282.59        24.13971
283.04        24.16489
283.50        24.18584
283.95        24.15243
284.41        23.99441
284.86        23.70464
285.32        23.35219
285.77        22.95737
286.22        22.61964
286.68        22.37543
287.13        22.16035
287.59        22.03273
288.04        22.02427
288.50         22.1305
288.95        22.30623
289.41        22.43713
289.86        22.31574
290.32        21.94341
290.77        21.39303
291.22        20.82233
291.68        20.48421
292.13        20.43636
292.59         20.6143
293.04         20.9587
293.50        21.39881
293.95        21.89099
294.40        22.46303
294.86        23.02927
295.31        23.47064
295.77        23.76463
296.22        23.92361
296.68        24.07596
297.13        24.41289
297.58        24.97441
298.04        25.66557
298.49        26.35376
298.95        26.82285
299.40        27.02158
299.85        27.02973
300.31         26.9381
300.76        26.83302
301.21        26.78395
301.67        26.77272
302.12        26.78996
302.58        26.95827
303.03        27.27251
303.48        27.56249
303.94        27.74289
304.39        28.43928
304.84        28.35866
305.30        28.53137
305.75        28.60082
306.20        28.66987
306.66        28.75575
307.11        28.84133
307.57        28.90946
308.02        28.86792
308.47         28.7227
308.93        28.50998
309.38        28.29739
309.83        28.23289
310.29        28.33549
310.74        28.55138
311.19        28.75855
311.65        28.76234
312.10        28.52517
312.55        28.11584
313.00        27.66392
313.46        27.37193
313.91        27.27794
314.36        27.31728
314.82        27.39813
315.27        27.39168
315.72        27.24668
316.18        27.01902
316.63        26.72893
317.08        26.41574
317.53        26.11006
317.99        25.80985
318.44        25.54175
318.89        25.35515
319.35        25.25608
319.80         25.2277
320.25        25.25257
320.70         25.2982
321.16        25.33214
321.61        25.36423
322.06        25.34544
322.51        25.20935
322.97        24.95036
323.42        24.59848
323.87        24.21921
324.32        23.92181
324.78        23.72991
325.23        23.62902
325.68        23.58201
326.13        23.52325
326.59        23.42447
327.04         23.3163
327.49        23.19835
327.94        23.07946
328.39        22.95912
328.85        22.81291
329.30        22.66011
329.75        22.50829
330.20        22.36374
330.66        22.23025
331.11        22.09709
331.56        21.92261
332.01        21.70319
332.46        21.45023
332.92        21.20643
333.37        21.06837
333.82          21.052
334.27        21.13074
334.72        21.23932
335.17        21.26671
335.63        21.18275
336.08        21.02936
336.53        20.84454
336.98        20.70779
337.43        20.64654
337.88        20.62671
338.34        20.64572
338.79        20.72298
339.24        20.84196
339.69        21.00843
340.14        21.15248
340.59        21.15652
341.05        21.00291
341.50        20.71912
341.95        20.42053
342.40        20.29741
342.85        20.38495
343.30        20.62274
343.75        20.87555
344.20        20.92489
344.66        20.73155
345.11        20.36597
345.56        19.95015
346.01        19.67513
346.46        19.59881
346.91         19.6575
347.36        19.78947
347.81        19.90579
348.26        19.97148
348.72        20.01112
349.17         20.0251
349.62        20.01175
350.07        19.97422
350.52        19.90917
350.97        19.82166
351.42        19.72361
351.87        19.62834
352.32        19.54821
352.77        19.50259
353.22        19.51805
353.67        19.59514
354.13        19.71227
354.58         19.8569
355.03        20.01074
355.48        20.15224
355.93        20.27691
356.38        20.33757
356.83        20.26734
357.28        20.06728
357.73        19.76751
358.18        19.44822
358.63        19.23617
359.08        19.16072
359.53        19.18428
359.98        19.24957
360.43        19.26066
360.88        19.18767
361.33        19.06186
361.78        18.90221
362.23        18.73749
362.68        18.58453
363.13        18.43657
363.58        18.30442
364.03        18.20791
364.48        18.14939
364.93        18.12293
365.38        18.12176
365.83        18.13193
366.28        18.14269
366.73        18.15206
367.18        18.14078
367.63        18.08121
368.08        17.97066
368.53        17.81864
368.98        17.65273
369.43        17.51907
369.88        17.43235
370.33        17.38247
370.78        17.35295
371.23        17.31529
371.68        17.25644
372.13        17.17896
372.58        17.08913
373.03        16.99643
373.48        16.90229
373.93        16.80569
374.38        16.68987
374.83        16.53062
375.28        16.33533
375.72        16.11668
376.17        15.93241
376.62        15.83189
377.07        15.81791
377.52        15.86214
377.97        15.93204
378.42        15.97242
378.87        15.96398
379.32        15.92835
379.77        15.85504
380.22        15.73032
380.67        15.55879
381.11        15.33572
381.56        15.12785
382.01        15.04279
382.46        15.10071
382.91         15.2791
383.36        15.46531
383.81        15.48437
384.26        15.30754
384.71        14.98357
385.15        14.64773
385.60        14.53941
386.05         14.6867
386.50        15.00351
386.95        15.32837
387.40        15.40972
387.85        15.20495
388.29        14.81213
388.74        14.38927
389.19         14.0969
389.64        13.97716
390.09        13.96789
390.54        14.04186
390.98        14.15412
391.43        14.27468
391.88        14.41047
392.33        14.51581
392.78        14.53815
393.23         14.4769
393.67        14.31297
394.12        14.10951
394.57        14.05464
395.02        13.95968
395.47        13.96424
395.91         13.9798
396.36        13.94872
396.81        13.86255
397.26        13.74787
397.71        13.62449
398.15        13.51109
398.60        13.43594
399.05        13.36208
399.50        13.29072
399.95        13.28274
400.39          13.267
400.84        13.23765
401.29        13.17871
401.74        13.14355
402.18         13.1347
402.63        13.11017
403.08        13.07959
403.53        13.06854
403.97        13.07697
404.42         13.0995
404.87        13.10433
405.32        13.04057
405.76        12.90052
406.21        12.70898
406.66        12.52314
407.11        12.43344
407.55        12.46264
408.00        12.58453
408.45        12.73275
408.90        12.78518
409.34        12.70721
409.79        12.53378
410.24        12.34976
410.68        12.28442
411.13        12.36405
411.58        12.54575
412.03        12.73752
412.47        12.78591
412.92        12.64549
413.37        12.38278
413.81        12.08968
414.26        11.91973
414.71        11.89626
415.15        11.97728
415.60         12.0973
416.05        12.16454
416.49        12.14799
416.94        12.08157
417.39        11.99117
417.83        11.91376
418.28        11.86645
418.73        11.82566
419.17        11.79522
419.62        11.78533
420.07        11.79305
420.51        11.81983
420.96        11.83906
421.41        11.80046
421.85        11.69807
422.30        11.56378
422.74        11.43494
423.19        11.38666
423.64        11.42593
424.08        11.53469
424.53         11.6679
424.98        11.76931
425.42        11.81556
425.87        11.80917
426.31        11.75964
426.76        11.70405
427.21        11.61542
427.65        11.51319
428.10        11.40101
428.54        11.26763
428.99         11.1342
429.44        11.08181
429.88        11.09527
430.33        11.00909
430.77        10.89126
431.22        11.08168
431.66        11.51366
432.11        11.70548
432.56        11.57715
433.00        11.40533
433.45        11.22168
433.89        10.85137
434.34        10.46662
434.78        10.45872
435.23        10.74592
435.67        10.86217
436.12        10.76992
436.57        10.72504
437.01        10.75732
437.46         10.8024
437.90        10.85953
438.35         10.9318
438.79        10.99177
439.24        10.98015
439.68        10.90716
440.13        10.83743
440.57        10.76743
441.02        10.69941
441.46        10.64416
441.91        10.52809
442.35        10.39925
442.80        10.54849
443.24        10.87489
443.69        10.85491
444.13        10.52122
444.58        10.37356
445.02        10.41467
445.47         10.3786
445.91        10.26736
446.36        10.22038
446.80         10.2396
447.24        10.29202
447.69        10.36136
448.13         10.4235
448.58        10.46834
449.02        10.50122
449.47        10.52836
449.91        10.55363
450.36        10.57891
450.80        10.60076
451.25        10.61049
451.69        10.59655
452.13        10.55666
452.58        10.50233
453.02        10.44586
453.47        10.40621
453.91        10.38571
454.36        10.41091
454.80        10.41846
455.24        10.42537
455.69        10.41359
456.13        10.38623
456.58        10.36188
457.02        10.35868
457.46         10.3822
457.91         10.4228
458.35        10.46011
458.79        10.46665
459.24        10.44632
459.68        10.41417
460.13        10.39226
460.57        10.36387
461.01        10.41601
461.46        10.43399
461.90         10.4508
462.34        10.57515
462.79        10.75349
463.23        10.76002
463.68        10.61371
464.12         10.5449
464.56         10.5652
465.01        10.56156
465.45        10.52336
465.89        10.48251
466.34        10.45797
466.78        10.49299
467.22        10.59256
467.67        10.59292
468.11        10.49429
468.55        10.35912
468.99        10.24168
469.44          10.198
469.88        10.24207
470.32         10.3603
470.77        10.50043
471.21         10.5905
471.65        10.60355
472.10        10.56672
472.54        10.51241
472.98        10.50587
473.42        10.56066
473.87        10.65097
474.31        10.74447
474.75        10.79267
475.20        10.78889
475.64        10.75075
476.08        10.70176
476.52        10.67165
476.97        10.67002
477.41        10.68686
477.85        10.72654
478.29        10.76887
478.74        10.85323
479.18        10.94028
479.62        11.01338
480.06        11.05368
480.50        11.06295
480.95        10.94813
481.39        10.91467
481.83        10.92141
482.27        11.03844
482.72        11.14904
483.16         11.3567
483.60        11.46161
484.04        11.49262
484.48        11.44867
484.93        11.37968
485.37        11.44729
485.81        11.59786
486.25        11.65366
486.69        11.18119
487.14        11.39309
487.58        12.06757
488.02         11.8631
488.46        12.04142
488.90        12.33664
489.34        11.71958
489.79        11.72934
490.23        11.91811
490.67        12.17958
491.11        12.39434
491.55        12.38563
491.99        12.22948
492.43        12.27392
492.88        12.53733
493.32          12.772
493.76         12.9314
494.20        13.08717
494.64        13.23101
495.08        13.33438
495.52        13.39519
495.96        13.45058
496.41        13.51333
496.85        13.50023
497.29        13.44011
497.73        13.61622
498.17        13.81552
498.61        13.82876
499.05        13.64666
499.49        13.61011
499.93        13.74971
500.37        13.93093
500.82        14.10728
501.26        14.23868
501.70        14.30702
502.14        14.34274
502.58        14.38035
503.02        14.45782
503.46        14.58638
503.90        14.75573
504.34        14.92988
504.78        15.04769
505.22        15.09313
505.66        15.08177
506.10        15.04537
506.54        15.05208
506.98        15.11987
507.42        15.19895
507.86         15.2491
508.30        15.37856
508.74        15.29671
509.18        15.25084
509.62        15.19436
510.06        15.19106
510.50        15.25276
510.94        15.36296
511.38        15.49405
511.82        15.59171
512.26        15.63988
512.70        15.65494
513.14          15.654
513.58        15.66411
514.02        15.69428
514.46        15.73347
514.90        15.77762
515.34        15.82217
515.78        15.86262
516.22        15.90046
516.66        15.93043
517.10        15.94265
517.54        15.93561
517.98        15.91193
518.42        15.87655
518.86        15.83884
519.30        15.80317
519.74        15.76859
520.18        15.73778
520.62        15.71282
521.06          15.695
521.50        15.68772
521.93        15.68669
522.37        15.67913
522.81        15.66434
523.25        15.64182
523.69        15.62445
524.13        15.63335
524.57         15.6684
525.01        15.71949
525.45        15.75997
525.89        15.74772
526.32        15.67302
526.76        15.55538
527.20        15.42224
527.64        15.31598
528.08        15.24928
528.52        15.21238
528.96        15.19213
529.40        15.16673
529.83        15.12846
530.27        15.08554
530.71        15.04487
531.15        15.01844
531.59        15.00665
532.03        15.00179
532.46        14.99013
532.90        14.95645
533.34        14.89885
533.78        14.82836
534.22        14.75702
534.66        14.70161
535.09        14.66689
535.53        14.65285
535.97        14.65934
536.41         14.6907
536.85        14.74186
537.28        14.80674
537.72        14.86957
538.16        14.90882
538.60        14.91945
539.04        14.91228
539.47        14.88733
539.91        14.86168
540.35         14.8403
540.79        14.82644
541.22        14.83999
541.66        14.91475
542.10        15.05031
542.54         15.2325
542.97        15.43128
543.41        15.59864
543.85        15.72171
544.29         15.8171
544.72        15.88577
545.16        15.94449
545.60         16.0005
546.04        16.04214
546.47        16.09632
546.91        16.23147
547.35         16.4397
547.79        16.65287
548.22        16.82927
548.66        16.99337
549.10        17.14198
549.53        17.19988
549.97        17.16953
550.41        17.40933
550.84        17.40978
551.28        17.54839
551.72        17.65983
552.15        17.88423
552.59         17.9914
553.03        18.16459
553.46        18.32212
553.90        18.43521
554.34        18.49649
554.77        18.53227
555.21         18.5682
555.65        18.59646
556.08        18.64195
556.52        18.78218
556.96        18.97797
557.39        19.12254
557.83        19.19714
558.27         19.2091
558.70        19.20107
559.14        19.26427
559.57        19.39517
560.01        19.54719
560.45        19.68712
560.88        19.71022
561.32        19.73395
561.75        19.77862
562.19         19.8763
562.63        19.93531
563.06        19.95421
563.50        19.99411
563.93        20.05693
564.37        20.13774
564.80        20.23016
565.24        20.33879
565.68        20.44643
566.11        20.53892
566.55        20.61341
566.98        20.64713
567.42        20.68161
567.85        20.73838
568.29        20.82088
568.72        20.99717
569.16        21.29513
569.60        21.24009
570.03          21.472
570.47        21.78296
570.90        21.86484
571.34        21.97489
571.77        22.13829
572.21        22.20819
572.64        22.25104
573.08        22.40028
573.51          22.662
573.95        22.85755
574.38         22.8727
574.82        23.04259
