SpectraSmart Spectrum 2.9.0.0
--------- Device Information -----------
Spectrum Name :  反射率_0
Saving Time :  2024/04/30 01:11:52
Spectro-Module Model Name : SE2030-DUVN
Spectro-Module Serial Number : OS361AC55029948
Wavelength Start : 200
Wavelength End : 1025
Wavelength Unit : Wavelength(nm)
Spectrum Unit : Reflectance(%)
-----------Spectrum Setting ------------
Integration Time : 20ms
Average : 10
Boxcar : 0
Background removal :  enabled
linearity correction :  enabled
SC :  disabled
Intensity correction :  disabled
DWT denoise :  enabled
savitzky-golay :  disabled
FFT :  disabled
Running average :  disabled
Kalman :  disabled
High pass :  disabled
---------------BEGIN--------------------
Wavelength(nm)             Reflectance(%)
200.29               0
200.75        70.90319
201.21        63.32048
201.67        56.54762
202.13         50.3672
202.58        45.19903
203.04         41.5979
203.50        41.93214
203.96        50.83222
204.42        68.50293
204.88        91.13136
205.34        110.3373
205.80        115.2791
206.26        107.3576
206.72        94.35096
207.18         81.1459
207.64        69.69539
208.10         59.3919
208.55        48.70972
209.01        39.24553
209.47        36.57836
209.93        41.43402
210.39        50.69947
210.85        59.60256
211.31        64.50208
211.77        65.48188
212.23        62.93041
212.69        58.17047
213.14        57.51275
213.60        62.73919
214.06        70.43015
214.52        76.18128
214.98        77.29876
215.44        74.61684
215.90        69.41563
216.36        64.41258
216.81        64.82442
217.27        73.53933
217.73         91.6139
218.19        117.4962
218.65        137.2942
219.11        140.2813
219.57        130.3322
220.02        118.6871
220.48        114.8321
220.94        118.4646
221.40        128.2718
221.86        140.0303
222.32        140.2198
222.77        126.4971
223.23        110.0998
223.69        98.67206
224.15        95.51915
224.61        99.18788
225.06        108.1263
225.52        119.3952
225.98        125.1814
226.44        123.3894
226.90        117.9729
227.36        113.4693
227.81        113.2871
228.27          117.44
228.73        124.3891
229.19        131.7325
229.65        134.2128
230.10        130.8171
230.56        125.2919
231.02        120.0018
231.48        116.8699
231.93        115.7344
232.39        115.7168
232.85        116.7715
233.31        119.1019
233.77        122.4731
234.22         127.174
234.68        131.3939
235.14        132.0089
235.60        128.4476
236.05        121.5652
236.51         114.501
236.97        111.3067
237.43        112.8372
237.88        119.1011
238.34        127.7662
238.80        132.2753
239.26        128.6469
239.71        118.9423
240.17         107.602
240.63        100.2677
241.08        98.26557
241.54        100.6349
242.00        108.2293
242.46         118.095
242.91        124.8692
243.37        126.9783
243.83         125.786
244.28        124.5483
244.74        123.8694
245.20        121.3132
245.66        117.6473
246.11        115.8323
246.57        117.0291
247.03        122.7693
247.48        127.6458
247.94        120.4851
248.40        104.6565
248.85        87.91334
249.31        77.83479
249.77        77.47022
250.22        86.57484
250.68        106.9958
251.14        138.7647
251.59        157.7402
252.05        145.9449
252.51        122.0026
252.96        103.2399
253.42        95.80929
253.88        96.10903
254.33        100.8201
254.79        107.1552
255.25        109.0532
255.70        105.7803
256.16        101.6695
256.62        99.02583
257.07        99.21569
257.53        102.2776
257.99        106.7799
258.44        110.8099
258.90        112.6267
259.35        111.5992
259.81        109.6579
260.27        107.7972
260.72        106.8872
261.18         107.218
261.63        107.7891
262.09        108.2343
262.55        107.4873
263.00         105.503
263.46        103.2223
263.91        100.9486
264.37        99.63614
264.83        99.13273
265.28        99.04992
265.74        99.21529
266.19        98.97655
266.65        98.35374
267.11        97.46584
267.56        96.49838
268.02        95.80171
268.47        95.35127
268.93        95.03676
269.38        94.64948
269.84        93.96773
270.30        92.93453
270.75         91.6529
271.21         90.3001
271.66        88.97382
272.12        87.74471
272.57        86.49519
273.03        85.26907
273.48        84.00413
273.94        82.80279
274.39        81.61289
274.85        80.50084
275.31        79.33034
275.76        78.05248
276.22        76.79848
276.67        75.56312
277.13        74.58508
277.58        73.76926
278.04        73.12702
278.49        72.46402
278.95        71.72734
279.40         70.8011
279.86        69.86197
280.31        68.83968
280.77        67.85988
281.22        66.87925
281.68        65.94875
282.13        65.11198
282.59        64.59606
283.04        64.31356
283.50        64.22048
283.95        64.02477
284.41        63.37959
284.86        62.20624
285.32        60.73592
285.77        59.17302
286.22        57.94415
286.68          57.155
287.13        56.62524
287.59        56.26685
288.04        55.83874
288.50          55.313
288.95          54.703
289.41        54.08758
289.86        53.47147
290.32        52.90197
290.77        52.34469
291.22        51.77044
291.68          51.145
292.13        50.46609
292.59        49.80556
293.04        49.27997
293.50        49.11722
293.95        49.30765
294.40        49.77988
294.86         50.3149
295.31        50.58489
295.77        50.50982
296.22        50.17336
296.68        49.75789
297.13        49.52443
297.58        49.55639
298.04         49.7456
298.49        49.98314
298.95        50.11304
299.40        50.07615
299.85        49.93987
300.31        49.75964
300.76        49.53537
301.21        49.32002
301.67        49.12554
302.12        48.93537
302.58        48.87731
303.03        48.93944
303.48        49.00716
303.94        49.04605
304.39         49.5082
304.84        49.48732
305.30        49.70617
305.75        49.85389
306.20        49.94693
306.66        49.99067
307.11        49.95947
307.57        49.89927
308.02        49.78022
308.47        49.62702
308.93        49.45591
309.38        49.25623
309.83        49.07228
310.29        48.92192
310.74        48.79865
311.19        48.68474
311.65        48.53933
312.10        48.34719
312.55        48.12155
313.00        47.92258
313.46        47.84285
313.91        47.87739
314.36         47.9948
314.82        48.09276
315.27        48.03388
315.72        47.77417
316.18        47.36296
316.63        46.88397
317.08        46.48296
317.53        46.21215
317.99        46.05291
318.44        45.94133
318.89        45.77884
319.35        45.54195
319.80        45.25788
320.25        45.01969
320.70        44.97474
321.16        45.12637
321.61        45.43631
322.06        45.73182
322.51         45.7435
322.97        45.40869
323.42        44.82176
323.87        44.15719
324.32        43.69823
324.78        43.51225
325.23        43.54433
325.68        43.67321
326.13        43.69473
326.59        43.53678
327.04         43.2811
327.49         43.0042
327.94        42.84457
328.39        42.83109
328.85        42.88607
329.30        42.95689
329.75        42.88895
330.20        42.64771
330.66        42.29311
331.11        41.90841
331.56        41.58638
332.01        41.36893
332.46        41.22615
332.92        41.15854
333.37        41.22029
333.82        41.38445
334.27        41.63596
334.72        41.89044
335.17        42.00475
335.63        41.93538
336.08        41.73723
336.53         41.4618
336.98         41.2329
337.43          41.099
337.88         41.0248
338.34          41.013
338.79        41.08547
339.24        41.22267
339.69        41.43088
340.14        41.62985
340.59        41.67997
341.05        41.55941
341.50        41.30581
341.95        41.02876
342.40        40.91614
342.85        41.00516
343.30        41.22656
343.75        41.48217
344.20        41.61308
344.66        41.58538
345.11        41.45657
345.56        41.26412
346.01         41.0612
346.46         40.8886
346.91        40.73284
347.36        40.65347
347.81        40.74638
348.26        41.00758
348.72         41.3892
349.17        41.78964
349.62          42.019
350.07        42.02044
350.52        41.85554
350.97        41.58162
351.42          41.289
351.87         41.0284
352.32        40.78867
352.77        40.62142
353.22        40.61024
353.67        40.75572
354.13        41.01724
354.58        41.31873
355.03        41.52919
355.48        41.59848
355.93         41.5573
356.38        41.39401
356.83        41.10092
357.28         40.7036
357.73        40.21398
358.18        39.73248
358.63        39.41791
359.08        39.29809
359.53        39.32949
359.98         39.4041
360.43        39.34069
360.88        39.09395
361.33         38.7211
361.78        38.29708
362.23        37.94168
362.68        37.69436
363.13        37.51947
363.58          37.387
364.03        37.25194
364.48        37.09592
364.93        36.93172
365.38        36.77365
365.83        36.64146
366.28        36.53506
366.73        36.44052
367.18        36.32381
367.63        36.13577
368.08        35.87004
368.53        35.54775
368.98        35.21653
369.43        34.95065
369.88        34.77583
370.33        34.67966
370.78        34.62777
371.23        34.56281
371.68        34.46133
372.13        34.32336
372.58        34.18053
373.03        34.08613
373.48        34.03991
373.93        34.01872
374.38        33.94303
374.83        33.68909
375.28        33.25614
375.72        32.70522
376.17        32.18322
376.62          31.838
377.07        31.70021
377.52        31.70933
377.97        31.81894
378.42        31.94937
378.87        32.05361
379.32        32.14614
379.77        32.17803
380.22        32.07894
380.67        31.84471
381.11        31.48856
381.56        31.09685
382.01        30.82315
382.46        30.71195
382.91        30.73145
383.36        30.79621
383.81        30.76747
384.26        30.61316
384.71        30.37296
385.15        30.11647
385.60        29.98454
386.05        29.98635
386.50        30.06877
386.95        30.14487
387.40        30.08434
387.85        29.87143
388.29        29.55238
388.74        29.24128
389.19        29.00329
389.64         28.8582
390.09        28.76699
390.54        28.73624
390.98        28.77264
391.43        28.86984
391.88        29.01433
392.33        29.12105
392.78        29.09948
393.23        28.94694
393.67         28.6291
394.12         28.2674
394.57         28.2264
395.02        28.12101
395.47        28.23546
395.91        28.36584
396.36        28.36008
396.81        28.19303
397.26        27.92908
397.71        27.65356
398.15        27.47674
398.60        27.45621
399.05        27.48544
399.50        27.52063
399.95        27.62486
400.39         27.6373
400.84        27.56813
401.29        27.39684
401.74        27.25684
402.18        27.17203
402.63        27.05673
403.08        26.95172
403.53        26.94077
403.97        27.02497
404.42        27.18286
404.87        27.32969
405.32         27.3265
405.76        27.14325
406.21        26.83504
406.66        26.50574
407.11        26.32155
407.55         26.3303
408.00        26.48277
408.45        26.68772
408.90        26.77513
409.34        26.69553
409.79        26.49857
410.24        26.29685
410.68        26.25841
411.13        26.41616
411.58        26.71221
412.03        27.01828
412.47        27.12275
412.92        26.95942
413.37        26.61449
413.81        26.21847
414.26        25.99641
414.71        25.97917
415.15          26.108
415.60         26.2765
416.05        26.33023
416.49        26.22879
416.94        26.03485
417.39        25.81529
417.83        25.66711
418.28        25.62457
418.73        25.63961
419.17        25.70497
419.62        25.81797
420.07        25.95619
420.51         26.1154
420.96        26.23678
421.41        26.21194
421.85         26.0271
422.30        25.75099
422.74        25.45654
423.19        25.29293
423.64        25.28068
424.08        25.38855
424.53        25.55873
424.98         25.7254
425.42         25.8564
425.87        25.94594
426.31        25.97976
426.76        25.97624
427.21        25.85896
427.65        25.67504
428.10        25.45138
428.54        25.22496
428.99        25.03855
429.44        25.00073
429.88        25.05388
430.33        24.88772
430.77        24.61626
431.22         24.8189
431.66        25.41058
432.11         25.7365
432.56        25.68633
433.00        25.50617
433.45        25.27043
433.89        25.08199
434.34        24.98396
434.78        25.09085
435.23        24.92192
435.67         24.9042
436.12        24.90024
436.57        24.88546
437.01        24.86744
437.46        24.87753
437.90        24.91816
438.35        24.97183
438.79         25.0339
439.24        25.05718
439.68        25.06726
440.13        25.17483
440.57        25.31393
441.02        25.35987
441.46        25.29924
441.91        25.04269
442.35        24.70773
442.80        24.89529
443.24        25.42359
443.69        25.28692
444.13         24.5828
444.58        24.30405
445.02        24.45799
445.47        24.52636
445.91         24.4725
446.36        24.49605
446.80        24.58065
447.24        24.67663
447.69        24.77094
448.13        24.84167
448.58        24.88442
449.02        24.89887
449.47         24.9038
449.91        24.91319
450.36        24.93627
450.80        24.96919
451.25        24.99227
451.69        24.96595
452.13        24.88534
452.58        24.77308
453.02        24.66665
453.47        24.61935
453.91        24.63639
454.36        24.77307
454.80        24.85852
455.24        24.90642
455.69        24.86903
456.13        24.76499
456.58        24.65834
457.02        24.62557
457.46        24.68665
457.91        24.81194
458.35        24.93722
458.79        24.98348
459.24        24.94922
459.68         24.8727
460.13         24.7972
460.57        24.71066
461.01        24.82161
461.46        24.81017
461.90        24.72392
462.34        25.08328
462.79        25.26196
463.23         25.2024
463.68        24.82048
464.12        24.64553
464.56        24.70631
465.01        24.76239
465.45        24.77095
465.89        24.75545
466.34        24.75055
466.78        24.86297
467.22        25.11908
467.67        25.15514
468.11        24.97566
468.55        24.71941
468.99        24.47605
469.44        24.32215
469.88        24.28997
470.32        24.36819
470.77        24.50175
471.21        24.61353
471.65        24.66901
472.10         24.6956
472.54        24.71587
472.98        24.78633
473.42         24.9127
473.87        25.06686
474.31        25.19934
474.75        25.24917
475.20        25.21237
475.64        25.10721
476.08        24.97996
476.52         24.8942
476.97        24.86962
477.41         24.8854
477.85        24.93144
478.29        24.98725
478.74        25.05074
479.18        25.11154
479.62        25.15461
480.06        25.21531
480.50         25.3063
480.95        25.19021
481.39        25.26986
481.83         25.3224
482.27        25.48228
482.72        25.52275
483.16        25.76001
483.60        25.84858
484.04        25.88082
484.48        25.85074
484.93        25.81063
485.37        25.85751
485.81        25.97075
486.25        25.95704
486.69        25.76734
487.14        25.85619
487.58          26.301
488.02        26.32908
488.46        26.65529
488.90        27.16941
489.34        26.37354
489.79        26.38334
490.23        26.65843
490.67        26.82358
491.11        26.81844
491.55        26.76006
491.99        26.71583
492.43        26.79114
492.88        26.99104
493.32        27.20235
493.76        27.39242
494.20        27.59872
494.64        27.81692
495.08        28.02555
495.52        28.18099
495.96        28.28976
496.41        28.36159
496.85        28.23284
497.29        27.99681
497.73        28.29742
498.17        28.70111
498.61        28.75399
499.05        28.40063
499.49        28.29778
499.93         28.4963
500.37        28.73098
500.82        28.94527
501.26        29.11503
501.70        29.21725
502.14        29.29625
502.58        29.37903
503.02        29.47419
503.46        29.59019
503.90        29.72931
504.34        29.86617
504.78        29.95516
505.22        29.98729
505.66        29.97391
506.10        29.93889
506.54        29.95374
506.98        30.03681
507.42        30.10759
507.86        30.11948
508.30        30.33884
508.74         30.2023
509.18        30.17546
509.62        30.13111
510.06        30.14176
510.50        30.21782
510.94         30.3453
511.38        30.49498
511.82        30.60372
512.26        30.65308
512.70        30.65768
513.14        30.64313
513.58        30.64869
514.02        30.68635
514.46        30.74738
514.90         30.8078
515.34        30.83023
515.78        30.80843
516.22        30.75471
516.66        30.70864
517.10        30.73065
517.54        30.82766
517.98        30.97502
518.42        31.11737
518.86        31.16631
519.30        31.10269
519.74        30.95912
520.18        30.78565
520.62        30.65799
521.06         30.6023
521.50        30.60261
521.93        30.64511
522.37        30.69017
522.81        30.72646
523.25        30.76963
523.69        30.82894
524.13         30.8686
524.57        30.96353
525.01        31.03451
525.45        31.07759
525.89        31.05171
526.32        30.94786
526.76        30.79294
527.20        30.61384
527.64        30.45422
528.08        30.33142
528.52        30.24004
528.96        30.17998
529.40        30.14858
529.83        30.13807
530.27        30.14869
530.71        30.16942
531.15        30.18521
531.59        30.18814
532.03          30.179
532.46         30.1449
532.90        30.07987
533.34        29.98694
533.78        29.87634
534.22        29.77463
534.66        29.72124
535.09        29.72115
535.53        29.76892
535.97        29.84129
536.41         29.9072
536.85         29.9516
537.28        29.97695
537.72        29.98223
538.16        29.96793
538.60        29.93754
539.04        29.89689
539.47        29.84022
539.91        29.78702
540.35        29.73756
540.79        29.69881
541.22        29.69149
541.66        29.75163
542.10        29.87834
542.54        30.05855
542.97        30.25657
543.41        30.42153
543.85        30.53902
544.29         30.6319
544.72        30.70257
545.16        30.77672
545.60        30.86312
546.04        30.93982
546.47        31.03793
546.91         31.2562
547.35        31.57291
547.79        31.86269
548.22        32.07014
548.66        32.28366
549.10        32.50043
549.53        32.56384
549.97        32.45259
550.41        32.80455
550.84        32.65309
551.28        32.73263
551.72        32.75701
552.15        33.00464
552.59        33.06027
553.03        33.28037
553.46        33.52627
553.90        33.62778
554.34        33.78379
554.77        33.86506
555.21        33.95262
555.65        33.98247
556.08        33.99371
556.52        34.13563
556.96        34.36596
557.39        34.54292
557.83        34.64214
558.27        34.65998
558.70        34.64752
559.14        34.72918
559.57        34.88787
560.01        35.05825
560.45        35.19665
560.88        35.13874
561.32        35.10159
561.75        35.11227
562.19        35.22484
562.63        35.27598
563.06        35.26218
563.50        35.29478
563.93        35.36872
564.37        35.46194
564.80        35.56144
565.24         35.6786
565.68        35.79728
566.11        35.91624
566.55         36.0312
566.98        36.08888
567.42         36.1402
567.85        36.19841
568.29        36.27656
568.72        36.46288
569.16        36.79194
569.60        36.59377
570.03        37.00505
570.47        37.09964
570.90        37.16355
571.34        37.39488
571.77         37.4058
572.21        37.50468
572.64        37.58721
573.08        37.68629
573.51        37.82615
573.95        38.03071
574.38        38.43731
574.82        38.34266
