SpectraSmart Spectrum 2.9.0.0
--------- Device Information -----------
Spectrum Name :  反射率_0
Saving Time :  2024/04/30 00:45:21
Spectro-Module Model Name : SE2030-DUVN
Spectro-Module Serial Number : OS361AC55029948
Wavelength Start : 200
Wavelength End : 1025
Wavelength Unit : Wavelength(nm)
Spectrum Unit : Reflectance(%)
-----------Spectrum Setting ------------
Integration Time : 20ms
Average : 10
Boxcar : 0
Background removal :  enabled
linearity correction :  enabled
SC :  disabled
Intensity correction :  disabled
DWT denoise :  enabled
savitzky-golay :  disabled
FFT :  disabled
Running average :  disabled
Kalman :  disabled
High pass :  disabled
---------------BEGIN--------------------
Wavelength(nm)             Reflectance(%)
200.29               0
200.75        45.23758
201.21        38.01575
201.67        30.96165
202.13        25.32526
202.58        21.79687
203.04        20.68468
203.50        23.00118
203.96        30.43211
204.42        42.29986
204.88         56.5052
205.34        67.30212
205.80          67.537
206.26        59.27813
206.72        48.39091
207.18        38.46731
207.64        31.06636
208.10        25.55046
208.55         20.5202
209.01        17.07583
209.47        18.47899
209.93         24.3073
210.39        32.38141
210.85         39.1226
211.31        41.75572
211.77         40.3459
212.23        34.78836
212.69        26.44308
213.14        23.46441
213.60        29.12665
214.06        38.71496
214.52        46.82342
214.98        50.21353
215.44        49.69683
215.90        46.88327
216.36           43.33
216.81         41.8687
217.27        44.16264
217.73        49.87224
218.19        59.03662
218.65        68.10014
219.11        72.76078
219.57         73.0897
220.02        70.95768
220.48         68.6612
220.94        65.98995
221.40         61.8834
221.86        55.78294
222.32        49.35941
222.77        45.20701
223.23        44.04504
223.69        43.89283
224.15         42.9415
224.61        41.05062
225.06        38.47737
225.52        36.71521
225.98        38.37063
226.44        43.00451
226.90        48.27173
227.36        52.46115
227.81        54.79312
228.27        55.67459
228.73        55.52683
229.19        54.62118
229.65        53.54943
230.10        52.72065
230.56        52.20883
231.02        51.80881
231.48        51.30961
231.93        50.59632
232.39        49.80113
232.85        49.17295
233.31        49.23284
233.77        50.09778
234.22        51.73208
234.68        53.40466
235.14        53.84335
235.60        52.80457
236.05        50.69309
236.51        48.70293
236.97        48.38046
237.43        50.12405
237.88        54.01317
238.34        59.25307
238.80        63.31603
239.26        64.21766
239.71        62.43466
240.17         59.2678
240.63        56.84025
241.08        55.71666
241.54        55.32608
242.00        55.81576
242.46        57.16125
242.91        59.15783
243.37        61.43701
243.83        63.71541
244.28        66.02653
244.74        68.43102
245.20        70.78156
245.66        72.52061
246.11        72.55272
246.57        70.45072
247.03        66.60339
247.48        61.86979
247.94        58.33702
248.40        57.26233
248.85        57.54269
249.31        58.64379
249.77        59.70575
250.22        60.83798
250.68        62.50871
251.14        64.85635
251.59        66.46194
252.05        66.04374
252.51        64.55063
252.96        63.09328
253.42        62.59063
253.88        62.65575
254.33         63.0299
254.79        63.81719
255.25        64.33292
255.70        64.27699
256.16        64.28056
256.62        64.49916
257.07        65.07382
257.53         66.3119
257.99        67.85699
258.44         68.9865
258.90        69.39068
259.35        68.69778
259.81        67.69042
260.27        66.71214
260.72        66.09404
261.18        65.97724
261.63        65.87247
262.09        65.61365
262.55        64.62576
263.00          62.944
263.46        61.13443
263.91        59.37164
264.37         58.1823
264.83        57.47734
265.28        57.01609
265.74         56.7917
266.19        56.54218
266.65         56.2738
267.11        55.99581
267.56        55.66077
268.02        55.22039
268.47        54.62885
268.93        53.89304
269.38        53.04313
269.84        52.26457
270.30        51.59773
270.75        51.01474
271.21        50.44934
271.66        49.73315
272.12         48.8507
272.57        47.82397
273.03        46.79474
273.48        45.88839
273.94        45.21088
274.39        44.66544
274.85        44.21228
275.31        43.68722
275.76        43.03413
276.22        42.34175
276.67        41.63874
277.13        41.09478
277.58        40.66333
278.04         40.3371
278.49        39.96581
278.95        39.46233
279.40        38.76558
279.86        38.01816
280.31        37.25344
280.77        36.66131
281.22        36.23051
281.68        35.93932
282.13        35.74428
282.59         35.6634
283.04        35.63087
283.50        35.63878
283.95        35.56545
284.41        35.25909
284.86        34.69524
285.32        33.99433
285.77         33.2395
286.22        32.63757
286.68        32.24903
287.13        31.97579
287.59        31.83304
288.04         31.7684
288.50        31.77236
288.95        31.82439
289.41        31.86334
289.86        31.74148
290.32        31.47173
290.77        31.08448
291.22        30.70007
291.68        30.51272
292.13        30.55489
292.59        30.79264
293.04         31.1567
293.50         31.5794
293.95        32.02378
294.40        32.52212
294.86        33.04575
295.31        33.56513
295.77        34.07232
296.22        34.55446
296.68        35.05535
297.13        35.62452
297.58        36.27269
298.04        36.94781
298.49        37.60419
298.95        38.17115
299.40        38.62552
299.85        39.00412
300.31        39.31855
300.76        39.52496
301.21         39.6655
301.67        39.76235
302.12         39.8764
302.58        40.23973
303.03        40.85334
303.48        41.54404
303.94        42.14668
304.39        42.99604
304.84        43.03928
305.30        43.15363
305.75        43.15847
306.20        43.31657
306.66         43.6786
307.11        44.15007
307.57        44.61562
308.02         44.8177
308.47        44.74176
308.93        44.48568
309.38        44.19038
309.83        44.12877
310.29        44.35635
310.74        44.77155
311.19        45.21077
311.65        45.41663
312.10        45.32352
312.55        45.02327
313.00        44.66445
313.46        44.47599
313.91        44.50113
314.36        44.66535
314.82        44.85383
315.27         44.9088
315.72        44.77286
316.18        44.51269
316.63        44.18294
317.08        43.87604
317.53          43.633
317.99        43.43704
318.44        43.27021
318.89        43.11413
319.35        42.95925
319.80        42.81007
320.25        42.69516
320.70        42.65608
321.16        42.67618
321.61        42.75282
322.06        42.79123
322.51         42.6526
322.97        42.31219
323.42        41.82484
323.87        41.30021
324.32        40.91814
324.78        40.71372
325.23        40.65776
325.68        40.66349
326.13        40.58554
326.59        40.37297
327.04        40.08829
327.49        39.78013
327.94        39.54334
328.39        39.39748
328.85        39.28297
329.30        39.18713
329.75         39.0286
330.20        38.79117
330.66        38.51248
331.11        38.22031
331.56        37.91956
332.01        37.62948
332.46        37.34732
332.92         37.1168
333.37        37.06427
333.82        37.18903
334.27        37.44652
334.72        37.73441
335.17        37.88081
335.63        37.82481
336.08        37.62848
336.53        37.31888
336.98        36.97517
337.43        36.64676
337.88        36.31812
338.34        36.04425
338.79        35.93118
339.24        35.97882
339.69        36.16546
340.14        36.38368
340.59        36.44483
341.05        36.30327
341.50         36.0108
341.95         35.6572
342.40        35.39775
342.85        35.27429
343.30        35.23139
343.75        35.22345
344.20        35.18051
344.66        35.08776
345.11        34.97176
345.56        34.83289
346.01        34.66054
346.46        34.47108
346.91        34.27244
347.36        34.11256
347.81        34.06831
348.26        34.14308
348.72        34.29608
349.17        34.47778
349.62        34.59571
350.07        34.61393
350.52        34.56197
350.97        34.43653
351.42        34.23248
351.87        33.97272
352.32        33.67273
352.77        33.40655
353.22         33.2952
353.67        33.35923
354.13        33.55132
354.58        33.80062
355.03        33.98857
355.48        34.06471
355.93         34.0528
356.38        33.94396
356.83        33.73001
357.28        33.42992
357.73        33.05696
358.18        32.67044
358.63        32.36748
359.08        32.17165
359.53        32.05746
359.98        31.99549
360.43        31.92966
360.88        31.83685
361.33        31.73558
361.78        31.60448
362.23        31.40997
362.68         31.1563
363.13        30.85385
363.58         30.5608
364.03        30.37321
364.48        30.30773
364.93        30.33169
365.38         30.3874
365.83        30.37898
366.28         30.2786
366.73        30.11715
367.18        29.91692
367.63        29.71436
368.08        29.52479
368.53        29.33251
368.98        29.15479
369.43        29.02119
369.88        28.93597
370.33         28.9002
370.78        28.87177
371.23        28.77781
371.68        28.60245
372.13        28.35902
372.58        28.10856
373.03        27.95281
373.48        27.90739
373.93        27.93572
374.38        27.95814
374.83        27.84494
375.28        27.57569
375.72        27.20135
376.17        26.82219
376.62         26.5295
377.07        26.34903
377.52        26.24334
377.97        26.20662
378.42         26.2293
378.87        26.29421
379.32         26.4038
379.77        26.50165
380.22        26.50491
380.67        26.39626
381.11         26.1816
381.56        25.93614
382.01        25.79077
382.46        25.77599
382.91        25.86315
383.36        25.94379
383.81        25.84877
384.26        25.55546
384.71        25.12388
385.15         24.6916
385.60         24.5015
386.05        24.58172
386.50        24.84263
386.95        25.13235
387.40        25.21485
387.85         25.0417
388.29        24.69235
388.74        24.30482
389.19        23.98896
389.64        23.78128
390.09        23.63505
390.54        23.55593
390.98        23.55479
391.43        23.62621
391.88        23.75965
392.33        23.88726
392.78         23.9328
393.23        23.88815
393.67        23.72133
394.12         23.5078
394.57        23.51628
395.02         23.4222
395.47        23.46963
395.91        23.52575
396.36        23.52704
396.81        23.46394
397.26         23.3662
397.71        23.25533
398.15        23.15075
398.60         23.0912
399.05        23.01623
399.50        22.93143
399.95        22.94724
400.39        22.94359
400.84        22.91208
401.29        22.81499
401.74        22.72625
402.18        22.65418
402.63        22.54239
403.08        22.43752
403.53        22.42761
403.97        22.51738
404.42        22.67607
404.87        22.82956
405.32        22.85852
405.76        22.73301
406.21        22.50215
406.66        22.23946
407.11        22.06275
407.55        22.01159
408.00        22.05141
408.45         22.1332
408.90        22.16347
409.34        22.11301
409.79        22.00882
410.24        21.91586
410.68        21.92954
411.13        22.06581
411.58        22.28959
412.03         22.5069
412.47        22.56512
412.92         22.4184
413.37        22.13165
413.81        21.81189
414.26        21.64738
414.71         21.6617
415.15         21.8073
415.60        21.98992
416.05        22.07192
416.49        22.01372
416.94        21.86488
417.39        21.68209
417.83        21.54986
418.28        21.49898
418.73        21.49146
419.17        21.51633
419.62        21.56174
420.07        21.61416
420.51        21.68042
420.96        21.73266
421.41        21.71255
421.85        21.61015
422.30        21.46338
422.74        21.31362
423.19        21.25924
423.64        21.30644
424.08        21.43742
424.53        21.59064
424.98        21.68655
425.42        21.70166
425.87        21.65569
426.31         21.5724
426.76        21.49687
427.21        21.38754
427.65        21.32244
428.10        21.28894
428.54        21.18771
428.99        21.03083
429.44         21.0084
429.88        21.05803
430.33        20.79376
430.77         20.3718
431.22         20.4757
431.66        21.03446
432.11        21.33926
432.56        21.29503
433.00        21.21284
433.45         21.1224
433.89        21.01118
434.34        20.92414
434.78        20.82433
435.23        20.72543
435.67        20.67052
436.12        20.67249
436.57        20.70964
437.01        20.77432
437.46        20.85005
437.90        20.92133
438.35        20.98642
438.79        21.04429
439.24        21.05911
439.68        21.05777
440.13        21.13344
440.57        21.22709
441.02         21.2408
441.46        21.16852
441.91        20.91274
442.35        20.59413
442.80        20.79557
443.24        21.34251
443.69        21.25742
444.13        20.61958
444.58        20.37236
445.02        20.52085
445.47        20.56353
445.91        20.47509
446.36        20.46592
446.80        20.52589
447.24        20.60312
447.69        20.68027
448.13         20.7289
448.58        20.74462
449.02        20.73595
449.47        20.72559
449.91        20.73499
450.36        20.77359
450.80        20.83176
451.25        20.89264
451.69        20.92387
452.13        20.91687
452.58        20.88964
453.02        20.85583
453.47        20.83372
453.91          20.824
454.36        20.88077
454.80        20.88749
455.24        20.90003
455.69        20.88753
456.13        20.85242
456.58        20.82049
457.02        20.81163
457.46        20.83406
457.91        20.87909
458.35        20.91806
458.79        20.91993
459.24        20.89284
459.68         20.8602
460.13        20.84873
460.57        20.80717
461.01        20.90064
461.46        20.91084
461.90          20.906
462.34        21.11762
462.79        21.44387
463.23        21.42928
463.68        21.11899
464.12        20.97646
464.56        21.02682
465.01        21.04618
465.45        21.00459
465.89        20.95124
466.34         20.9202
466.78        20.99557
467.22        21.20273
467.67        21.23998
468.11        21.11017
468.55        20.92869
468.99        20.76211
469.44           20.66
469.88        20.64416
470.32        20.70652
470.77        20.80514
471.21        20.88555
471.65        20.92227
472.10        20.93955
472.54        20.95146
472.98        20.99857
473.42        21.08706
473.87        21.19721
474.31        21.30202
474.75        21.37073
475.20        21.40058
475.64         21.3971
476.08        21.38153
476.52        21.36897
476.97        21.36664
477.41        21.38966
477.85        21.44637
478.29        21.43234
478.74        21.53598
479.18        21.59627
479.62        21.65732
480.06        21.74739
480.50        21.87267
480.95        21.83845
481.39        21.98417
481.83        22.06522
482.27        22.18551
482.72        22.32915
483.16        22.47497
483.60        22.59036
484.04        22.66485
484.48        22.70841
484.93        22.74942
485.37        22.85629
485.81        22.96633
486.25        23.08699
486.69         22.5269
487.14        22.82529
487.58        23.45181
488.02        23.50478
488.46        23.83132
488.90        24.16835
489.34        23.58555
489.79        23.64947
490.23        23.95317
490.67        24.29089
491.11        24.53482
491.55        24.50279
491.99        24.30071
492.43        24.36276
492.88        24.71749
493.32        25.07101
493.76        25.35824
494.20         25.6521
494.64        25.93445
495.08        26.16773
495.52        26.34238
495.96        26.48968
496.41        26.62021
496.85        26.65504
497.29        26.62024
497.73        26.83914
498.17        26.97612
498.61        27.08366
499.05        27.07605
499.49        27.11241
499.93        27.22454
500.37        27.42267
500.82        27.67331
501.26        27.86232
501.70        27.97268
502.14        28.07324
502.58        28.18721
503.02        28.31776
503.46         28.4731
503.90         28.6537
504.34        28.83813
504.78        28.99026
505.22        29.09888
505.66        29.16576
506.10        29.20657
506.54        29.28128
506.98        29.40528
507.42        29.50554
507.86        29.53248
508.30        29.74205
508.74        29.58508
509.18        29.51924
509.62        29.44452
510.06        29.47031
510.50        29.61172
510.94        29.84476
511.38        30.10105
511.82        30.25063
512.26         30.2609
512.70        30.16855
513.14        30.04289
513.58        29.99238
514.02        30.04527
514.46        30.16916
514.90        30.31136
515.34        30.38668
515.78        30.37308
516.22         30.3008
516.66        30.21788
517.10        30.19625
517.54        30.25137
517.98        30.35494
518.42         30.4638
518.86        30.51117
519.30        30.47969
519.74        30.39387
520.18        30.28627
520.62        30.20424
521.06        30.16491
521.50         30.1581
521.93         30.1724
522.37        30.18001
522.81        30.17617
523.25        30.16535
523.69        30.16217
524.13        30.18826
524.57        30.24198
525.01        30.30962
525.45        30.35687
525.89        30.33143
526.32        30.22075
526.76         30.0539
527.20        29.86789
527.64        29.72125
528.08        29.63037
528.52        29.57982
528.96        29.55238
529.40          29.519
529.83        29.46785
530.27         29.4126
530.71         29.3537
531.15        29.29411
531.59        29.23471
532.03        29.17028
532.46        29.10042
532.90        29.03778
533.34        28.98241
533.78        28.93606
534.22        28.89178
534.66        28.83716
535.09         28.7688
535.53        28.69862
535.97        28.63842
536.41        28.61433
536.85        28.63033
537.28         28.6768
537.72        28.73361
538.16        28.76914
538.60        28.77621
539.04        28.76824
539.47        28.75207
539.91        28.76572
540.35         28.8095
540.79        28.87772
541.22        28.96871
541.66        29.08452
542.10        29.21968
542.54        29.37797
542.97        29.54449
543.41        29.70059
543.85        29.84148
544.29        29.97606
544.72        30.10912
545.16        30.26945
545.60        30.45918
546.04        30.65625
546.47        30.85789
546.91        31.10743
547.35        31.37821
547.79         31.5662
548.22        31.66906
548.66         31.8543
549.10        32.13638
549.53        32.33627
549.97        32.39256
550.41        32.87534
550.84        32.79582
551.28        32.90904
551.72        32.94049
552.15        33.20581
552.59        33.29807
553.03        33.53362
553.46        33.77079
553.90         33.9748
554.34         34.1269
554.77        34.27755
555.21        34.42325
555.65        34.46817
556.08        34.44855
556.52        34.53083
556.96        34.71439
557.39        34.91619
557.83        35.12129
558.27        35.30251
558.70         35.4649
559.14        35.65957
559.57        35.84896
560.01        35.99129
560.45        36.07275
560.88        35.97307
561.32         35.9291
561.75        35.95104
562.19        36.08923
562.63        36.16995
563.06        36.18344
563.50        36.24845
563.93        36.34857
564.37        36.44044
564.80        36.51091
565.24        36.58099
565.68        36.65151
566.11        36.75217
566.55        36.88566
566.98        36.97892
567.42        37.07994
567.85        37.20959
568.29        37.36559
568.72        37.61145
569.16        37.98532
569.60        37.78046
570.03        38.16138
570.47        38.24758
570.90        38.38319
571.34        38.39799
571.77        38.60624
572.21        38.78923
572.64        38.98894
573.08        39.04864
573.51        39.03171
573.95         39.2079
574.38        39.63181
574.82        39.68736
