SpectraSmart Spectrum 2.9.0.0
--------- Device Information -----------
Spectrum Name :  反射率_0
Saving Time :  2024/04/30 01:18:49
Spectro-Module Model Name : SE2030-DUVN
Spectro-Module Serial Number : OS361AC55029948
Wavelength Start : 200
Wavelength End : 1025
Wavelength Unit : Wavelength(nm)
Spectrum Unit : Reflectance(%)
-----------Spectrum Setting ------------
Integration Time : 20ms
Average : 10
Boxcar : 0
Background removal :  enabled
linearity correction :  enabled
SC :  disabled
Intensity correction :  disabled
DWT denoise :  enabled
savitzky-golay :  disabled
FFT :  disabled
Running average :  disabled
Kalman :  disabled
High pass :  disabled
---------------BEGIN--------------------
Wavelength(nm)             Reflectance(%)
200.29               0
200.75        27.18381
201.21        11.38935
201.67       -5.366033
202.13       -16.39669
202.58       -18.65347
203.04       -12.04986
203.50        1.350321
203.96        15.65338
204.42        27.06187
204.88        35.54726
205.34        41.01221
205.80        44.22772
206.26        45.72738
206.72        45.60114
207.18        44.18112
207.64        41.67451
208.10        38.11358
208.55        33.30887
209.01        28.46459
209.47        27.03505
209.93        29.52572
210.39        34.39917
210.85        38.19891
211.31        37.64831
211.77        32.21336
212.23        21.10972
212.69         6.49874
213.14        1.339387
213.60        11.25896
214.06        28.19578
214.52        42.51496
214.98        48.44275
215.44        47.37194
215.90        41.88792
216.36        34.90613
216.81        31.90214
217.27        35.85711
217.73        46.36655
218.19        63.02565
218.65        78.16703
219.11        84.15652
219.57        82.34348
220.02         77.4304
220.48        73.91251
220.94        71.53773
221.40        68.60109
221.86         63.7155
222.32        56.43059
222.77        49.36176
223.23        45.28105
223.69        43.01149
224.15         40.7423
224.61        38.05202
225.06        34.88372
225.52        33.03225
225.98        35.66898
226.44        41.96479
226.90        48.92884
227.36        54.24436
227.81        56.76047
228.27        57.00573
228.73        55.55676
229.19        52.97314
229.65        50.66216
230.10        49.40847
230.56        48.96569
231.02         48.8181
231.48        48.45631
231.93        47.70076
232.39        46.76057
232.85        45.89877
233.31        45.64511
233.77        46.13124
234.22        47.30545
234.68        48.42636
235.14        48.23545
235.60        46.57131
236.05        43.93865
236.51        41.61533
236.97        41.22477
237.43        43.17576
237.88        47.51766
238.34        53.56998
238.80        58.76384
239.26        60.91198
239.71        60.37635
240.17        58.13276
240.63        56.10405
241.08        54.81376
241.54        53.27021
242.00        51.74239
242.46        52.07508
242.91        55.99817
243.37        63.18266
243.83        69.62365
244.28        71.28512
244.74        67.69987
245.20        58.67747
245.66        47.04207
246.11        40.53658
246.57        43.61772
247.03        55.58799
247.48        71.04558
247.94        76.30447
248.40        70.08839
248.85        59.64738
249.31        52.52679
249.77        52.77262
250.22         60.6072
250.68        77.08083
251.14        101.8453
251.59        115.2897
252.05        103.9118
252.51        83.77263
252.96        67.88557
253.42        59.89831
253.88        56.84996
254.33        55.97177
254.79        56.57651
255.25         57.1272
255.70        56.89869
256.16        56.82776
256.62        56.69919
257.07        56.21832
257.53        55.74254
257.99        55.12707
258.44        54.27627
258.90        53.79099
259.35        53.38575
259.81        53.21613
260.27        53.12432
260.72        53.03187
261.18        53.04327
261.63        52.90055
262.09        52.62633
262.55        51.94552
263.00        50.86351
263.46        49.71854
263.91        48.49149
264.37        47.41908
264.83         46.4425
265.28        45.45729
265.74        44.63385
266.19        44.01444
266.65        43.66108
267.11        43.50658
267.56          43.371
268.02        42.98979
268.47        42.29281
268.93        41.36119
269.38        40.34861
269.84        39.64238
270.30        39.31109
270.75        39.22152
271.21        39.16654
271.66        38.81629
272.12        38.10852
272.57        37.13749
273.03        36.07085
273.48        35.08916
273.94        34.32625
274.39        33.68544
274.85        33.17509
275.31         32.7306
275.76        32.29795
276.22          31.915
276.67        31.53026
277.13        31.15439
277.58        30.74262
278.04        30.34646
278.49        29.89783
278.95        29.39913
279.40        28.82335
279.86        28.24593
280.31        27.71988
280.77        27.44068
281.22        27.37685
281.68        27.48153
282.13        27.61055
282.59        27.61324
283.04        27.43272
283.50        27.12016
283.95        26.71224
284.41        26.28594
284.86         25.8653
285.32         25.4716
285.77        25.07752
286.22        24.71149
286.68        24.39066
287.13        24.08727
287.59        23.84762
288.04        23.67831
288.50        23.59011
288.95        23.54495
289.41        23.50384
289.86        23.37215
290.32        23.15928
290.77        22.89325
291.22        22.63197
291.68        22.46488
292.13        22.40895
292.59        22.45477
293.04        22.61434
293.50        22.92878
293.95          23.384
294.40        23.96923
294.86        24.57776
295.31        25.05981
295.77        25.37647
296.22        25.55291
296.68        25.70504
297.13         25.9977
297.58        26.47249
298.04        27.04711
298.49        27.61141
298.95        27.98857
299.40        28.13857
299.85        28.12863
300.31        28.05261
300.76        27.99767
301.21        28.02524
301.67        28.11594
302.12        28.22507
302.58        28.42217
303.03        28.69597
303.48        28.89704
303.94        28.98852
304.39        29.65731
304.84        29.64553
305.30        29.93938
305.75        30.14161
306.20        30.28427
306.66        30.36504
307.11        30.38371
307.57        30.35588
308.02        30.23413
308.47        30.03734
308.93        29.79314
309.38        29.54218
309.83         29.3913
310.29        29.36165
310.74         29.4245
311.19        29.50751
311.65        29.48905
312.10        29.34021
312.55        29.09522
313.00         28.8377
313.46        28.69874
313.91        28.69203
314.36        28.77449
314.82        28.85393
315.27        28.80478
315.72         28.5862
316.18        28.24983
316.63        27.85843
317.08        27.52135
317.53         27.2789
317.99        27.11083
318.44        26.98067
318.89        26.83367
319.35         26.6528
319.80        26.45281
320.25        26.27769
320.70        26.19464
321.16         26.2022
321.61        26.28749
322.06        26.35705
322.51        26.26918
322.97        25.99484
323.42        25.58282
323.87        25.14484
324.32        24.86144
324.78         24.7675
325.23        24.82377
325.68        24.92395
326.13        24.88854
326.59        24.66399
327.04        24.31952
327.49        23.94089
327.94        23.67678
328.39        23.56401
328.85        23.53834
329.30        23.55403
329.75        23.49792
330.20        23.33729
330.66         23.1196
331.11        22.87016
331.56        22.60286
332.01        22.33656
332.46        22.05756
332.92        21.82104
333.37        21.75088
333.82        21.85793
334.27        22.10824
334.72        22.38046
335.17        22.46674
335.63        22.31151
336.08        21.97907
336.53        21.56511
336.98         21.2546
337.43        21.11091
337.88        21.07673
338.34        21.11404
338.79        21.18061
339.24        21.24362
339.69        21.33386
340.14        21.40606
340.59        21.37943
341.05        21.24568
341.50        21.01277
341.95        20.77866
342.40        20.71084
342.85        20.83512
343.30        21.09775
343.75        21.36265
344.20        21.41018
344.66        21.20312
345.11        20.81064
345.56        20.36563
346.01         20.0772
346.46        20.00747
346.91        20.08999
347.36        20.24722
347.81        20.36631
348.26        20.40483
348.72        20.38764
349.17        20.33512
349.62        20.27972
350.07        20.23239
350.52        20.18513
350.97         20.1043
351.42        19.94145
351.87        19.70527
352.32        19.43101
352.77        19.20483
353.22        19.15953
353.67        19.31727
354.13        19.62151
354.58        19.98399
355.03        20.26435
355.48        20.40709
355.93        20.44157
356.38        20.37859
356.83        20.24093
357.28        20.05271
357.73        19.81583
358.18        19.56715
358.63        19.36969
359.08         19.2374
359.53        19.15331
359.98        19.10721
360.43        19.07215
360.88        19.03495
361.33        19.01193
361.78        18.96148
362.23        18.81775
362.68        18.58218
363.13        18.27556
363.58        17.99679
364.03        17.90577
364.48         18.0256
364.93        18.29724
365.38        18.60172
365.83        18.74516
366.28        18.67656
366.73        18.45897
367.18        18.16634
367.63        17.91808
368.08        17.75594
368.53        17.64103
368.98        17.57001
369.43        17.53843
369.88        17.53606
370.33        17.57478
370.78        17.61518
371.23        17.58516
371.68        17.46989
372.13        17.28061
372.58        17.07339
373.03        16.94585
373.48        16.91689
373.93        16.95473
374.38        16.99894
374.83        16.94875
375.28        16.78576
375.72        16.55054
376.17        16.30985
376.62        16.12333
377.07        16.00952
377.52        15.94192
377.97        15.92431
378.42        15.96375
378.87        16.04885
379.32        16.17502
379.77        16.29072
380.22        16.32036
380.67        16.24932
381.11        16.08897
381.56        15.90208
382.01        15.79396
382.46        15.79225
382.91        15.87399
383.36        15.96328
383.81        15.94202
384.26        15.79143
384.71        15.54935
385.15        15.30543
385.60        15.22381
386.05        15.31751
386.50         15.5234
386.95        15.73031
387.40        15.76613
387.85        15.60236
388.29        15.30553
388.74         14.9829
389.19        14.72561
389.64        14.56191
390.09        14.45086
390.54        14.40461
390.98        14.44352
391.43        14.55565
391.88        14.72754
392.33        14.87578
392.78        14.89524
393.23        14.77967
393.67        14.53247
394.12        14.25335
394.57        14.18196
395.02        14.13755
395.47        14.24334
395.91        14.37936
396.36        14.43548
396.81        14.38442
397.26        14.26546
397.71        14.12013
398.15        14.00027
398.60        13.94219
399.05        13.89655
399.50        13.84855
399.95        13.83942
400.39        13.79247
400.84        13.71208
401.29        13.60128
401.74        13.54752
402.18         13.5631
402.63        13.59443
403.08        13.63202
403.53        13.67346
403.97         13.7092
404.42        13.73872
404.87        13.73866
405.32        13.67272
405.76        13.53632
406.21        13.34912
406.66        13.15843
407.11        13.04015
407.55        13.01613
408.00        13.06781
408.45        13.14478
408.90         13.1519
409.34        13.06335
409.79         12.9064
410.24         12.7535
410.68        12.71416
411.13        12.80815
411.58        12.99797
412.03        13.19307
412.47        13.24276
412.92        13.10333
413.37        12.83896
413.81        12.54481
414.26        12.38148
414.71        12.37269
415.15        12.47447
415.60        12.61701
416.05         12.7001
416.49        12.69067
416.94        12.62679
417.39        12.53507
417.83        12.45367
418.28        12.40169
418.73        12.35433
419.17        12.32343
419.62        12.33229
420.07        12.37759
420.51        12.45461
420.96           12.52
421.41        12.49704
421.85        12.37474
422.30        12.19494
422.74        12.00989
423.19        11.91716
423.64        11.92893
424.08         12.0209
424.53        12.14199
424.98        12.22577
425.42        12.24723
425.87        12.21597
426.31        12.14369
426.76         12.0699
427.21        11.96692
427.65        11.84983
428.10        11.72871
428.54        11.60332
428.99        11.49272
429.44        11.47556
429.88        11.51572
430.33        11.40941
430.77        11.22883
431.22        11.34135
431.66        11.69867
432.11        11.85077
432.56        11.73137
433.00        11.60668
433.45        11.50256
433.89        11.22035
434.34        10.91569
434.78        10.99882
435.23        11.36838
435.67        11.50264
436.12        11.36149
436.57        11.22525
437.01        11.16186
437.46        11.16908
437.90        11.26221
438.35        11.42497
438.79        11.59234
439.24        11.64345
439.68        11.57205
440.13         11.4634
440.57         11.3327
441.02        11.21421
441.46        11.13207
441.91        11.00093
442.35        10.86244
442.80        11.00876
443.24        11.33234
443.69        11.29397
444.13        10.93966
444.58        10.80365
445.02        10.88923
445.47        10.90907
445.91        10.84936
446.36         10.8347
446.80        10.86084
447.24        10.89964
447.69        10.93772
448.13        10.95612
448.58        10.95038
449.02        10.92659
449.47        10.90329
449.91        10.90235
450.36        10.92984
450.80        10.98011
451.25        11.03044
451.69        11.04464
452.13        11.01512
452.58        10.95976
453.02        10.90503
453.47        10.89356
453.91           10.93
454.36        11.02956
454.80        11.10957
455.24        11.16478
455.69        11.16941
456.13        11.13629
456.58        11.08889
457.02        11.05253
457.46        11.03917
457.91        11.03809
458.35        11.04181
458.79        11.04256
459.24        11.04589
459.68        11.06219
460.13        11.09306
460.57        11.08558
461.01        11.12551
461.46        11.10149
461.90        11.07113
462.34        11.18566
462.79         11.3981
463.23        11.45852
463.68        11.36674
464.12        11.33845
464.56        11.37908
465.01        11.37638
465.45        11.33203
465.89        11.29927
466.34        11.30201
466.78        11.37939
467.22        11.52712
467.67        11.55008
468.11         11.4431
468.55        11.28127
468.99        11.13126
469.44        11.06548
469.88        11.10387
470.32        11.22838
470.77        11.38275
471.21        11.48845
471.65        11.51522
472.10        11.49233
472.54        11.45143
472.98        11.45643
473.42        11.52091
473.87        11.61937
474.31        11.71915
474.75        11.77286
475.20        11.77474
475.64        11.74128
476.08          11.699
476.52        11.68447
476.97        11.70815
477.41        11.75367
477.85        11.81682
478.29         11.8892
478.74        11.96733
479.18        12.04751
479.62        12.11034
480.06        12.15645
480.50        12.18993
480.95        12.09954
481.39        12.10086
481.83        12.12873
482.27         12.2581
482.72        12.36897
483.16        12.57967
483.60        12.68364
484.04        12.71974
484.48        12.65464
484.93        12.56052
485.37        12.70179
485.81        12.97941
486.25        13.04941
486.69        12.49669
487.14        12.71415
487.58        13.43187
488.02        13.43484
488.46        13.42532
488.90        13.89983
489.34        13.21436
489.79        13.24313
490.23        13.40245
490.67         13.6712
491.11         13.9248
491.55        13.91765
491.99        13.73597
492.43        13.77904
492.88        14.06717
493.32        14.32381
493.76        14.49298
494.20        14.64706
494.64        14.77835
495.08        14.85931
495.52        14.90368
495.96        14.97865
496.41        15.10098
496.85        15.16465
497.29        15.18032
497.73        15.43779
498.17        15.68785
498.61        15.70101
499.05         15.4703
499.49        15.39101
499.93        15.50358
500.37         15.6534
500.82         15.8031
501.26        15.93038
501.70        16.01988
502.14        16.10404
502.58        16.19933
503.02        16.31042
503.46        16.44187
503.90        16.59032
504.34         16.7442
504.78         16.8841
505.22        17.00044
505.66        17.09169
506.10        17.15468
506.54        17.20589
506.98        17.25187
507.42        17.25668
507.86        17.20828
508.30        17.28209
508.74        17.16832
509.18        17.12989
509.62        17.09839
510.06        17.11955
510.50        17.19771
510.94        17.32331
511.38        17.46934
511.82        17.58022
512.26        17.63824
512.70        17.65459
513.14        17.64701
513.58        17.64571
514.02        17.66128
514.46        17.68631
514.90        17.71193
515.34        17.72489
515.78        17.72292
516.22        17.71215
516.66        17.70709
517.10        17.72827
517.54        17.77646
517.98        17.84105
518.42        17.89878
518.86        17.91317
519.30        17.87684
519.74        17.80437
520.18        17.71608
520.62        17.64237
521.06        17.59559
521.50        17.57065
521.93         17.5675
522.37        17.57961
522.81         17.6036
523.25        17.63676
523.69        17.67459
524.13        17.71028
524.57        17.73804
525.01        17.75507
525.45        17.74978
525.89        17.70645
526.32        17.62421
526.76        17.51693
527.20         17.4039
527.64         17.3155
528.08         17.2592
528.52        17.22607
528.96        17.20902
529.40        17.19453
529.83        17.17602
530.27        17.16197
530.71        17.14179
531.15         17.1009
531.59         17.0388
532.03        16.95729
532.46        16.87965
532.90         16.8491
533.34        16.87123
533.78        16.93511
534.22        17.00514
534.66        17.02587
535.09        16.98553
535.53        16.90625
535.97        16.82457
536.41         16.8049
536.85         16.8599
537.28        16.96587
537.72        17.08223
538.16        17.14836
538.60        17.14893
539.04        17.10851
539.47        17.04795
539.91        17.01537
540.35        17.02118
540.79        17.05817
541.22        17.12312
541.66         17.2146
542.10         17.3261
542.54        17.45732
542.97        17.60441
543.41        17.76052
543.85        17.91987
544.29        18.08271
544.72        18.22693
545.16        18.33452
545.60        18.40289
546.04        18.43267
546.47        18.45856
546.91        18.56522
547.35        18.75026
547.79         18.9329
548.22        19.08217
548.66         19.2518
549.10        19.43912
549.53        19.55118
549.97        19.56358
550.41        19.83953
550.84        19.78922
551.28        19.85913
551.72        19.88584
552.15        20.06566
552.59        20.15078
553.03        20.33323
553.46        20.51406
553.90        20.64941
554.34        20.72529
554.77        20.77816
555.21        20.82617
555.65        20.84293
556.08         20.8562
556.52        20.95633
556.96        21.12283
557.39        21.27442
557.83        21.39486
558.27        21.47816
558.70        21.54195
559.14        21.63993
559.57         21.7565
560.01        21.85716
560.45        21.92707
560.88         21.8832
561.32        21.86668
561.75        21.88949
562.19        21.98249
562.63        22.03823
563.06        22.05113
563.50        22.09158
563.93        22.15781
564.37        22.23601
564.80        22.31931
565.24        22.41762
565.68        22.51476
566.11         22.6009
566.55        22.67465
566.98        22.70506
567.42        22.74505
567.85        22.83469
568.29        22.98384
568.72        23.23448
569.16         23.5729
569.60        23.52589
570.03        23.81824
570.47        23.85014
570.90        23.82699
571.34         24.0343
571.77        24.05102
572.21        24.16509
572.64        24.22437
573.08        24.38656
573.51        24.68957
573.95        24.60151
574.38         24.8158
574.82        24.98875
