SpectraSmart Spectrum 2.9.0.0
--------- Device Information -----------
Spectrum Name :  反射率_0
Saving Time :  2024/04/30 01:20:45
Spectro-Module Model Name : SE2030-DUVN
Spectro-Module Serial Number : OS361AC55029948
Wavelength Start : 200
Wavelength End : 1025
Wavelength Unit : Wavelength(nm)
Spectrum Unit : Reflectance(%)
-----------Spectrum Setting ------------
Integration Time : 20ms
Average : 10
Boxcar : 0
Background removal :  enabled
linearity correction :  enabled
SC :  disabled
Intensity correction :  disabled
DWT denoise :  enabled
savitzky-golay :  disabled
FFT :  disabled
Running average :  disabled
Kalman :  disabled
High pass :  disabled
---------------BEGIN--------------------
Wavelength(nm)             Reflectance(%)
200.29               0
200.75        73.57623
201.21        60.22742
201.67        45.05597
202.13        32.16213
202.58         23.7296
203.04        18.67328
203.50        19.26509
203.96        29.58469
204.42        49.20855
204.88        75.73214
205.34        97.39577
205.80        98.40708
206.26        82.49422
206.72        61.01283
207.18        42.65334
207.64         32.3348
208.10        28.62759
208.55        28.51458
209.01         31.3204
209.47        35.99257
209.93        40.84769
210.39        45.95342
210.85        49.60095
211.31        50.44298
211.77        48.53586
212.23        42.95229
212.69        35.24652
213.14        33.85448
213.60        41.35001
214.06        52.91879
214.52        61.83999
214.98        63.74513
215.44        59.80048
215.90         51.9279
216.36        43.40611
216.81        40.69121
217.27        47.28234
217.73        63.42123
218.19        88.34169
218.65        110.1093
219.11         117.579
219.57        112.9767
220.02        104.4829
220.48        99.55589
220.94        98.00548
221.40        97.94716
221.86        96.85595
222.32        90.39034
222.77        80.17896
223.23        71.69332
223.69        66.64027
224.15        64.91539
224.61        65.58575
225.06        68.05732
225.52        71.71675
225.98        74.38981
226.44        75.14427
226.90         74.8089
227.36        74.28432
227.81        74.32869
228.27        75.11787
228.73        76.20979
229.19        77.46381
229.65        78.43326
230.10        78.78107
230.56        79.00421
231.02        78.89701
231.48        78.28886
231.93        77.15777
232.39        75.59527
232.85        74.11462
233.31        73.83041
233.77        75.02824
234.22        77.60715
234.68        80.34326
235.14        81.07218
235.60        79.32006
236.05        75.76922
236.51        72.26759
236.97        71.18047
237.43        73.07819
237.88         78.0015
238.34        84.64678
238.80        89.16542
239.26        88.86893
239.71        84.71811
240.17        79.06207
240.63        75.29158
241.08        74.29321
241.54        75.34562
242.00        78.89827
242.46        83.69831
242.91        87.42498
243.37        89.46078
243.83        89.82333
244.28        89.20107
244.74        87.64898
245.20        83.83765
245.66        79.15245
246.11         77.5641
246.57        80.96579
247.03        89.93098
247.48        98.98136
247.94        96.18546
248.40        83.39251
248.85        68.28226
249.31        58.46816
249.77        57.24911
250.22        64.28536
250.68        80.84162
251.14        106.5789
251.59         120.987
252.05        109.8305
252.51        89.34692
252.96         73.7254
253.42        67.62052
253.88        68.00564
254.33        71.98843
254.79        77.47319
255.25        79.61433
255.70         77.5834
256.16        74.69077
256.62        72.53408
257.07         71.9971
257.53        73.17141
257.99        75.06463
258.44        76.63866
258.90        77.27618
259.35        76.49086
259.81        75.30674
260.27        74.06849
260.72        73.06722
261.18         72.5276
261.63         71.9718
262.09        71.34863
262.55        70.20065
263.00         68.5546
263.46        66.92271
263.91        65.39703
264.37        64.46244
264.83        63.99443
265.28         63.7453
265.74        63.70428
266.19         63.5752
266.65        63.36112
267.11        63.07308
267.56        62.64889
268.02        62.03363
268.47        61.18802
268.93        60.13704
269.38        58.97275
269.84        57.98767
270.30        57.25522
270.75        56.71635
271.21        56.24939
271.66        55.59018
272.12         54.6987
272.57        53.61216
273.03        52.49094
273.48        51.48612
273.94        50.71897
274.39         50.0758
274.85        49.51511
275.31        48.85934
275.76        48.04976
276.22        47.18956
276.67        46.32158
277.13        45.64813
277.58        45.11961
278.04        44.72692
278.49        44.28536
278.95        43.67142
279.40        42.81517
279.86        41.87901
280.31        40.92912
280.77        40.21437
281.22        39.72743
281.68        39.42852
282.13        39.22892
282.59        39.09489
283.04        38.94245
283.50        38.77867
283.95        38.51139
284.41        38.04191
284.86         37.3555
285.32        36.56464
285.77        35.71098
286.22        34.94372
286.68        34.32285
287.13        33.77744
287.59        33.38285
288.04        33.17636
288.50        33.16016
288.95        33.26723
289.41        33.38018
289.86        33.26733
290.32        32.91617
290.77         32.3809
291.22        31.78782
291.68        31.34611
292.13        31.10663
292.59        31.03645
293.04        31.10216
293.50        31.28644
293.95        31.55858
294.40        31.94231
294.86        32.36717
295.31        32.73396
295.77         33.0201
296.22          33.232
296.68        33.46245
297.13        33.83813
297.58        34.38928
298.04        35.04536
298.49        35.70618
298.95        36.21659
299.40        36.53551
299.85        36.71878
300.31         36.8479
300.76        36.98629
301.21          37.189
301.67        37.44081
302.12        37.69925
302.58        38.04364
303.03        38.45346
303.48        38.79832
303.94        39.03686
304.39        39.72923
304.84        39.79943
305.30        40.10967
305.75        40.32577
306.20        40.49854
306.66        40.64159
307.11        40.74214
307.57        40.82575
308.02        40.84445
308.47        40.81529
308.93        40.75459
309.38        40.68351
309.83        40.68803
310.29        40.77947
310.74        40.92903
311.19        41.05336
311.65         41.0153
312.10         40.7888
312.55         40.4231
313.00        40.04491
313.46        39.85147
313.91        39.87083
314.36        40.04483
314.82        40.24386
315.27        40.27951
315.72        40.09064
316.18        39.74586
316.63        39.32966
317.08        38.98698
317.53          38.769
317.99        38.64317
318.44        38.55607
318.89        38.43229
319.35        38.24647
319.80        38.01586
320.25        37.80229
320.70        37.70034
321.16        37.71006
321.61        37.81805
322.06        37.89109
322.51        37.72504
322.97        37.28434
323.42        36.64488
323.87        35.98476
324.32        35.58736
324.78        35.50798
325.23        35.68471
325.68        35.94655
326.13        36.00154
326.59        35.76031
327.04        35.32644
327.49        34.83592
327.94         34.5275
328.39        34.45948
328.85        34.52674
329.30         34.6498
329.75        34.63824
330.20        34.43502
330.66        34.11683
331.11        33.73136
331.56         33.3173
332.01        32.91027
332.46        32.48822
332.92        32.12683
333.37         32.0036
333.82        32.13311
334.27        32.47337
334.72        32.85668
335.17        32.99239
335.63        32.79705
336.08        32.35846
336.53         31.8119
336.98        31.41883
337.43        31.26806
337.88        31.28433
338.34        31.39194
338.79        31.49081
339.24         31.5307
339.69        31.55342
340.14        31.55783
340.59        31.53271
341.05        31.48401
341.50        31.40288
341.95        31.30606
342.40        31.23883
342.85        31.20597
343.30        31.18458
343.75        31.16163
344.20        31.11466
344.66        31.04522
345.11         30.9658
345.56        30.84851
346.01        30.64411
346.46        30.36667
346.91        30.04246
347.36        29.77496
347.81        29.71864
348.26        29.89084
348.72         30.2338
349.17        30.62334
349.62        30.84234
350.07         30.8258
350.52        30.63744
350.97        30.36806
351.42        30.15833
351.87        30.05631
352.32        30.02684
352.77        30.04252
353.22        30.06173
353.67        30.06647
354.13        30.06553
354.58        30.07853
355.03        30.13188
355.48        30.21559
355.93        30.30431
356.38         30.3321
356.83        30.20563
357.28        29.91809
357.73        29.51293
358.18        29.07142
358.63        28.72035
359.08        28.49544
359.53        28.36066
359.98        28.28072
360.43         28.1944
360.88        28.07845
361.33        27.95639
361.78        27.81875
362.23        27.64754
362.68        27.44719
363.13        27.22074
363.58        27.00536
364.03        26.86405
364.48        26.80785
364.93        26.81626
365.38        26.85006
365.83        26.84533
366.28        26.78039
366.73        26.66828
367.18        26.52624
367.63        26.38362
368.08        26.24837
368.53        26.11069
368.98        25.96084
369.43        25.78317
369.88        25.58191
370.33        25.37665
370.78        25.18375
371.23        25.02723
371.68        24.91188
372.13        24.81792
372.58        24.75172
373.03        24.72478
373.48        24.72294
373.93        24.73637
374.38         24.6995
374.83        24.50802
375.28        24.16195
375.72        23.71132
376.17        23.27633
376.62        22.98365
377.07        22.86233
377.52        22.86378
377.97         22.9599
378.42        23.09995
378.87        23.24441
379.32        23.39595
379.77        23.49707
380.22        23.46584
380.67        23.29229
381.11        22.99265
381.56        22.64571
382.01        22.38974
382.46        22.26937
382.91        22.26019
383.36        22.29369
383.81        22.25773
384.26        22.12673
384.71        21.93211
385.15        21.73848
385.60        21.67208
386.05        21.73848
386.50        21.89029
386.95        22.02874
387.40        22.00649
387.85        21.80306
388.29        21.46548
388.74        21.12675
389.19        20.89974
389.64        20.80936
390.09        20.81207
390.54         20.8597
390.98        20.87018
391.43        20.82746
391.88        20.75926
392.33        20.67877
392.78         20.6221
393.23        20.59658
393.67        20.53452
394.12        20.45468
394.57        20.52279
395.02        20.43732
395.47        20.43608
395.91        20.41437
396.36        20.33547
396.81        20.20543
397.26        20.04377
397.71        19.88757
398.15        19.78166
398.60        19.75934
399.05        19.75929
399.50        19.75614
399.95        19.79974
400.39        19.77752
400.84        19.69349
401.29        19.53933
401.74        19.42393
402.18         19.3679
402.63        19.30785
403.08        19.26308
403.53         19.2767
403.97        19.34573
404.42        19.45811
404.87         19.5593
405.32        19.56082
405.76        19.44078
406.21        19.23034
406.66        18.99902
407.11        18.86022
407.55        18.84555
408.00        18.92362
408.45        19.02015
408.90        18.99893
409.34        18.82899
409.79        18.55813
410.24        18.29688
410.68         18.2073
411.13         18.3208
411.58        18.58411
412.03         18.8794
412.47        19.00735
412.92        18.90285
413.37        18.64153
413.81        18.33106
414.26        18.15858
414.71        18.15139
415.15        18.25608
415.60        18.39157
416.05        18.44461
416.49        18.38137
416.94        18.24898
417.39        18.08645
417.83        17.94734
418.28        17.85737
418.73        17.79005
419.17        17.75518
419.62        17.77297
420.07        17.83594
420.51        17.93624
420.96        18.02939
421.41        18.03396
421.85        17.93355
422.30        17.77338
422.74        17.59668
423.19        17.49731
423.64        17.48717
424.08        17.54822
424.53        17.63885
424.98        17.71556
425.42        17.76122
425.87        17.77433
426.31        17.75632
426.76          17.738
427.21        17.66478
427.65        17.55961
428.10        17.43006
428.54         17.2667
428.99         17.0964
429.44          17.046
429.88        17.06193
430.33        16.84083
430.77        16.50069
431.22        16.58496
431.66        17.04917
432.11        17.30421
432.56        17.26309
433.00        17.28032
433.45         17.3347
433.89        17.06436
434.34        16.63823
434.78        16.61229
435.23        16.91558
435.67        16.98677
436.12        16.80446
436.57        16.68908
437.01         16.6829
437.46        16.71043
437.90        16.77297
438.35        16.88103
438.79        16.99264
439.24        17.01289
439.68        16.95115
440.13        16.90165
440.57        16.85094
441.02        16.78626
441.46        16.72048
441.91        16.54398
442.35        16.33173
442.80        16.54103
443.24        17.01699
443.69        16.94231
444.13        16.39322
444.58        16.18087
445.02        16.31281
445.47        16.35839
445.91         16.2903
446.36        16.27975
446.80        16.31788
447.24        16.36641
447.69        16.41496
448.13        16.44639
448.58         16.4583
449.02        16.45469
449.47        16.45443
449.91        16.47716
450.36        16.52646
450.80        16.59048
451.25        16.64602
451.69        16.65305
452.13        16.60349
452.58        16.52235
453.02        16.42539
453.47        16.33614
453.91        16.26171
454.36        16.24195
454.80        16.20465
455.24        16.22078
455.69        16.26593
456.13        16.33104
456.58        16.39675
457.02          16.417
457.46        16.38844
457.91        16.32454
458.35        16.24393
458.79        16.18411
459.24        16.16573
459.68        16.18565
460.13        16.23904
460.57         16.2437
461.01         16.3175
461.46         16.3037
461.90        16.26965
462.34        16.41371
462.79        16.66224
463.23        16.65343
463.68        16.41771
464.12         16.3106
464.56        16.34943
465.01        16.36353
465.45        16.32773
465.89        16.27695
466.34         16.2374
466.78        16.27382
467.22        16.41058
467.67        16.42364
468.11        16.31792
468.55         16.1819
468.99        16.05932
469.44        15.97514
469.88        15.94387
470.32        15.96419
470.77        16.01584
471.21        16.07894
471.65        16.13647
472.10        16.20006
472.54        16.26325
472.98        16.33318
473.42         16.4082
473.87        16.47874
474.31         16.5373
474.75        16.57984
475.20        16.61001
475.64        16.62575
476.08        16.62967
476.52        16.62177
476.97        16.60599
477.41        16.58191
477.85        16.56792
478.29        16.59033
478.74         16.6578
479.18        16.75135
479.62        16.84165
480.06        16.92288
480.50        16.99712
480.95        16.91784
481.39        16.96784
481.83        17.01806
482.27        17.16498
482.72        17.25015
483.16        17.48184
483.60        17.60318
484.04        17.65412
484.48         17.6997
484.93        17.78784
485.37        17.81095
485.81        17.73099
486.25        18.12141
486.69        17.69329
487.14        17.84651
487.58        18.33848
488.02        18.13946
488.46        18.61369
488.90        18.54456
489.34        18.22008
489.79        18.12686
490.23        18.25123
490.67        18.56473
491.11        18.92783
491.55        18.94727
491.99        18.69956
492.43        18.73922
492.88        19.08908
493.32        19.39409
493.76        19.58896
494.20        19.76828
494.64        19.92345
495.08        20.02211
495.52        20.07345
495.96        20.14894
496.41        20.26903
496.85        20.29937
497.29        20.26529
497.73        20.56792
498.17        20.87882
498.61        20.88901
499.05        20.58605
499.49        20.49038
499.93        20.65175
500.37        20.86263
500.82        21.07123
501.26        21.24462
501.70        21.35942
502.14        21.45639
502.58        21.55223
503.02        21.64632
503.46        21.74544
503.90        21.85073
504.34        21.95655
504.78        22.05244
505.22        22.13479
505.66        22.20386
506.10        22.25678
506.54        22.31378
506.98        22.38139
507.42        22.41044
507.86        22.38352
508.30        22.52713
508.74        22.43093
509.18         22.4303
509.62        22.42387
510.06        22.45444
510.50        22.52587
510.94        22.63519
511.38        22.75553
511.82        22.82942
512.26        22.84459
512.70        22.81485
513.14        22.77803
513.58        22.79452
514.02        22.87566
514.46        23.00048
514.90        23.12703
515.34        23.18745
515.78        23.16499
516.22        23.08314
516.66        22.97995
517.10        22.91391
517.54        22.90149
517.98        22.92466
518.42         22.9611
518.86        22.97494
519.30        22.95574
519.74         22.9175
520.18        22.87373
520.62         22.8421
521.06        22.82973
521.50         22.8326
521.93        22.84509
522.37        22.85261
522.81        22.85347
523.25        22.84736
523.69        22.84594
524.13        22.86774
524.57        22.91106
525.01        22.96525
525.45        23.00095
525.89        22.97237
526.32        22.86962
526.76         22.7178
527.20        22.54917
527.64        22.41381
528.08        22.32694
528.52        22.27692
528.96        22.25109
529.40        22.22775
529.83        22.19719
530.27        22.16816
530.71          22.141
531.15         22.1179
531.59        22.09789
532.03         22.0763
532.46        22.04622
532.90        22.00665
533.34        21.95793
533.78        21.90643
534.22         21.8581
534.66        21.82098
535.09        21.79524
535.53        21.78248
535.97        21.78329
536.41        21.80462
536.85        21.84261
537.28        21.89206
537.72        21.93321
538.16        21.93718
538.60        21.90101
539.04        21.84079
539.47        21.77168
539.91        21.73758
540.35         21.7456
540.79        21.79214
541.22        21.87635
541.66        21.99951
542.10        22.15215
542.54        22.32884
542.97         22.5167
543.41        22.69812
543.85        22.86542
544.29        23.02641
544.72        23.16105
545.16        23.25801
545.60        23.31757
546.04         23.3336
546.47        23.35581
546.91        23.49914
547.35        23.75897
547.79        24.03338
548.22        24.25496
548.66        24.45049
549.10        24.61139
549.53         24.6297
549.97        24.52314
550.41          24.827
550.84        24.81726
551.28         25.0266
551.72        25.18732
552.15        25.44935
552.59        25.48045
553.03        25.55949
553.46        25.61847
553.90        25.69061
554.34        25.78023
554.77        25.90269
555.21        26.04639
555.65        26.12459
556.08          26.154
556.52        26.26721
556.96        26.44948
557.39         26.6097
557.83         26.7331
558.27        26.81233
558.70        26.87695
559.14        26.97078
559.57         27.1367
560.01        27.28245
560.45         27.3954
560.88        27.35036
561.32        27.32052
561.75        27.32496
562.19        27.41459
562.63        27.47759
563.06        27.51119
563.50        27.59616
563.93        27.71329
564.37        27.82013
564.80        27.90216
565.24        27.97846
565.68        28.04868
566.11        28.13092
566.55        28.22963
566.98        28.29871
567.42        28.37925
567.85        28.48307
568.29        28.61778
568.72        28.84938
569.16        29.19287
569.60        29.11317
570.03        29.51229
570.47        29.62333
570.90        29.67148
571.34        29.96964
571.77        29.97048
572.21         30.0938
572.64        30.17452
573.08        30.31731
573.51        30.53037
573.95        30.61766
574.38        30.74855
574.82         30.8156
