SpectraSmart Spectrum 2.9.0.0
--------- Device Information -----------
Spectrum Name :  反射率_0
Saving Time :  2024/04/30 01:18:16
Spectro-Module Model Name : SE2030-DUVN
Spectro-Module Serial Number : OS361AC55029948
Wavelength Start : 200
Wavelength End : 1025
Wavelength Unit : Wavelength(nm)
Spectrum Unit : Reflectance(%)
-----------Spectrum Setting ------------
Integration Time : 20ms
Average : 10
Boxcar : 0
Background removal :  enabled
linearity correction :  enabled
SC :  disabled
Intensity correction :  disabled
DWT denoise :  enabled
savitzky-golay :  disabled
FFT :  disabled
Running average :  disabled
Kalman :  disabled
High pass :  disabled
---------------BEGIN--------------------
Wavelength(nm)             Reflectance(%)
200.29               0
200.75        24.41442
201.21        12.18181
201.67       -2.650153
202.13       -12.82923
202.58       -14.94846
203.04       -9.834555
203.50       0.8373128
203.96        13.13112
204.42        23.81985
204.88        32.25717
205.34        38.05438
205.80        41.09243
206.26         41.7608
206.72        41.02875
207.18        38.12248
207.64        31.84508
208.10        22.33678
208.55        9.405566
209.01       -3.248037
209.47       -6.107907
209.93        2.018446
210.39        15.96299
210.85         28.0429
211.31        31.90553
211.77        27.17029
212.23        13.68593
212.69       -5.729217
213.14       -13.97429
213.60       -2.640504
214.06        17.87592
214.52        35.42208
214.98        42.66687
215.44        41.13949
215.90        33.99156
216.36        24.91075
216.81        20.66177
217.27        24.86872
217.73        37.23734
218.19        56.12114
218.65        70.08894
219.11        70.87998
219.57        62.73442
220.02        53.88245
220.48        50.52576
220.94        52.24929
221.40        57.41045
221.86        63.25878
222.32        61.87567
222.77        52.54769
223.23        42.50184
223.69        35.09004
224.15        31.05335
224.61        29.42094
225.06        28.93934
225.52        30.26336
225.98        33.85585
226.44        38.48761
226.90         43.1493
227.36        46.38442
227.81        47.37728
228.27         46.5818
228.73         44.1922
229.19        41.55429
229.65        41.44022
230.10         44.0147
230.56        47.75502
231.02        50.73527
231.48        51.29841
231.93        49.52226
232.39        46.17242
232.85        42.31149
233.31        40.00778
233.77         39.9872
234.22        41.76961
234.68         44.2949
235.14        45.58501
235.60        45.05872
236.05        43.41103
236.51        41.74608
236.97        41.44772
237.43        42.90384
237.88        46.00985
238.34        50.19988
238.80        53.80681
239.26        55.32401
239.71        55.06594
240.17        53.58923
240.63         52.0548
241.08         50.7526
241.54        48.92118
242.00        46.64855
242.46        45.66185
242.91        47.99215
243.37        53.40751
243.83        58.88122
244.28        61.20192
244.74        59.99272
245.20        55.57517
245.66        49.33654
246.11        45.22944
246.57        45.69542
247.03        49.88218
247.48        56.18956
247.94        59.75266
248.40        59.34215
248.85        57.04863
249.31        55.21726
249.77        54.58566
250.22        55.16853
250.68        56.87748
251.14        59.52598
251.59        60.75624
252.05        59.18198
252.51        56.73132
252.96        54.92739
253.42        54.60664
253.88        55.20078
254.33        56.22423
254.79        57.37158
255.25        57.31047
255.70         56.0055
256.16        54.69346
256.62        53.73882
257.07        53.28742
257.53        53.51257
257.99        54.01505
258.44        54.42796
258.90        54.85568
259.35        54.86428
259.81        54.83311
260.27        54.64845
260.72        54.25576
261.18        53.85178
261.63        53.21712
262.09        52.54488
262.55        51.78142
263.00        50.91539
263.46        50.16558
263.91         49.3527
264.37        48.53816
264.83        47.64849
265.28        46.63921
265.74        45.76479
266.19        45.18543
266.65        44.97947
267.11        45.02506
267.56        45.06231
268.02        44.72558
268.47        43.92543
268.93        42.77738
269.38        41.50803
269.84        40.62705
270.30        40.24397
270.75        40.19825
271.21        40.20486
271.66        39.81941
272.12        38.95728
272.57        37.73985
273.03        36.43313
273.48        35.36703
273.94        34.69837
274.39        34.28191
274.85        33.98143
275.31        33.53032
275.76        32.86246
276.22        32.09656
276.67        31.35417
277.13        30.89717
277.58        30.69774
278.04        30.68611
278.49        30.62318
278.95        30.27188
279.40         29.5645
279.86        28.68487
280.31        27.77847
280.77        27.17457
281.22        26.90022
281.68        26.87267
282.13        26.96626
282.59        27.05984
283.04         27.0761
283.50        27.03832
283.95         26.9187
284.41        26.68725
284.86        26.34039
285.32        25.93633
285.77        25.46145
286.22        24.97035
286.68        24.50577
287.13        24.03769
287.59        23.67637
288.04         23.5275
288.50        23.60557
288.95        23.83249
289.41        24.07516
289.86        24.09615
290.32        23.87713
290.77          23.493
291.22        23.06315
291.68        22.77905
292.13        22.69258
292.59        22.76265
293.04        22.98492
293.50        23.37936
293.95        23.91747
294.40        24.59414
294.86        25.29227
295.31        25.83898
295.77        26.19244
296.22        26.38863
296.68        26.54313
297.13        26.82382
297.58        27.28163
298.04        27.83401
298.49        28.40957
298.95        28.89124
299.40        29.23817
299.85        29.49028
300.31        29.67072
300.76        29.75747
301.21        29.79222
301.67        29.79364
302.12        29.77575
302.58        29.90012
303.03        30.17879
303.48        30.43735
303.94        30.61594
304.39        31.34483
304.84        31.38647
305.30         31.7263
305.75         31.9761
306.20        32.16487
306.66         32.2936
307.11         32.3526
307.57        32.37976
308.02        32.36255
308.47        32.31841
308.93        32.25775
309.38        32.17226
309.83        32.09528
310.29        32.03246
310.74         31.9764
311.19        31.90239
311.65        31.76219
312.10        31.54871
312.55        31.28369
313.00        31.01891
313.46        30.83329
313.91        30.73104
314.36        30.68826
314.82        30.65841
315.27        30.58587
315.72        30.44208
316.18        30.25402
316.63        30.02192
317.08        29.75838
317.53        29.48123
317.99        29.19732
318.44        28.93233
318.89        28.73177
319.35        28.60198
319.80        28.52644
320.25        28.48989
320.70        28.46474
321.16        28.42399
321.61        28.38411
322.06        28.30408
322.51        28.13112
322.97        27.86005
323.42        27.50947
323.87        27.14235
324.32        26.86366
324.78        26.68969
325.23        26.61131
325.68        26.55702
326.13        26.40571
326.59        26.12587
327.04        25.76804
327.49        25.40661
327.94        25.17357
328.39        25.09334
328.85        25.10405
329.30        25.14705
329.75        25.08175
330.20        24.87052
330.66        24.56896
331.11        24.21649
331.56        23.85159
332.01        23.50329
332.46        23.15131
332.92         22.8626
333.37        22.78106
333.82        22.91674
334.27        23.23108
334.72        23.56718
335.17        23.65523
335.63        23.42566
336.08        22.96167
336.53        22.39881
336.98        21.99325
337.43        21.83131
337.88        21.83476
338.34        21.94368
338.79        22.08029
339.24        22.19511
339.69        22.32642
340.14        22.42436
340.59        22.39931
341.05        22.24416
341.50        21.97045
341.95        21.68133
342.40        21.55668
342.85        21.62736
343.30        21.83441
343.75         22.0594
344.20        22.10773
344.66        21.94381
345.11        21.63413
345.56        21.26502
346.01        20.97114
346.46        20.80427
346.91        20.72006
347.36        20.71511
347.81        20.78768
348.26          20.917
348.72        21.10004
349.17        21.27316
349.62        21.32512
350.07        21.23173
350.52        21.02638
350.97        20.77392
351.42        20.57754
351.87        20.47147
352.32        20.43449
352.77        20.45147
353.22        20.49408
353.67        20.54664
354.13          20.613
354.58        20.68864
355.03        20.76557
355.48         20.8324
355.93        20.87825
356.38        20.88055
356.83        20.81235
357.28        20.67459
357.73        20.48265
358.18        20.27118
358.63        20.09382
359.08        19.96678
359.53        19.87906
359.98        19.81614
360.43        19.75029
360.88        19.67365
361.33        19.59868
361.78        19.52557
362.23        19.45363
362.68        19.38412
363.13        19.31148
363.58        19.24694
364.03        19.21123
364.48         19.2027
364.93        19.21079
365.38        19.20979
365.83        19.15887
366.28        19.05187
366.73        18.90713
367.18        18.74657
367.63        18.60461
368.08        18.49321
368.53        18.40129
368.98          18.335
369.43        18.30171
369.88        18.29898
370.33         18.3297
370.78         18.3607
371.23        18.33662
371.68        18.24655
372.13        18.09881
372.58        17.94532
373.03        17.87487
373.48         17.8988
373.93        17.98155
374.38        18.05372
374.83        18.00116
375.28        17.80413
375.72        17.51147
376.17        17.19468
376.62        16.91797
377.07        16.70558
377.52        16.53149
377.97        16.42138
378.42        16.41781
378.87        16.51442
379.32        16.69541
379.77        16.87279
380.22        16.91557
380.67        16.79782
381.11        16.54649
381.56        16.25815
382.01        16.09471
382.46        16.10111
382.91        16.24001
383.36        16.40495
383.81        16.43248
384.26        16.29159
384.71        16.02851
385.15        15.76397
385.60        15.71073
386.05        15.88603
386.50        16.20709
386.95        16.50849
387.40        16.53667
387.85        16.25504
388.29        15.76668
388.74        15.24805
389.19        14.88074
389.64        14.71125
390.09        14.67486
390.54        14.73685
390.98        14.83729
391.43        14.94462
391.88        15.07217
392.33        15.17991
392.78        15.22439
393.23        15.20329
393.67        15.08537
394.12        14.92968
394.57        14.92682
395.02        14.87216
395.47        14.91705
395.91        14.95656
396.36        14.91235
396.81        14.77599
397.26        14.58386
397.71         14.3833
398.15         14.2325
398.60        14.16658
399.05        14.13394
399.50         14.1119
399.95        14.13015
400.39        14.10497
400.84        14.03997
401.29        13.93316
401.74        13.86792
402.18        13.85667
402.63        13.84799
403.08        13.84017
403.53        13.84251
403.97        13.85072
404.42         13.8647
404.87        13.86318
405.32        13.81129
405.76        13.70284
406.21        13.55497
406.66        13.41033
407.11        13.33821
407.55        13.35752
408.00        13.44951
408.45        13.55929
408.90        13.58536
409.34        13.50008
409.79        13.33085
410.24        13.15955
410.68        13.11047
411.13        13.20719
411.58        13.41146
412.03        13.62185
412.47        13.66747
412.92        13.50218
413.37        13.19878
413.81         12.8708
414.26        12.70612
414.71        12.73095
415.15        12.88873
415.60        13.09159
416.05        13.20898
416.49        13.19782
416.94        13.10733
417.39        12.96922
417.83        12.82985
418.28        12.71684
418.73        12.60599
419.17        12.52613
419.62        12.52697
420.07         12.6075
420.51        12.75278
420.96        12.89739
421.41         12.9282
421.85        12.82336
422.30        12.63533
422.74        12.42515
423.19        12.30479
423.64        12.29243
424.08        12.35986
424.53        12.46066
424.98         12.5381
425.42        12.56881
425.87        12.55996
426.31         12.5155
426.76        12.46169
427.21        12.36438
427.65        12.24145
428.10        12.10431
428.54        11.95503
428.99        11.81801
429.44        11.77867
429.88        11.80213
430.33        11.68305
430.77         11.4968
431.22        11.61582
431.66        12.00004
432.11        12.20412
432.56        12.15779
433.00        12.12981
433.45        12.11475
433.89        11.84312
434.34        11.46633
434.78        11.43678
435.23        11.68599
435.67        11.73847
436.12        11.57178
436.57         11.4554
437.01        11.42849
437.46        11.43721
437.90        11.48616
438.35        11.58077
438.79        11.68247
439.24         11.7098
439.68        11.66594
440.13        11.61876
440.57        11.56854
441.02        11.52537
441.46        11.49909
441.91        11.40505
442.35         11.2818
442.80        11.42788
443.24        11.73386
443.69         11.6445
444.13        11.22298
444.58        11.03962
445.02        11.10211
445.47        11.11269
445.91        11.05803
446.36        11.06279
446.80        11.11962
447.24        11.20142
447.69        11.28194
448.13        11.32153
448.58        11.31291
449.02        11.26631
449.47        11.21893
449.91        11.22395
450.36         11.2912
450.80        11.40088
451.25        11.50858
451.69        11.54423
452.13        11.49144
452.58        11.38098
453.02        11.25054
453.47        11.15952
453.91        11.12344
454.36        11.15858
454.80        11.18893
455.24        11.22041
455.69        11.22858
456.13         11.2223
456.58         11.2204
457.02        11.23927
457.46        11.28326
457.91        11.33898
458.35        11.38659
458.79        11.40213
459.24        11.39021
459.68        11.36693
460.13        11.34928
460.57        11.30838
461.01        11.33884
461.46        11.32154
461.90        11.30538
462.34        11.42829
462.79        11.63703
463.23        11.68101
463.68        11.56777
464.12        11.52722
464.56        11.56767
465.01        11.57288
465.45        11.53607
465.89        11.50014
466.34        11.48794
466.78        11.54101
467.22        11.66929
467.67        11.69989
468.11         11.6315
468.55        11.53191
468.99         11.4421
469.44         11.3941
469.88        11.40068
470.32        11.45661
470.77        11.53553
471.21        11.60783
471.65        11.65571
472.10        11.69315
472.54        11.72502
472.98        11.77388
473.42        11.84175
473.87        11.91468
474.31        11.97851
474.75        12.01441
475.20        12.02356
475.64        12.01318
476.08        11.99198
476.52        11.97011
476.97        11.95394
477.41        11.93745
477.85        11.93992
478.29        11.98912
478.74        12.08948
479.18        12.22558
479.62        12.35313
480.06         12.4344
480.50        12.46552
480.95        12.34599
481.39        12.31568
481.83        12.33788
482.27        12.49527
482.72        12.65388
483.16        12.92176
483.60        13.05805
484.04        13.08465
484.48        13.01953
484.93        12.94501
485.37        13.00957
485.81        13.12781
486.25        13.39272
486.69        12.80764
487.14        13.04609
487.58        13.67559
488.02        13.67282
488.46        13.75146
488.90        13.97247
489.34        13.63439
489.79        13.68865
490.23        13.82839
490.67        14.10321
491.11        14.39722
491.55        14.40636
491.99        14.21035
492.43        14.24769
492.88        14.54102
493.32        14.80586
493.76        14.99303
494.20        15.18243
494.64         15.3645
495.08        15.51118
495.52        15.61087
495.96        15.68897
496.41        15.75805
496.85        15.72591
497.29        15.64105
497.73        15.85697
498.17        16.13043
498.61        16.20828
499.05        16.06058
499.49        16.05959
499.93        16.23498
500.37        16.43749
500.82        16.62233
501.26        16.75815
501.70        16.83054
502.14        16.87046
502.58        16.91935
503.02        17.02398
503.46        17.19526
503.90        17.41937
504.34        17.64783
504.78        17.79686
505.22        17.84544
505.66         17.8181
506.10        17.75233
506.54        17.72971
506.98        17.77432
507.42        17.82497
507.86        17.85261
508.30        18.01266
508.74        17.96653
509.18        17.99543
509.62        18.00772
510.06        18.01873
510.50        18.03237
510.94        18.04865
511.38        18.07892
511.82        18.13416
512.26        18.21464
512.70        18.31353
513.14        18.41641
513.58        18.50126
514.02        18.56143
514.46        18.60137
514.90        18.62399
515.34        18.63615
515.78        18.64153
516.22        18.63786
516.66        18.63026
517.10        18.62707
517.54        18.62923
517.98        18.63531
518.42        18.63863
518.86         18.6265
519.30        18.59764
519.74        18.55919
520.18        18.51707
520.62         18.4796
521.06        18.45116
521.50        18.42996
521.93        18.42294
522.37        18.43509
522.81        18.46691
523.25        18.51384
523.69        18.56131
524.13        18.58784
524.57        18.58693
525.01        18.56042
525.45        18.51862
525.89        18.48096
526.32        18.44967
526.76        18.42376
527.20        18.38986
527.64        18.32848
528.08         18.2387
528.52        18.13201
528.96         18.0259
529.40        17.94661
529.83        17.90067
530.27        17.88174
530.71        17.87875
531.15        17.87654
531.59        17.86686
532.03        17.85065
532.46        17.82508
532.90        17.79143
533.34        17.75089
533.78        17.70834
534.22        17.66228
534.66        17.61049
535.09          17.555
535.53         17.5034
535.97        17.47377
536.41        17.49939
536.85        17.58118
537.28        17.70363
537.72        17.82998
538.16        17.90517
538.60        17.91548
539.04        17.88089
539.47         17.8199
539.91        17.78012
540.35        17.77264
540.79        17.79257
541.22        17.84154
541.66        17.92482
542.10         18.0373
542.54        18.17679
542.97        18.33438
543.41        18.49566
543.85         18.6524
544.29        18.80689
544.72        18.94041
545.16        19.04039
545.60        19.10669
546.04        19.14023
546.47        19.17352
546.91        19.28819
547.35        19.48203
547.79        19.67405
548.22        19.84023
548.66        20.04971
549.10        20.29955
549.53        20.48358
549.97        20.56395
550.41        20.90399
550.84        20.87597
551.28        20.95713
551.72        20.97321
552.15        21.12878
552.59        21.16847
553.03        21.29795
553.46        21.43468
553.90        21.56552
554.34        21.68017
554.77        21.80622
555.21        21.93709
555.65        22.00162
556.08        22.01723
556.52        22.09272
556.96        22.22341
557.39        22.34905
557.83        22.46051
558.27        22.55001
558.70        22.61825
559.14        22.72496
559.57        22.84688
560.01        22.95243
560.45        23.02483
560.88        22.97389
561.32        22.94794
561.75        22.95955
562.19        23.04499
562.63        23.09822
563.06        23.11585
563.50        23.17186
563.93        23.25955
564.37        23.35692
564.80         23.4546
565.24        23.56256
565.68        23.67304
566.11        23.79049
566.55        23.91441
566.98        24.00578
567.42        24.09668
567.85        24.20554
568.29        24.33384
568.72        24.52748
569.16        24.81231
569.60         24.7825
570.03        24.95481
570.47        25.19706
570.90        25.30391
571.34        25.26175
571.77        25.46581
572.21        25.48684
572.64        25.48932
573.08        25.63002
573.51        25.94021
573.95        25.93968
574.38        26.38574
574.82        26.27684
