SpectraSmart Spectrum 2.9.0.0
--------- Device Information -----------
Spectrum Name :  反射率_0
Saving Time :  2024/04/30 00:48:26
Spectro-Module Model Name : SE2030-DUVN
Spectro-Module Serial Number : OS361AC55029948
Wavelength Start : 200
Wavelength End : 1025
Wavelength Unit : Wavelength(nm)
Spectrum Unit : Reflectance(%)
-----------Spectrum Setting ------------
Integration Time : 20ms
Average : 10
Boxcar : 0
Background removal :  enabled
linearity correction :  enabled
SC :  disabled
Intensity correction :  disabled
DWT denoise :  enabled
savitzky-golay :  disabled
FFT :  disabled
Running average :  disabled
Kalman :  disabled
High pass :  disabled
---------------BEGIN--------------------
Wavelength(nm)             Reflectance(%)
200.29               0
200.75        50.16719
201.21        43.54863
201.67        38.01696
202.13        34.59902
202.58         33.9407
203.04        36.50836
203.50        42.31028
203.96        51.13473
204.42        61.51802
204.88        71.37246
205.34        77.78334
205.80        77.85191
206.26        73.11098
206.72        67.03342
207.18        60.78442
207.64         54.2469
208.10          47.227
208.55        39.15665
209.01        32.45124
209.47        33.28498
209.93        41.67257
210.39        53.61694
210.85         63.9496
211.31        68.96292
211.77        68.78452
212.23        63.55472
212.69         54.4095
213.14        49.37421
213.60        52.47207
214.06        60.02155
214.52         66.4073
214.98        67.64919
215.44        64.42906
215.90        58.51268
216.36        52.53985
216.81        51.55872
217.27        58.41693
217.73        73.50732
218.19         96.1638
218.65        115.8439
219.11        122.7035
219.57        118.5426
220.02        110.9946
220.48         107.345
220.94         107.379
221.40        109.3073
221.86        110.4718
222.32        105.2139
222.77        94.38632
223.23        84.54131
223.69        77.70236
224.15        73.53098
224.61        71.07442
225.06        69.75145
225.52        69.99969
225.98        72.33759
226.44        75.92104
226.90        79.48832
227.36         82.5438
227.81        85.21116
228.27         87.8897
228.73        90.54169
229.19        92.49942
229.65        92.31236
230.10        90.01955
230.56        87.12356
231.02        84.47952
231.48        82.75069
231.93        81.77769
232.39        81.32687
232.85        81.45325
233.31           82.41
233.77         84.1237
234.22        86.65968
234.68        88.99777
235.14        89.42497
235.60         87.5972
236.05        83.99413
236.51        80.22628
236.97        78.29514
237.43        78.61594
237.88        81.20057
238.34        84.88687
238.80        86.91027
239.26        85.55495
239.71        81.79724
240.17        77.34889
240.63        74.56113
241.08        74.03477
241.54         75.2269
242.00        78.69265
242.46        83.80284
242.91        88.49053
243.37         91.2524
243.83        91.45019
244.28        89.27077
244.74        84.73724
245.20        77.12659
245.66         67.6397
246.11        60.35614
246.57        57.92858
247.03        59.81273
247.48        65.07181
247.94        69.56848
248.40        71.35842
248.85        71.50617
249.31         71.3565
249.77         71.1048
250.22        70.92243
250.68        70.38535
251.14        69.78012
251.59        70.52312
252.05        72.61755
252.51        74.72485
252.96        75.86583
253.42        76.59143
253.88        76.96127
254.33        77.08659
254.79        77.41539
255.25        77.84297
255.70        78.09007
256.16        78.56721
256.62        79.13181
257.07        79.76386
257.53        80.88497
257.99         82.1478
258.44        83.00811
258.90        83.43331
259.35        82.97755
259.81        82.42928
260.27        81.81166
260.72        81.19012
261.18        80.86642
261.63        80.39392
262.09        79.98248
262.55        79.42149
263.00        78.62821
263.46        77.97116
263.91        77.18408
264.37        76.42535
264.83        75.58504
265.28         74.5895
265.74        73.75993
266.19        73.25943
266.65        73.19247
267.11         73.3932
267.56        73.53803
268.02        73.22855
268.47        72.34109
268.93        71.01235
269.38        69.49013
269.84        68.32853
270.30        67.66569
270.75        67.32584
271.21        67.04529
271.66        66.35062
272.12        65.17287
272.57        63.62956
273.03        61.99532
273.48        60.58169
273.94        59.57649
274.39        58.81117
274.85        58.20649
275.31        57.50671
275.76        56.62714
276.22         55.7078
276.67        54.79851
277.13        54.13547
277.58        53.65239
278.04        53.32191
278.49        52.92157
278.95        52.30945
279.40        51.39583
279.86         50.3619
280.31        49.27324
280.77         48.3985
281.22         47.7375
281.68        47.27501
282.13        46.92142
282.59        46.66036
283.04        46.40414
283.50        46.16325
283.95        45.85678
284.41        45.41881
284.86        44.81561
285.32        44.13797
285.77        43.36973
286.22        42.59548
286.68        41.86716
287.13        41.13836
287.59        40.51588
288.04        40.07637
288.50        39.85265
288.95         39.7676
289.41         39.7332
289.86        39.54548
290.32        39.19227
290.77        38.71199
291.22        38.18946
291.68        37.76316
292.13        37.46463
292.59        37.28779
293.04        37.22121
293.50        37.29283
293.95         37.4804
294.40        37.79194
294.86        38.15862
295.31        38.48645
295.77        38.74509
296.22         38.9326
296.68          39.113
297.13        39.36548
297.58        39.71069
298.04        40.09372
298.49        40.43885
298.95        40.63391
299.40        40.65528
299.85        40.55885
300.31        40.42558
300.76         40.3115
301.21        40.27105
301.67        40.29145
302.12        40.33977
302.58        40.50779
303.03        40.77106
303.48         41.0014
303.94        41.12431
304.39        41.62771
304.84        41.46741
305.30        41.49607
305.75        41.44534
306.20        41.45564
306.66         41.5539
307.11        41.69202
307.57        41.83124
308.02        41.82609
308.47        41.67445
308.93        41.42675
309.38        41.14835
309.83        40.99629
310.29        41.00286
310.74        41.11418
311.19         41.2295
311.65        41.18533
312.10        40.94555
312.55         40.5722
313.00        40.18632
313.46        39.97387
313.91        39.96207
314.36        40.08954
314.82        40.24583
315.27        40.27713
315.72        40.12659
316.18        39.85249
316.63        39.50631
317.08        39.17938
317.53        38.91445
317.99        38.70028
318.44        38.52135
318.89        38.36115
319.35        38.21173
319.80        38.07409
320.25        37.98674
320.70        38.00704
321.16        38.11894
321.61        38.31331
322.06        38.46525
322.51        38.38427
322.97        38.03476
323.42        37.48523
323.87         36.8897
324.32        36.49799
324.78        36.36455
325.23         36.4425
325.68         36.6057
326.13        36.63787
326.59        36.46697
327.04        36.17185
327.49        35.84268
327.94        35.64142
328.39          35.604
328.85        35.65097
329.30        35.72012
329.75        35.65125
330.20        35.40653
330.66        35.05238
331.11        34.66298
331.56        34.31979
332.01        34.06295
332.46         33.8627
332.92        33.74045
333.37        33.77749
333.82         33.9545
334.27        34.24223
334.72        34.52764
335.17         34.6194
335.63        34.46314
336.08        34.12707
336.53        33.68222
336.98        33.28312
337.43        32.99712
337.88        32.78654
338.34        32.67251
338.79        32.70054
339.24        32.85441
339.69        33.13939
340.14        33.44183
340.59        33.56484
341.05        33.46536
341.50         33.1796
341.95        32.85765
342.40        32.75509
342.85        32.91965
343.30        33.26643
343.75        33.61975
344.20        33.69844
344.66        33.45211
345.11         32.9793
345.56        32.44316
346.01        32.09669
346.46        32.01627
346.91        32.11833
347.36        32.31914
347.81        32.49754
348.26        32.60333
348.72         32.6622
349.17         32.6797
349.62        32.65436
350.07        32.59092
350.52        32.48994
350.97        32.34483
351.42        32.15118
351.87        31.92589
352.32         31.6882
352.77        31.50431
353.22        31.47441
353.67        31.60917
354.13        31.86232
354.58        32.14953
355.03        32.33521
355.48        32.37186
355.93        32.29184
356.38         32.1172
356.83        31.88834
357.28        31.63107
357.73        31.33923
358.18        31.04706
358.63        30.81016
359.08        30.63978
359.53        30.52758
359.98        30.44271
360.43        30.32706
360.88        30.16592
361.33        29.97877
361.78        29.77911
362.23        29.58955
362.68         29.4202
363.13         29.2618
363.58        29.12296
364.03        29.01909
364.48         28.9472
364.93        28.89953
365.38        28.85358
365.83        28.77257
366.28        28.64858
366.73        28.49392
367.18        28.32097
367.63        28.15127
368.08         27.9916
368.53        27.83256
368.98        27.68454
369.43        27.56215
369.88        27.46881
370.33        27.41088
370.78        27.35337
371.23        27.23911
371.68        27.05599
372.13        26.80727
372.58        26.56322
373.03        26.43887
373.48        26.44884
373.93        26.55887
374.38        26.64834
374.83        26.51948
375.28        26.14701
375.72        25.60765
376.17         25.0759
376.62        24.75499
377.07        24.68484
377.52        24.78635
377.97        24.97491
378.42        25.10955
378.87        25.13603
379.32         25.1003
379.77        25.00259
380.22        24.84175
380.67        24.62899
381.11         24.3528
381.56        24.07425
382.01         23.9024
382.46        23.86169
382.91         23.9318
383.36        24.02498
383.81        23.99846
384.26        23.82663
384.71         23.5535
385.15        23.26602
385.60        23.13142
386.05        23.16614
386.50         23.3057
386.95        23.45874
387.40        23.48586
387.85        23.35803
388.29        23.12024
388.74        22.85762
389.19        22.61119
389.64        22.40139
390.09        22.20438
390.54        22.05149
390.98        21.99487
391.43        22.04442
391.88           22.18
392.33        22.31824
392.78        22.36096
393.23        22.29667
393.67        22.10383
394.12        21.87848
394.57        21.90721
395.02          21.891
395.47        22.04393
395.91        22.20149
396.36        22.23593
396.81        22.12403
397.26        21.91809
397.71        21.68777
398.15        21.52323
398.60        21.47542
399.05        21.46437
399.50        21.45971
399.95        21.51398
400.39        21.50303
400.84        21.43446
401.29        21.29661
401.74        21.19955
402.18        21.16088
402.63        21.10963
403.08        21.06465
403.53        21.07242
403.97        21.13048
404.42        21.22722
404.87        21.30701
405.32        21.27967
405.76        21.12632
406.21        20.88378
406.66        20.62983
407.11        20.48908
407.55        20.49687
408.00        20.61909
408.45        20.77739
408.90        20.82581
409.34        20.72585
409.79        20.52167
410.24         20.3215
410.68        20.28811
411.13        20.45178
411.58        20.75617
412.03        21.07775
412.47        21.20844
412.92        21.08396
413.37        20.79008
413.81        20.44289
414.26        20.24229
414.71        20.21914
415.15        20.31549
415.60        20.45766
416.05        20.54489
416.49        20.54038
416.94        20.48455
417.39        20.38788
417.83        20.25843
418.28        20.11491
418.73        19.94739
419.17        19.80003
419.62        19.74871
420.07        19.80188
420.51        19.93579
420.96        20.08942
421.41        20.15222
421.85        20.09536
422.30        19.97327
422.74        19.82754
423.19        19.75356
423.64        19.76296
424.08        19.83375
424.53        19.92675
424.98         20.0076
425.42        20.06244
425.87        20.09002
426.31        20.08394
426.76        20.06343
427.21        19.96715
427.65        19.82903
428.10         19.6761
428.54        19.52654
428.99        19.41018
429.44        19.45414
429.88        19.57673
430.33        19.39641
430.77        19.03984
431.22         19.1487
431.66         19.6741
432.11        19.94064
432.56        19.85416
433.00        19.81898
433.45          19.825
433.89        19.50292
434.34        19.04407
434.78        19.04534
435.23        19.41767
435.67         19.5266
436.12        19.34135
436.57        19.21906
437.01        19.21078
437.46        19.23953
437.90         19.3117
438.35        19.44066
438.79        19.57963
439.24        19.62286
439.68        19.57682
440.13        19.54485
440.57         19.5202
441.02        19.47389
441.46        19.41323
441.91         19.2839
442.35        19.12962
442.80        19.27169
443.24        19.59732
443.69        19.53989
444.13        19.14743
444.58        18.98247
445.02        19.04503
445.47        19.04322
445.91        18.95802
446.36        18.91035
446.80        18.89533
447.24        18.89019
447.69        18.89725
448.13        18.91803
448.58        18.95208
449.02        18.99254
449.47        19.04196
449.91        19.09287
450.36        19.14378
450.80        19.19353
451.25        19.22608
451.69        19.21297
452.13        19.15135
452.58        19.05825
453.02        18.96363
453.47        18.91338
453.91        18.91225
454.36        19.00071
454.80        19.05235
455.24        19.08278
455.69        19.05642
456.13        18.98983
456.58        18.91791
457.02        18.87683
457.46        18.88099
457.91         18.9131
458.35        18.95509
458.79        18.99129
459.24        19.02562
459.68        19.07392
460.13        19.13398
460.57         19.1147
461.01        19.16216
461.46        19.09167
461.90        18.99815
462.34        19.14237
462.79        19.44438
463.23        19.47377
463.68        19.25261
464.12        19.17328
464.56        19.24762
465.01        19.28126
465.45        19.23985
465.89         19.1577
466.34        19.06873
466.78        19.05128
467.22        19.14996
467.67         19.1345
468.11        19.01903
468.55        18.89585
468.99        18.79911
469.44        18.72992
469.88        18.69698
470.32        18.70849
470.77        18.74166
471.21        18.77343
471.65        18.78991
472.10        18.80338
472.54        18.82577
472.98        18.89477
473.42        19.01114
473.87         19.1545
474.31        19.28792
474.75        19.36244
475.20         19.3728
475.64        19.33108
476.08        19.26408
476.52         19.2092
476.97        19.18104
477.41        19.16748
477.85        19.17638
478.29        19.21677
478.74        19.29244
479.18        19.38898
479.62        19.47812
480.06        19.56186
480.50        19.64333
480.95        19.54458
481.39        19.59273
481.83        19.63997
482.27        19.79861
482.72        19.88758
483.16        20.13479
483.60        20.24237
484.04        20.25798
484.48        20.20926
484.93        20.20215
485.37        20.23842
485.81        20.19956
486.25        20.60658
486.69        20.19792
487.14        20.04208
487.58        20.52052
488.02        20.78465
488.46        21.06829
488.90        21.43177
489.34        20.79784
489.79        20.72696
490.23        20.77131
490.67        21.04862
491.11        21.39122
491.55        21.43955
491.99        21.24473
492.43        21.27468
492.88        21.54302
493.32        21.71952
493.76        21.79409
494.20        21.94638
494.64        22.18445
495.08        22.44658
495.52        22.67591
495.96        22.84278
496.41         22.9423
496.85         22.8576
497.29        22.67403
497.73        22.92513
498.17         23.2663
498.61        23.32563
499.05        23.05861
499.49        23.00046
499.93        23.19186
500.37        23.41722
500.82        23.62612
501.26         23.7905
501.70         23.8905
502.14        23.96759
502.58        24.04467
503.02        24.13068
503.46        24.23499
503.90         24.3572
504.34        24.48863
504.78        24.61152
505.22         24.7184
505.66        24.81051
506.10        24.87957
506.54        24.94052
506.98        25.00075
507.42        25.00821
507.86        24.95316
508.30         25.1043
508.74        25.00792
509.18        25.03204
509.62        25.05649
510.06        25.11743
510.50        25.21418
510.94        25.34577
511.38         25.4803
511.82        25.55123
512.26        25.54586
512.70        25.48091
513.14        25.40509
513.58        25.39556
514.02        25.46878
514.46        25.60184
514.90        25.74477
515.34        25.81556
515.78        25.79331
516.22        25.70391
516.66        25.59536
517.10          25.542
517.54        25.56169
517.98        25.63008
518.42        25.70691
518.86         25.7281
519.30        25.67892
519.74        25.58444
520.18        25.48032
520.62        25.41822
521.06        25.41352
521.50        25.45148
521.93         25.5118
522.37        25.55404
522.81         25.5679
523.25         25.5608
523.69        25.54937
524.13         25.5597
524.57        25.59336
525.01        25.63618
525.45        25.66063
525.89        25.62518
526.32        25.52051
526.76        25.37298
527.20        25.21103
527.64        25.07825
528.08        24.98823
528.52        24.93017
528.96        24.89645
529.40        24.87304
529.83        24.85222
530.27        24.84255
530.71        24.83503
531.15        24.81814
531.59        24.78765
532.03        24.73929
532.46        24.68277
532.90        24.64479
533.34        24.62785
533.78        24.62996
534.22        24.62614
534.66        24.57661
535.09        24.47644
535.53        24.34723
535.97        24.22995
536.41        24.19662
536.85        24.25886
537.28        24.38886
537.72         24.5351
538.16        24.61709
538.60        24.61411
539.04         24.5563
539.47        24.46744
539.91        24.40738
540.35        24.38885
540.79        24.40209
541.22        24.44953
541.66        24.54013
542.10        24.66759
542.54        24.83025
542.97        25.01064
543.41        25.18248
543.85        25.33568
544.29        25.47877
544.72        25.60064
545.16        25.70486
545.60        25.79332
546.04        25.85524
546.47        25.92074
546.91        26.07838
547.35        26.31699
547.79        26.53497
548.22        26.69618
548.66        26.88771
549.10        27.10986
549.53        27.22713
549.97        27.21399
550.41        27.59194
550.84        27.54012
551.28        27.67367
551.72        27.74241
552.15        27.98294
552.59         28.0458
553.03        28.21348
553.46        28.37054
553.90        28.49518
554.34        28.58251
554.77        28.65331
555.21        28.72159
555.65        28.78881
556.08         28.8971
556.52        28.95791
556.96        29.30065
557.39        29.48871
557.83         29.6073
558.27        29.64342
558.70        29.65528
559.14        29.76615
559.57        29.96034
560.01        30.18009
560.45        30.36278
560.88         30.3302
561.32        30.26706
561.75        30.20946
562.19         30.2401
562.63        30.27571
563.06        30.32229
563.50        30.45397
563.93        30.62682
564.37        30.75868
564.80        30.82614
565.24        30.86568
565.68        30.89164
566.11        30.94626
566.55        31.04088
566.98        31.11368
567.42        31.21033
567.85          31.343
568.29        31.50762
568.72        31.79288
569.16        32.22569
569.60        32.08832
570.03        32.35481
570.47        32.52745
570.90        32.69481
571.34        32.48469
571.77        32.85422
572.21         32.9034
572.64         32.9341
573.08        33.18473
573.51         33.6354
573.95        33.51788
574.38        33.66999
574.82        33.39183
