SpectraSmart Spectrum 2.9.0.0
--------- Device Information -----------
Spectrum Name :  反射率_0
Saving Time :  2024/04/30 00:59:39
Spectro-Module Model Name : SE2030-DUVN
Spectro-Module Serial Number : OS361AC55029948
Wavelength Start : 200
Wavelength End : 1025
Wavelength Unit : Wavelength(nm)
Spectrum Unit : Reflectance(%)
-----------Spectrum Setting ------------
Integration Time : 20ms
Average : 10
Boxcar : 0
Background removal :  enabled
linearity correction :  enabled
SC :  disabled
Intensity correction :  disabled
DWT denoise :  enabled
savitzky-golay :  disabled
FFT :  disabled
Running average :  disabled
Kalman :  disabled
High pass :  disabled
---------------BEGIN--------------------
Wavelength(nm)             Reflectance(%)
200.29               0
200.75        36.60277
201.21        25.89566
201.67        13.32068
202.13        2.568055
202.58       -4.396822
203.04       -8.043412
203.50       -6.539196
203.96        3.376484
204.42        21.37952
204.88        45.29678
205.34        66.07822
205.80         71.2533
206.26        62.74823
206.72        48.87084
207.18        36.09478
207.64        28.22076
208.10        24.34031
208.55        22.14825
209.01           21.52
209.47        22.97174
209.93        25.85925
210.39        30.07329
210.85        33.05638
211.31        32.27574
211.77        27.39098
212.23        17.27973
212.69        4.492358
213.14        2.221633
213.60         15.0129
214.06        34.25575
214.52        49.67189
214.98        55.23204
215.44        52.62991
215.90        44.43033
216.36        34.44307
216.81        30.05412
217.27        34.97966
217.73        48.79377
218.19        69.76195
218.65         85.2197
219.11        85.87001
219.57        76.70749
220.02        65.62294
220.48        57.91467
220.94        52.76899
221.40        47.78161
221.86        42.41043
222.32        38.23769
222.77        36.69799
223.23        37.74314
223.69        39.28517
224.15        39.84365
224.61        39.44529
225.06        38.28712
225.52        37.11389
225.98         37.2053
226.44         38.6334
226.90        40.48352
227.36        41.95364
227.81        42.58471
228.27        42.51527
228.73        41.93084
229.19        41.23803
229.65        41.20361
230.10        41.88236
230.56        42.87159
231.02        43.59692
231.48        43.58226
231.93        42.79488
232.39        41.49915
232.85        40.02198
233.31        39.06598
233.77        38.87669
234.22        39.35815
234.68        40.05549
235.14        40.14944
235.60        39.49055
236.05        38.41075
236.51        37.55288
236.97        37.70885
237.43        39.09084
237.88        41.71603
238.34        45.23046
238.80        48.53408
239.26        50.45431
239.71        51.12276
240.17        50.54443
240.63        49.18195
241.08        47.09919
241.54        43.36444
242.00        38.18563
242.46        35.58375
242.91        40.25275
243.37        51.49805
243.83        63.33808
244.28        70.16264
244.74        71.61363
245.20        68.22339
245.66        61.67921
246.11        56.78153
246.57        56.27892
247.03        59.43532
247.48        63.62135
247.94        62.70739
248.40        57.29461
248.85        51.46124
249.31        48.06881
249.77        47.94867
250.22        51.10457
250.68        57.90351
251.14        69.42891
251.59        80.08418
252.05        81.85696
252.51        77.73096
252.96        72.46106
253.42        68.54448
253.88        65.05575
254.33        60.92269
254.79        56.29579
255.25        52.03613
255.70        49.17826
256.16         48.0118
256.62        47.72487
257.07        47.57299
257.53        47.65409
257.99        47.82855
258.44        48.04073
258.90        48.74012
259.35        49.40227
259.81        50.07302
260.27        50.36038
260.72        49.99709
261.18        49.24901
261.63        48.08102
262.09         46.9091
262.55        45.98834
263.00        45.30393
263.46        44.88886
263.91        44.39737
264.37        43.66354
264.83        42.61858
265.28        41.32833
265.74        40.13381
266.19        39.34382
266.65        39.06665
267.11        39.11736
267.56        39.22455
268.02        39.00159
268.47         38.3443
268.93          37.383
269.38         36.2706
269.84        35.38558
270.30        34.82577
270.75        34.48316
271.21        34.20673
271.66        33.75582
272.12        33.07378
272.57        32.22123
273.03        31.34448
273.48        30.58482
273.94        30.04259
274.39        29.63784
274.85        29.30355
275.31        28.88545
275.76        28.33954
276.22        27.72818
276.67        27.13904
277.13        26.77588
277.58        26.60826
278.04        26.59549
278.49        26.51496
278.95        26.13553
279.40        25.40319
279.86         24.4873
280.31         23.5664
280.77         23.0109
281.22        22.84681
281.68        22.96581
282.13        23.18771
282.59        23.29916
283.04        23.22551
283.50         23.0324
283.95        22.75545
284.41        22.45408
284.86         22.1499
285.32        21.85534
285.77        21.54592
286.22         21.2544
286.68        21.00121
287.13        20.76025
287.59        20.58489
288.04        20.49759
288.50        20.50482
288.95        20.56254
289.41         20.6165
289.86        20.55437
290.32        20.38274
290.77        20.14467
291.22        19.89983
291.68        19.74032
292.13        19.69097
292.59        19.73903
293.04        19.92548
293.50        20.33037
293.95        20.94264
294.40        21.73717
294.86        22.55742
295.31        23.17272
295.77        23.52707
296.22        23.66992
296.68        23.77068
297.13        24.08216
297.58        24.66584
298.04        25.40979
298.49        26.16183
298.95        26.67682
299.40        26.90207
299.85        26.93654
300.31        26.89687
300.76        26.90511
301.21        27.03092
301.67        27.23032
302.12        27.46901
302.58        27.83495
303.03        28.30847
303.48        28.73309
303.94        29.01549
304.39        29.75382
304.84         29.6864
305.30        29.83485
305.75        29.88889
306.20        30.01262
306.66        30.23207
307.11        30.50531
307.57        30.77443
308.02        30.88499
308.47        30.82733
308.93        30.65351
309.38        30.44975
309.83        30.39501
310.29         30.5204
310.74        30.76685
311.19        31.00206
311.65        31.01596
312.10        30.77166
312.55        30.34843
313.00        29.90438
313.46        29.68339
313.91        29.72789
314.36        29.95724
314.82        30.23801
315.27        30.37469
315.72        30.29755
316.18        30.07905
316.63        29.77146
317.08        29.46926
317.53        29.21598
317.99        28.98766
318.44        28.78963
318.89        28.63952
319.35        28.53355
319.80        28.47064
320.25        28.43847
320.70        28.40861
321.16         28.3579
321.61        28.30326
322.06        28.21275
322.51        28.04986
322.97        27.81504
323.42        27.52527
323.87        27.23706
324.32        27.04484
324.78        26.96001
325.23        26.97124
325.68        27.00919
326.13         26.9568
326.59         26.7775
327.04        26.51533
327.49        26.22741
327.94        26.02071
328.39         25.9179
328.85         25.8689
329.30        25.83744
329.75        25.72213
330.20        25.49884
330.66        25.20962
331.11        24.89357
331.56        24.58462
332.01        24.30651
332.46        24.04889
332.92        23.84314
333.37        23.77119
333.82        23.83464
334.27        24.00995
334.72         24.2191
335.17         24.3279
335.63        24.29525
336.08        24.16212
336.53         23.9643
336.98         23.7873
337.43        23.66486
337.88        23.56576
338.34        23.50158
338.79        23.51163
339.24        23.58613
339.69        23.73135
340.14        23.86976
340.59        23.86699
341.05        23.70148
341.50        23.40549
341.95        23.10012
342.40        22.98637
342.85        23.09824
343.30         23.3641
343.75        23.64217
344.20        23.70526
344.66        23.51103
345.11        23.13768
345.56        22.69901
346.01        22.37162
346.46         22.2208
346.91        22.19518
347.36        22.26715
347.81        22.39855
348.26        22.55956
348.72         22.7509
349.17        22.93874
349.62        23.06047
350.07        23.09191
350.52        23.04064
350.97        22.91138
351.42        22.71999
351.87        22.48846
352.32        22.23024
352.77        21.99322
353.22        21.85013
353.67        21.81926
354.13        21.88144
354.58        22.00249
355.03        22.12213
355.48        22.20989
355.93        22.26981
356.38        22.28859
356.83         22.2518
357.28         22.1602
357.73        22.01585
358.18        21.83849
358.63        21.66444
359.08         21.5062
359.53        21.35898
359.98        21.22206
360.43        21.08967
360.88        20.95967
361.33        20.83853
361.78        20.71806
362.23        20.58257
362.68          20.432
363.13        20.27257
363.58        20.12096
364.03        20.00373
364.48        19.92546
364.93        19.87491
365.38        19.83776
365.83        19.79278
366.28        19.72985
366.73        19.65056
367.18        19.55473
367.63        19.44252
368.08        19.31578
368.53        19.17785
368.98        19.02929
369.43        18.87081
369.88        18.70939
370.33        18.55099
370.78        18.41274
371.23        18.32146
371.68        18.27727
372.13        18.26183
372.58        18.25254
373.03        18.21433
373.48        18.12983
373.93        18.00497
374.38        17.82937
374.83        17.59138
375.28        17.30783
375.72        16.99499
376.17        16.70929
376.62        16.49352
377.07        16.35617
377.52        16.27858
377.97        16.25736
378.42        16.28319
378.87        16.34054
379.32        16.42609
379.77        16.49144
380.22        16.46854
380.67        16.34589
381.11        16.13348
381.56        15.90036
382.01         15.7623
382.46        15.74946
382.91        15.83739
383.36        15.94192
383.81        15.93068
384.26        15.78211
384.71        15.53899
385.15        15.29753
385.60        15.23207
386.05        15.35847
386.50        15.60895
386.95        15.86678
387.40        15.95299
387.85        15.83158
388.29        15.56261
388.74        15.25741
389.19         15.0127
389.64        14.85856
390.09        14.76003
390.54        14.70925
390.98        14.69414
391.43        14.70859
391.88        14.75689
392.33        14.81018
392.78        14.83903
393.23         14.8368
393.67        14.76837
394.12         14.6701
394.57        14.69433
395.02        14.63283
395.47        14.64511
395.91        14.63872
396.36        14.55851
396.81        14.40511
397.26        14.20521
397.71        14.01096
398.15        13.88827
398.60        13.86732
399.05        13.89365
399.50        13.92345
399.95        13.95356
400.39        13.89849
400.84        13.77402
401.29        13.60197
401.74        13.50786
402.18        13.51754
402.63        13.56505
403.08        13.63594
403.53        13.71961
403.97        13.80165
404.42        13.88708
404.87        13.93998
405.32        13.90201
405.76        13.76554
406.21        13.55394
406.66        13.33762
407.11        13.23091
407.55        13.26184
408.00        13.39965
408.45        13.56531
408.90        13.61205
409.34        13.50114
409.79         13.2802
410.24          13.049
410.68        12.95688
411.13        13.03719
411.58        13.24199
412.03        13.47731
412.47        13.58506
412.92        13.51198
413.37         13.3196
413.81        13.09312
414.26        12.98032
414.71        13.00182
415.15        13.11589
415.60        13.25219
416.05        13.31231
416.49        13.26855
416.94        13.16272
417.39         13.0354
417.83        12.94545
418.28        12.91633
418.73        12.91742
419.17        12.94898
419.62        13.01409
420.07        13.10215
420.51        13.21332
420.96        13.30341
421.41        13.29525
421.85         13.1792
422.30        12.99611
422.74        12.80828
423.19        12.73028
423.64        12.77735
424.08        12.92417
424.53        13.10377
424.98        13.22118
425.42        13.24359
425.87         13.1853
426.31        13.08196
426.76        13.01313
427.21        12.95541
427.65        12.91384
428.10        12.86646
428.54        12.75975
428.99        12.60737
429.44        12.51999
429.88        12.49301
430.33        12.35704
430.77        12.19927
431.22        12.39634
431.66        12.88422
432.11        13.14717
432.56        13.09609
433.00         13.0362
433.45        12.97757
433.89        12.66203
434.34        12.26335
434.78        12.25373
435.23        12.55942
435.67        12.66971
436.12        12.55406
436.57        12.50261
437.01        12.54454
437.46        12.59541
437.90        12.65289
438.35        12.72816
438.79        12.79571
439.24        12.79483
439.68        12.73731
440.13        12.69297
440.57        12.64934
441.02        12.59338
441.46        12.53342
441.91        12.39201
442.35        12.23023
442.80        12.38718
443.24        12.75135
443.69        12.72908
444.13        12.35652
444.58        12.19871
445.02        12.25744
445.47        12.22797
445.91        12.11534
446.36        12.08201
446.80        12.12854
447.24        12.21593
447.69        12.31056
448.13        12.36055
448.58        12.35462
449.02         12.3094
449.47        12.25959
449.91        12.25261
450.36          12.299
450.80        12.37858
451.25        12.45906
451.69        12.48965
452.13        12.45705
452.58        12.38765
453.02        12.30016
453.47         12.2233
453.91        12.16601
454.36         12.1552
454.80        12.13257
455.24        12.14503
455.69        12.17288
456.13        12.21074
456.58        12.25205
457.02        12.27292
457.46        12.27246
457.91        12.25748
458.35        12.22853
458.79        12.19188
459.24        12.16161
459.68        12.14164
460.13        12.14928
460.57          12.154
461.01        12.24944
461.46         12.3041
461.90        12.34647
462.34        12.49027
462.79        12.67077
463.23        12.62695
463.68        12.39695
464.12         12.2738
464.56        12.27862
465.01        12.27502
465.45        12.24774
465.89        12.22857
466.34        12.23547
466.78         12.3182
467.22        12.47831
467.67         12.5139
468.11        12.41941
468.55        12.26773
468.99        12.12037
469.44        12.04162
469.88        12.05166
470.32        12.13934
470.77        12.25309
471.21        12.32128
471.65        12.31873
472.10        12.27381
472.54        12.22546
472.98        12.24917
473.42        12.35472
473.87        12.50632
474.31        12.65284
474.75        12.71915
475.20        12.69329
475.64         12.6029
476.08        12.48082
476.52        12.37345
476.97        12.30054
477.41        12.24671
477.85        12.22804
478.29        12.26778
478.74        12.36622
479.18        12.50862
479.62        12.64778
480.06        12.73986
480.50        12.77831
480.95        12.66058
481.39        12.62391
481.83        12.61889
482.27         12.7284
482.72        12.81868
483.16        13.02168
483.60        13.12179
484.04        13.14918
484.48        13.12813
484.93        13.10921
485.37        13.16733
485.81        13.22887
486.25        13.41754
486.69        12.90053
487.14        13.10108
487.58        13.63817
488.02        13.68045
488.46        13.73819
488.90        13.85931
489.34        13.31067
489.79        13.28876
490.23         13.4957
490.67        13.77935
491.11        14.01429
491.55        13.97767
491.99        13.76127
492.43         13.7937
492.88        14.09779
493.32        14.38301
493.76        14.57912
494.20        14.74031
494.64        14.85295
495.08        14.89578
495.52        14.88927
495.96        14.91162
496.41        14.98641
496.85        15.00823
497.29        14.99082
497.73        15.22366
498.17         15.4595
498.61        15.46975
499.05        15.24694
499.49        15.17778
499.93        15.29968
500.37        15.46167
500.82        15.61452
501.26        15.71782
501.70        15.75546
502.14         15.7641
502.58        15.78638
503.02        15.86989
503.46        16.02597
503.90         16.2377
504.34        16.45966
504.78        16.61497
505.22        16.68113
505.66        16.67791
506.10        16.63307
506.54        16.61149
506.98        16.63481
507.42        16.65247
507.86        16.64288
508.30        16.76006
508.74        16.69347
509.18        16.70116
509.62        16.70724
510.06        16.73985
510.50        16.80198
510.94        16.89004
511.38        16.98813
511.82        17.06213
512.26        17.10327
512.70        17.11747
513.14        17.12653
513.58         17.1659
514.02        17.24178
514.46        17.34198
514.90          17.437
515.34        17.47943
515.78        17.45872
516.22        17.39076
516.66        17.30804
517.10         17.2609
517.54        17.26145
517.98        17.29389
518.42        17.33269
518.86        17.33619
519.30        17.29435
519.74        17.22388
520.18        17.14418
520.62        17.08264
521.06        17.04921
521.50        17.03724
521.93         17.0413
522.37        17.04795
522.81        17.05379
523.25        17.05964
523.69        17.06945
524.13        17.08979
524.57        17.11718
525.01        17.14288
525.45        17.15121
525.89        17.11916
526.32        17.04214
526.76        16.93733
527.20        16.81817
527.64        16.70492
528.08          16.608
528.52        16.52571
528.96         16.4667
529.40        16.44341
529.83        16.45271
530.27         16.4886
530.71        16.53107
531.15        16.55043
531.59        16.53639
532.03        16.49494
532.46        16.42961
532.90        16.35343
533.34        16.27478
533.78        16.19714
534.22        16.12859
534.66        16.08067
535.09        16.05383
535.53        16.04832
535.97        16.06305
536.41        16.09944
536.85        16.15105
537.28        16.21362
537.72         16.2631
538.16        16.26606
538.60        16.21928
539.04        16.13895
539.47        16.04899
539.91        16.00315
540.35        16.01066
540.79        16.06269
541.22        16.14859
541.66        16.25273
542.10         16.3634
542.54        16.48268
542.97        16.60649
543.41        16.72844
543.85        16.84613
544.29        16.96215
544.72         17.0626
545.16        17.14156
545.60        17.19976
546.04        17.23524
546.47        17.27904
546.91        17.40674
547.35        17.61244
547.79        17.81934
548.22        17.99129
548.66        18.16946
549.10         18.3499
549.53        18.44623
549.97        18.44275
550.41        18.69462
550.84        18.64938
551.28        18.72478
551.72          18.761
552.15        18.93352
552.59        19.00723
553.03        19.16857
553.46        19.32922
553.90        19.45499
554.34        19.53428
554.77        19.59719
555.21        19.66082
555.65        19.69959
556.08        19.73779
556.52        19.86182
556.96        20.04361
557.39        20.19337
557.83         20.2938
558.27        20.34036
558.70        20.36669
559.14        20.45148
559.57        20.58415
560.01        20.72367
560.45         20.8307
560.88        20.78774
561.32        20.72555
561.75        20.67141
562.19        20.68275
562.63        20.70746
563.06        20.75165
563.50        20.84995
563.93        20.98111
564.37        21.13501
564.80        21.27703
565.24        21.35031
565.68        21.36359
566.11        21.40879
566.55        21.49435
566.98        21.53963
567.42        21.58063
567.85        21.65144
568.29        21.75636
568.72        21.95149
569.16        22.25035
569.60        22.17938
570.03        22.41466
570.47        22.54222
570.90         22.6456
571.34        22.66596
571.77        22.87199
572.21         22.9835
572.64        23.06823
573.08        23.22116
573.51        23.45251
573.95         23.4166
574.38        23.49559
574.82        23.50522
