SpectraSmart Spectrum 2.9.0.0
--------- Device Information -----------
Spectrum Name :  反射率_0
Saving Time :  2024/04/30 01:12:55
Spectro-Module Model Name : SE2030-DUVN
Spectro-Module Serial Number : OS361AC55029948
Wavelength Start : 200
Wavelength End : 1025
Wavelength Unit : Wavelength(nm)
Spectrum Unit : Reflectance(%)
-----------Spectrum Setting ------------
Integration Time : 20ms
Average : 10
Boxcar : 0
Background removal :  enabled
linearity correction :  enabled
SC :  disabled
Intensity correction :  disabled
DWT denoise :  enabled
savitzky-golay :  disabled
FFT :  disabled
Running average :  disabled
Kalman :  disabled
High pass :  disabled
---------------BEGIN--------------------
Wavelength(nm)             Reflectance(%)
200.29               0
200.75        140.0784
201.21        118.8597
201.67        98.82019
202.13        87.00789
202.58        87.04994
203.04        97.69068
203.50         118.698
203.96        147.1103
204.42        177.7521
204.88        207.4922
205.34        223.6788
205.80        213.1921
206.26         184.271
206.72         150.313
207.18        122.4376
207.64        106.1877
208.10          99.047
208.55         97.5827
209.01        99.65265
209.47        102.0045
209.93        103.1584
210.39        104.2872
210.85        105.4193
211.31        106.7848
211.77        108.6351
212.23        110.6221
212.69        113.1968
213.14        117.0141
213.60         120.034
214.06        122.5297
214.52        123.6941
214.98        123.0933
215.44        121.2902
215.90        118.4345
216.36        116.7916
216.81        120.9339
217.27        133.2617
217.73         155.937
218.19        186.6737
218.65        207.9724
219.11        208.0768
219.57         192.871
220.02        177.4262
220.48        174.5112
220.94        183.6535
221.40        203.5156
221.86        228.6509
222.32        237.1329
222.77        221.6962
223.23        199.0493
223.69        181.2718
224.15        173.8551
224.61        174.8971
225.06        181.8862
225.52        191.4623
225.98        195.9763
226.44         193.445
226.90        187.6765
227.36        183.2772
227.81        183.5528
228.27         188.677
228.73        197.0846
229.19        205.4636
229.65        206.8731
230.10        200.5119
230.56        191.6896
231.02        184.1828
231.48        181.3036
231.93        182.6823
232.39        186.8543
232.85        192.8967
233.31         199.341
233.77        205.1853
234.22        211.2392
234.68        215.5008
235.14        214.8853
235.60        209.1124
236.05        198.9809
236.51        188.7511
236.97        183.8312
237.43          185.29
237.88         193.448
238.34        204.7651
238.80        209.6975
239.26        202.7821
239.71         187.057
240.17        169.5846
240.63         159.259
241.08        158.3406
241.54        165.9499
242.00        183.4025
242.46        202.1711
242.91        209.2126
243.37        202.3867
243.83        189.3824
244.28        180.3931
244.74        176.6667
245.20        173.8128
245.66        172.1465
246.11         173.666
246.57        178.3174
247.03        188.6916
247.48        197.3623
247.94        188.8078
248.40        167.3844
248.85        143.5882
249.31        128.3283
249.77        125.6122
250.22        134.7741
250.68        157.5075
251.14        193.6557
251.59        214.9431
252.05        200.8757
252.51        173.2669
252.96         152.277
253.42        145.6712
253.88        149.1395
254.33        158.8329
254.79        170.4306
255.25        174.3064
255.70         169.245
256.16        162.2738
256.62         157.431
257.07        157.1531
257.53        161.4923
257.99        168.1471
258.44        174.1003
258.90        176.4574
259.35        174.3295
259.81        170.7977
260.27        167.4751
260.72        165.7445
261.18        166.0333
261.63         166.701
262.09        167.0863
262.55         165.414
263.00         161.671
263.46        157.4591
263.91        153.3203
264.37        150.8168
264.83        149.7103
265.28        149.3542
265.74        149.5025
266.19        149.2352
266.65        148.5509
267.11        147.5959
267.56        146.4763
268.02        145.5147
268.47        144.6423
268.93        143.7523
269.38        142.7292
269.84        141.5446
270.30         140.199
270.75        138.7173
271.21        137.1989
271.66        135.5307
272.12        133.7686
272.57        131.8171
273.03        129.7968
273.48        127.7198
273.94        125.7769
274.39        123.8555
274.85        122.0703
275.31        120.2297
275.76        118.2578
276.22         116.368
276.67        114.5198
277.13        113.0242
277.58        111.7307
278.04        110.6681
278.49        109.5829
278.95        108.4572
279.40        107.1165
279.86         105.779
280.31        104.2921
280.77        102.7578
281.22        101.1053
281.68        99.45873
282.13         97.9085
282.59        96.84165
283.04         96.1401
283.50        95.74414
283.95        95.24647
284.41        94.19333
284.86          92.465
285.32        90.38208
285.77        88.19355
286.22        86.44318
286.68        85.26845
287.13        84.43616
287.59        83.84647
288.04        83.20023
288.50        82.47282
288.95        81.66249
289.41        80.87534
289.86        80.10315
290.32        79.39976
290.77        78.70185
291.22        77.95413
291.68        77.08992
292.13        76.09431
292.59        75.07422
293.04         74.1668
293.50        73.66359
293.95        73.55668
294.40        73.78245
294.86        74.10025
295.31        74.14533
295.77          73.834
296.22        73.24864
296.68        72.61882
297.13        72.27006
297.58        72.28795
298.04        72.53983
298.49        72.81445
298.95        72.81977
299.40         72.4678
299.85        71.88394
300.31        71.25012
300.76        70.73358
301.21        70.43497
301.67        70.32527
302.12        70.27962
302.58        70.27261
303.03        70.23536
303.48        70.14581
303.94        70.06532
304.39        70.34448
304.84        70.46329
305.30        70.79766
305.75        71.02428
306.20        70.99352
306.66        70.70401
307.11         70.1897
307.57        69.62341
308.02        69.12029
308.47        68.75427
308.93        68.49495
309.38        68.27688
309.83        68.07575
310.29        67.88258
310.74        67.70238
311.19        67.52139
311.65        67.29843
312.10        67.01405
312.55        66.68407
313.00        66.36775
313.46        66.16287
313.91        66.06917
314.36        66.05691
314.82        66.05087
315.27        65.95897
315.72        65.73779
316.18         65.4188
316.63        65.03198
317.08        64.63766
317.53        64.26943
317.99        63.93673
318.44        63.61995
318.89         63.2957
319.35        62.96512
319.80        62.63853
320.25        62.39127
320.70        62.34069
321.16        62.47441
321.61        62.76955
322.06         63.0577
322.51        63.07883
322.97        62.76715
323.42        62.20642
323.87        61.54937
324.32        61.05328
324.78         60.7766
325.23        60.68257
325.68        60.66426
326.13        60.54676
326.59        60.26979
327.04        59.91633
327.49        59.56488
327.94        59.36074
328.39        59.32876
328.85        59.38361
329.30        59.46417
329.75        59.36612
330.20        59.04731
330.66        58.58203
331.11        58.08779
331.56        57.70313
332.01        57.48593
332.46        57.39215
332.92        57.40737
333.37        57.58358
333.82         57.8741
334.27        58.26473
334.72        58.64966
335.17        58.85291
335.63        58.81387
336.08        58.59379
336.53        58.26205
336.98        57.98867
337.43        57.83467
337.88        57.75851
338.34        57.72909
338.79        57.71097
339.24         57.6796
339.69        57.66869
340.14        57.65633
340.59        57.59585
341.05        57.49197
341.50        57.35649
341.95        57.24484
342.40        57.26117
342.85        57.41494
343.30         57.6514
343.75        57.90454
344.20        58.06947
344.66        58.12324
345.11        58.10347
345.56        58.00136
346.01        57.80055
346.46        57.53365
346.91        57.21725
347.36        56.97832
347.81        57.00985
348.26        57.32534
348.72        57.84269
349.17        58.40346
349.62        58.71018
350.07        58.67711
350.52        58.40366
350.97        57.99385
351.42        57.60886
351.87        57.31809
352.32        57.08134
352.77        56.93779
353.22        56.95311
353.67        57.11639
354.13        57.39561
354.58        57.69135
355.03        57.83339
355.48         57.7662
355.93        57.52582
356.38        57.14941
356.83         56.7044
357.28        56.23092
357.73        55.72746
358.18         55.2314
358.63        54.79986
359.08         54.4478
359.53        54.16791
359.98         53.9424
360.43        53.73288
360.88        53.51804
361.33        53.29883
361.78        53.05303
362.23          52.749
362.68        52.38569
363.13         51.9772
363.58        51.55296
364.03        51.16106
364.48        50.82057
364.93        50.52362
365.38        50.27516
365.83        50.08031
366.28        49.93221
366.73        49.82324
367.18        49.72277
367.63        49.58324
368.08        49.38505
368.53         49.1288
368.98        48.83078
369.43        48.52114
369.88        48.21784
370.33        47.93163
370.78        47.64492
371.23        47.32852
371.68        46.98418
372.13        46.61579
372.58        46.29878
373.03        46.15076
373.48        46.17303
373.93        46.31321
374.38        46.42155
374.83        46.25586
375.28        45.77889
375.72        45.08073
376.17        44.35062
376.62         43.7829
377.07        43.43129
377.52        43.22474
377.97         43.1423
378.42        43.14951
378.87         43.2088
379.32        43.32601
379.77        43.41527
380.22        43.34551
380.67        43.09294
381.11        42.67908
381.56        42.20477
382.01        41.85519
382.46        41.68451
382.91        41.65261
383.36        41.65721
383.81         41.5339
384.26        41.25182
384.71        40.86912
385.15        40.48631
385.60        40.29359
386.05        40.30762
386.50        40.45503
386.95        40.62017
387.40        40.63023
387.85        40.44754
388.29        40.11193
388.74        39.75692
389.19        39.44957
389.64        39.21436
390.09        39.01902
390.54        38.85722
390.98        38.71792
391.43        38.61685
391.88        38.55775
392.33        38.51527
392.78        38.48565
393.23        38.46579
393.67        38.36144
394.12        38.21816
394.57        38.36049
395.02        38.23024
395.47        38.25795
395.91        38.25635
396.36        38.17977
396.81        38.03359
397.26        37.84775
397.71          37.654
398.15        37.48256
398.60        37.39012
399.05        37.28457
399.50        37.16824
399.95        37.20752
400.39        37.20384
400.84        37.14113
401.29        36.95982
401.74        36.78609
402.18        36.63495
402.63        36.41482
403.08        36.19709
403.53        36.11583
403.97         36.1808
404.42        36.35387
404.87        36.52959
405.32        36.53633
405.76        36.33497
406.21        35.99756
406.66        35.63665
407.11        35.43316
407.55        35.44083
408.00        35.59657
408.45        35.81688
408.90        35.94338
409.34        35.92317
409.79        35.80139
410.24        35.65929
410.68        35.61746
411.13        35.70164
411.58        35.86548
412.03        36.02713
412.47        36.05897
412.92         35.9155
413.37        35.66298
413.81        35.37505
414.26        35.20153
414.71        35.15388
415.15        35.19595
415.60        35.26778
416.05        35.29927
416.49        35.26788
416.94        35.20212
417.39        35.11122
417.83        34.99997
418.28        34.88394
418.73        34.75503
419.17        34.65379
419.62        34.65229
420.07        34.75097
420.51        34.91839
420.96        35.09296
421.41        35.14762
421.85        35.04644
422.30        34.88941
422.74        34.70463
423.19        34.52741
423.64        34.39667
424.08        34.43701
424.53        34.58916
424.98        34.67096
425.42        34.65861
425.87        34.62775
426.31        34.57822
426.76        34.51493
427.21         34.3442
427.65        34.13908
428.10        33.91994
428.54        33.73734
428.99        33.63357
429.44        33.65413
429.88        33.73147
430.33        33.65951
430.77        33.48718
431.22        33.58539
431.66        33.92494
432.11        34.15133
432.56        34.21066
433.00        34.17453
433.45         34.0613
433.89          34.022
434.34        34.02896
434.78        33.98768
435.23         33.5965
435.67        33.40434
436.12        33.34696
436.57        33.26894
437.01        33.18922
437.46        33.20462
437.90        33.31526
438.35        33.49711
438.79        33.68839
439.24        33.73415
439.68        33.64698
440.13        33.59655
440.57        33.58059
441.02        33.53557
441.46        33.46418
441.91        33.32525
442.35        33.14521
442.80        33.30066
443.24        33.64367
443.69        33.49068
444.13        32.91945
444.58        32.64671
445.02        32.67403
445.47        32.64081
445.91        32.53181
446.36        32.50601
446.80        32.55001
447.24        32.63052
447.69        32.72139
448.13        32.77277
448.58        32.77982
449.02         32.7492
449.47        32.71701
449.91        32.72206
450.36        32.77929
450.80        32.86828
451.25        32.96238
451.69        33.00815
452.13        32.99278
452.58        32.94377
453.02        32.88287
453.47        32.83719
453.91        32.80834
454.36        32.88078
454.80        32.87487
455.24        32.88535
455.69        32.86588
456.13        32.82255
456.58        32.78567
457.02        32.77171
457.46        32.79063
457.91        32.83097
458.35        32.86668
458.79        32.88295
459.24        32.89027
459.68        32.91182
460.13        32.95123
460.57        32.87091
461.01        32.92157
461.46        32.79163
461.90        32.62214
462.34        32.82207
462.79         33.2536
463.23         33.2109
463.68        32.76045
464.12        32.59032
464.56        32.72668
465.01        32.83404
465.45        32.83314
465.89        32.74725
466.34        32.62754
466.78        32.62086
467.22        32.81001
467.67        32.80884
468.11        32.64703
468.55        32.47696
468.99        32.35966
469.44        32.30616
469.88        32.32876
470.32        32.42857
470.77        32.55585
471.21        32.64635
471.65        32.67076
472.10        32.65573
472.54        32.61858
472.98         32.6133
473.42        32.65165
473.87        32.71577
474.31        32.77711
474.75        32.80816
475.20        32.81012
475.64        32.78647
476.08        32.75792
476.52        32.74054
476.97        32.74063
477.41        32.75774
477.85        32.80009
478.29        32.82072
478.74        32.91986
479.18        32.99289
479.62        33.04298
480.06        33.10624
480.50        33.19999
480.95        33.02624
481.39        33.10401
481.83        33.12056
482.27        33.24816
482.72        33.19388
483.16        33.41199
483.60        33.49871
484.04        33.57466
484.48        33.67788
484.93        33.79524
485.37        33.76674
485.81        33.62211
486.25        33.55399
486.69        33.63367
487.14        33.70783
487.58        33.49122
488.02        34.22747
488.46        33.87197
488.90        34.54974
489.34        33.98912
489.79        34.03696
490.23        34.18695
490.67         34.4025
491.11         34.6223
491.55        34.59355
491.99        34.40714
492.43         34.4411
492.88        34.71383
493.32        34.98646
493.76        35.20193
494.20        35.41397
494.64        35.61134
495.08        35.77158
495.52        35.87737
495.96        35.96376
496.41        36.04685
496.85        35.99381
497.29        35.85323
497.73        36.14538
498.17         36.3839
498.61        36.47099
499.05        36.30477
499.49        36.26227
499.93        36.39013
500.37        36.61028
500.82        36.86449
501.26        37.01912
501.70        37.05301
502.14        37.06055
502.58        37.08664
503.02        37.15657
503.46        37.28671
503.90        37.46894
504.34        37.67605
504.78        37.86107
505.22        38.00232
505.66        38.09962
506.10        38.14672
506.54        38.17911
506.98         38.2118
507.42        38.16706
507.86        38.01577
508.30        38.14945
508.74        37.88071
509.18        37.78099
509.62        37.70287
510.06        37.75367
510.50        37.93879
510.94        38.23512
511.38        38.55415
511.82        38.72726
512.26         38.7152
512.70         38.5662
513.14        38.37191
513.58        38.27813
514.02        38.32465
514.46        38.46786
514.90        38.65134
515.34        38.78312
515.78        38.83202
516.22        38.82605
516.66        38.79836
517.10        38.79682
517.54        38.83346
517.98        38.88931
518.42        38.93115
518.86        38.91119
519.30        38.82185
519.74        38.68301
520.18        38.54144
520.62        38.46424
521.06        38.46837
521.50        38.53979
521.93        38.63346
522.37        38.66199
522.81        38.60992
523.25        38.49759
523.69        38.38413
524.13        38.36128
524.57        38.44233
525.01        38.59292
525.45        38.73791
525.89        38.75697
526.32        38.62079
526.76        38.38675
527.20        38.12792
527.64        37.95749
528.08        37.90494
528.52        37.93339
528.96         38.0041
529.40        38.05594
529.83        38.06321
530.27        38.04922
530.71        38.01616
531.15        37.96964
531.59        37.91442
532.03        37.84542
532.46        37.76407
532.90         37.6919
533.34        37.63097
533.78        37.58136
534.22        37.54333
534.66        37.51366
535.09        37.48726
535.53        37.47494
535.97        37.46564
536.41        37.45145
536.85        37.42894
537.28        37.39439
537.72        37.35926
538.16        37.34155
538.60        37.34449
539.04        37.36958
539.47        37.38477
539.91        37.37289
540.35         37.3258
540.79        37.26354
541.22        37.22831
541.66        37.29377
542.10        37.46664
542.54        37.71747
542.97         37.9961
543.41          38.234
543.85        38.40516
544.29        38.53688
544.72        38.62034
545.16        38.66782
545.60        38.68866
546.04        38.66431
546.47        38.64805
546.91        38.78612
547.35        39.06528
547.79        39.33346
548.22         39.5256
548.66        39.75145
549.10        40.00512
549.53        40.09156
549.97        39.98432
550.41        40.46932
550.84        40.34806
551.28        40.51781
551.72        40.59995
552.15        40.92229
552.59        40.96877
553.03        41.15489
553.46        41.32633
553.90        41.46956
554.34        41.57189
554.77        41.68077
555.21        41.79654
555.65        41.81572
556.08        41.77808
556.52        41.87983
556.96        42.09523
557.39         42.2818
557.83        42.42071
558.27        42.50027
558.70        42.55092
559.14        42.69313
559.57        42.89743
560.01        43.03843
560.45         43.1129
560.88        43.11261
561.32        43.24562
561.75        43.27063
562.19        43.26275
562.63        43.21026
563.06        43.14794
563.50        43.20665
563.93        43.34724
564.37        43.43806
564.80        43.45861
565.24        43.50139
565.68        43.57565
566.11        43.68925
566.55        43.84434
566.98        43.96528
567.42        44.09729
567.85        44.23874
568.29        44.38819
568.72        44.63972
569.16        45.04146
569.60        44.77359
570.03        45.22584
570.47        45.31277
570.90        45.40027
571.34        45.53537
571.77        45.66737
572.21        45.81984
572.64        45.94616
573.08        46.06293
573.51        46.23223
573.95        46.19309
574.38         46.7507
574.82        46.53684
