SpectraSmart Spectrum 2.9.0.0
--------- Device Information -----------
Spectrum Name :  反射率_0
Saving Time :  2024/04/30 00:45:45
Spectro-Module Model Name : SE2030-DUVN
Spectro-Module Serial Number : OS361AC55029948
Wavelength Start : 200
Wavelength End : 1025
Wavelength Unit : Wavelength(nm)
Spectrum Unit : Reflectance(%)
-----------Spectrum Setting ------------
Integration Time : 20ms
Average : 10
Boxcar : 0
Background removal :  enabled
linearity correction :  enabled
SC :  disabled
Intensity correction :  disabled
DWT denoise :  enabled
savitzky-golay :  disabled
FFT :  disabled
Running average :  disabled
Kalman :  disabled
High pass :  disabled
---------------BEGIN--------------------
Wavelength(nm)             Reflectance(%)
200.29               0
200.75        56.81363
201.21        43.97986
201.67        27.43441
202.13        13.17361
202.58        4.208302
203.04      -0.7577084
203.50      -0.2904631
203.96        8.127378
204.42        23.85978
204.88        45.49715
205.34        64.71935
205.80        69.49143
206.26        61.59354
206.72         48.9576
207.18        37.20333
207.64        29.55768
208.10        25.34208
208.55        22.46637
209.01        21.75567
209.47         25.4281
209.93        32.33154
210.39        40.70826
210.85        47.06524
211.31        48.55857
211.77        45.10538
212.23        36.04961
212.69        22.89947
213.14        16.56884
213.60        22.56672
214.06        35.01109
214.52        46.12634
214.98         50.9464
215.44        50.43614
215.90        46.69308
216.36        42.10084
216.81        41.12009
217.27        46.04375
217.73        56.39686
218.19        71.04758
218.65        81.72601
219.11        82.24468
219.57        76.01041
220.02        67.85194
220.48        60.93267
220.94         54.3703
221.40        45.93616
221.86         36.4375
222.32        31.81615
222.77        34.22937
223.23        40.51316
223.69        45.39758
224.15        45.67133
224.61        41.84916
225.06        34.67435
225.52        26.99325
225.98        25.22021
226.44         30.1837
226.90        37.83886
227.36        44.19857
227.81        46.70832
228.27        45.82781
228.73        42.53793
229.19        38.54385
229.65        37.30501
230.10        39.40714
230.56        43.01335
231.02        46.01484
231.48        46.63239
231.93        44.90029
232.39        41.60817
232.85        37.91972
233.31        36.02843
233.77        36.64975
234.22        39.25192
234.68        42.45879
235.14        43.73325
235.60        42.40751
236.05        39.40813
236.51        36.34204
236.97        35.23054
237.43        36.59548
237.88        40.23045
238.34        45.46601
238.80         49.9826
239.26        51.81616
239.71        51.44247
240.17         49.6778
240.63        48.09261
241.08        47.16123
241.54        46.12304
242.00        45.40692
242.46        47.06106
242.91        52.56845
243.37        60.88638
243.83        68.14716
244.28        71.26338
244.74        70.09586
245.20        64.37001
245.66        55.92485
246.11        50.05669
246.57        49.89254
247.03        55.14813
247.48        62.11533
247.94        62.02226
248.40        55.14018
248.85        46.64226
249.31        41.22327
249.77        40.95851
250.22        45.71709
250.68        56.13774
251.14        72.05487
251.59        81.07716
252.05        74.47742
252.51        62.28579
252.96        52.64064
253.42        48.03872
253.88        46.72294
254.33         46.8788
254.79        48.43153
255.25        50.38474
255.70        51.77923
256.16        53.09871
256.62        53.97302
257.07        54.14817
257.53        54.12146
257.99        53.82154
258.44         53.3498
258.90        53.48801
259.35        53.80792
259.81         54.3039
260.27        54.61207
260.72        54.47986
261.18         54.1229
261.63        53.44318
262.09        52.66942
262.55        51.77597
263.00        50.78403
263.46        49.91088
263.91        49.01758
264.37        48.21629
264.83        47.42818
265.28        46.58442
265.74        45.89346
266.19         45.4445
266.65        45.29109
267.11         45.3217
267.56        45.30704
268.02        44.92422
268.47        44.09777
268.93        42.94693
269.38        41.65667
269.84        40.67162
270.30        40.10298
270.75        39.81511
271.21        39.63696
271.66        39.28311
272.12        38.67634
272.57        37.87897
273.03        36.98704
273.48         36.0632
273.94         35.2213
274.39        34.42073
274.85         33.7095
275.31        33.07317
275.76        32.49467
276.22        32.00938
276.67        31.61379
277.13        31.39306
277.58         31.2789
278.04        31.25285
278.49        31.16796
278.95        30.91979
279.40        30.44629
279.86        29.86621
280.31        29.20724
280.77        28.63425
281.22        28.15991
281.68        27.79092
282.13        27.51982
282.59        27.38413
283.04        27.34738
283.50         27.3897
283.95        27.43691
284.41        27.38698
284.86        27.20465
285.32        26.95908
285.77        26.64571
286.22        26.33633
286.68        26.06784
287.13        25.78788
287.59        25.56787
288.04        25.45906
288.50        25.47443
288.95        25.56353
289.41        25.64825
289.86        25.56464
290.32        25.31851
290.77        24.97198
291.22        24.61963
291.68        24.40903
292.13        24.37677
292.59        24.49197
293.04        24.77291
293.50        25.27511
293.95        25.97325
294.40        26.85125
294.86        27.74662
295.31        28.41792
295.77        28.81112
296.22        28.97937
296.68        29.10982
297.13        29.48112
297.58        30.16625
298.04        31.05411
298.49        31.98065
298.95          32.686
299.40         33.1058
299.85        33.33303
300.31         33.5008
300.76        33.74917
301.21        34.14682
301.67        34.64698
302.12        35.15855
302.58        35.69094
303.03        36.21142
303.48        36.60724
303.94        36.88343
304.39        37.69321
304.84        37.93672
305.30         38.4803
305.75        38.92955
306.20        39.25891
306.66        39.46481
307.11        39.55957
307.57        39.62125
308.02        39.68023
308.47        39.76844
308.93        39.87965
309.38        39.98087
309.83        40.07304
310.29         40.1518
310.74         40.2179
311.19        40.25354
311.65        40.22027
312.10        40.11213
312.55         39.9468
313.00        39.78195
313.46        39.70809
313.91        39.72858
314.36        39.81617
314.82        39.90911
315.27        39.92826
315.72        39.83736
316.18         39.6685
316.63         39.4339
317.08        39.16663
317.53        38.89185
317.99        38.61401
318.44        38.35023
318.89        38.13354
319.35        37.96898
319.80        37.84735
320.25        37.76986
320.70        37.73248
321.16        37.71323
321.61        37.73013
322.06        37.72116
322.51        37.59905
322.97        37.35017
323.42        37.00114
323.87        36.64305
324.32        36.42997
324.78        36.38167
325.23        36.47184
325.68        36.58391
326.13        36.52245
326.59        36.23188
327.04        35.78867
327.49        35.30043
327.94        34.95791
328.39        34.80838
328.85        34.77547
329.30        34.79979
329.75        34.71868
330.20        34.48766
330.66        34.16796
331.11        33.81229
331.56        33.47071
332.01        33.17144
332.46        32.88577
332.92        32.64594
333.37        32.55568
333.82        32.61086
334.27        32.78802
334.72        32.97354
335.17        32.97089
335.63        32.72965
336.08        32.32096
336.53        31.84519
336.98        31.49993
337.43        31.35127
337.88        31.33759
338.34        31.41313
338.79        31.52365
339.24        31.62619
339.69        31.74619
340.14        31.83034
340.59        31.78632
341.05        31.60772
341.50        31.31547
341.95        31.00538
342.40        30.84459
342.85        30.86315
343.30        31.00048
343.75        31.16553
344.20        31.20856
344.66        31.09781
345.11        30.88585
345.56        30.60515
346.01        30.30321
346.46        30.02166
346.91        29.75384
347.36        29.56398
347.81        29.55095
348.26        29.71566
348.72        30.01768
349.17        30.35755
349.62        30.55556
350.07        30.55737
350.52        30.41566
350.97        30.19034
351.42        29.97786
351.87        29.81993
352.32        29.69485
352.77        29.62003
353.22        29.62579
353.67         29.7052
354.13        29.84037
354.58        29.99235
355.03        30.09289
355.48        30.11397
355.93        30.06991
356.38         29.9458
356.83        29.72475
357.28        29.42323
357.73        29.05863
358.18        28.70235
358.63        28.46618
359.08        28.37128
359.53        28.38315
359.98        28.43867
360.43        28.43175
360.88        28.32942
361.33        28.16264
361.78        27.95264
362.23        27.73433
362.68        27.52792
363.13        27.32656
363.58        27.14403
364.03        27.00471
364.48        26.91065
364.93        26.85295
365.38        26.82263
365.83        26.80148
366.28        26.77707
366.73        26.75044
367.18        26.69585
367.63        26.57546
368.08        26.38717
368.53         26.1436
368.98        25.89205
369.43        25.71065
369.88        25.62009
370.33        25.60198
370.78        25.61446
371.23        25.58507
371.68         25.4922
372.13        25.35447
372.58        25.19999
373.03        25.07667
373.48        24.99062
373.93        24.91349
374.38         24.8231
374.83         24.6869
375.28         24.5034
375.72        24.29646
376.17        24.08507
376.62        23.84491
377.07        23.58328
377.52        23.29896
377.97        23.06977
378.42        23.02609
378.87        23.17793
379.32        23.47217
379.77        23.76533
380.22          23.846
380.67        23.67197
381.11        23.30286
381.56        22.86661
382.01        22.57909
382.46        22.50587
382.91        22.58918
383.36        22.72634
383.81        22.75911
384.26         22.6504
384.71        22.45076
385.15        22.24141
385.60        22.17353
386.05        22.25707
386.50        22.42826
386.95        22.58527
387.40        22.57662
387.85         22.3806
388.29        22.05601
388.74        21.71735
389.19        21.44699
389.64        21.27221
390.09        21.15695
390.54        21.11008
390.98        21.14357
391.43        21.24872
391.88        21.41066
392.33        21.55407
392.78        21.59373
393.23        21.52208
393.67        21.31572
394.12        21.06253
394.57        21.03256
395.02         20.9391
395.47        20.99093
395.91        21.04985
396.36        21.02406
396.81        20.90259
397.26        20.73468
397.71        20.55907
398.15        20.41884
398.60        20.35653
399.05        20.30525
399.50        20.27534
399.95        20.37604
400.39        20.49545
400.84        20.61851
401.29        20.67351
401.74        20.65965
402.18        20.56513
402.63         20.3572
403.08        20.11855
403.53        19.99266
403.97        20.00671
404.42        20.12299
404.87        20.26233
405.32        20.29458
405.76        20.18394
406.21        19.97907
406.66        19.75842
407.11         19.6452
407.55        19.67438
408.00        19.80698
408.45        19.96149
408.90        19.99242
409.34        19.86353
409.79        19.62219
410.24         19.3867
410.68        19.33244
411.13        19.49326
411.58        19.81268
412.03        20.15775
412.47        20.30263
412.92        20.17771
413.37        19.87053
413.81        19.51118
414.26        19.32039
414.71        19.33143
415.15        19.47991
415.60        19.67034
416.05        19.76416
416.49        19.71959
416.94        19.59471
417.39        19.43074
417.83        19.28421
418.28        19.18559
418.73        19.10536
419.17        19.06924
419.62        19.12482
420.07         19.2639
420.51        19.46528
420.96        19.65487
421.41         19.7028
421.85         19.5841
422.30        19.36661
422.74        19.11399
423.19          18.952
423.64        18.90289
424.08        18.93832
424.53        19.02631
424.98        19.14095
425.42        19.26403
425.87        19.38923
426.31        19.48327
426.76        19.52353
427.21        19.44156
427.65        19.27903
428.10        19.08288
428.54        18.91693
428.99        18.82383
429.44        18.88836
429.88        19.02577
430.33        18.91813
430.77        18.65053
431.22        18.72072
431.66        19.11521
432.11        19.35145
432.56        19.35944
433.00         19.4352
433.45        19.52699
433.89          19.251
434.34        18.77224
434.78        18.65939
435.23         18.8804
435.67        18.93685
436.12        18.81799
436.57        18.82355
437.01        18.94651
437.46        19.02143
437.90        19.03371
438.35        19.03345
438.79        19.03182
439.24        19.01334
439.68        19.00467
440.13        19.07121
440.57        19.17805
441.02        19.24291
441.46        19.24834
441.91        19.17256
442.35        19.04634
442.80        19.13966
443.24        19.35937
443.69        19.22689
444.13        18.81758
444.58        18.65551
445.02        18.74546
445.47        18.82805
445.91        18.86044
446.36        18.90377
446.80        18.94005
447.24        18.96352
447.69        18.97497
448.13        18.97522
448.58        18.97001
449.02         18.9512
449.47        18.94612
449.91        18.98881
450.36        19.08274
450.80        19.21357
451.25        19.33254
451.69        19.35706
452.13         19.2728
452.58        19.11713
453.02        18.94476
453.47        18.84044
453.91        18.82402
454.36        18.92536
454.80         19.0145
455.24        19.10173
455.69        19.14213
456.13        19.14515
456.58        19.13799
457.02         19.1443
457.46        19.17335
457.91        19.21376
458.35        19.23344
458.79        19.19713
459.24        19.11637
459.68        19.02013
460.13        18.95222
460.57        18.89396
461.01        19.00058
461.46        19.06326
461.90        19.12519
462.34        19.36739
462.79        19.68766
463.23         19.6761
463.68        19.37999
464.12        19.23653
464.56         19.2735
465.01        19.28057
465.45        19.23564
465.89        19.19222
466.34        19.18236
466.78        19.28434
467.22        19.51085
467.67        19.56316
468.11         19.4392
468.55        19.25089
468.99        19.07849
469.44        18.99834
469.88        19.03481
470.32        19.16796
470.77        19.33594
471.21        19.45261
471.65        19.48355
472.10        19.46285
472.54        19.41792
472.98        19.40954
473.42        19.45255
473.87        19.52418
474.31        19.59825
474.75        19.64295
475.20        19.65685
475.64        19.64979
476.08        19.64001
476.52        19.64886
476.97        19.68302
477.41        19.72899
477.85        19.79081
478.29        19.87391
478.74        19.97934
479.18        20.09002
479.62        20.17707
480.06         20.2445
480.50        20.30073
480.95        20.16858
481.39        20.18979
481.83        20.21736
482.27        20.36715
482.72        20.44511
483.16          20.696
483.60        20.83926
484.04        20.95992
484.48        21.01323
484.93         21.0025
485.37        21.15599
485.81        21.44938
486.25        21.12913
486.69         20.8273
487.14        21.10294
487.58        21.78788
488.02        21.85277
488.46        22.23851
488.90         22.3011
489.34        21.91582
489.79        21.93824
490.23        22.20406
490.67        22.50741
491.11        22.74446
491.55        22.78761
491.99        22.70374
492.43        22.81795
492.88        23.14072
493.32        23.43231
493.76        23.64698
494.20        23.86344
494.64        24.07915
495.08        24.26502
495.52        24.40094
495.96        24.52276
496.41         24.6465
496.85        24.62288
497.29        24.52284
497.73        24.89547
498.17         25.3565
498.61        25.50705
499.05        25.28724
499.49         25.2691
499.93        25.49691
500.37        25.73426
500.82        25.93825
501.26        26.10243
501.70        26.21183
502.14        26.30608
502.58        26.40485
503.02        26.50694
503.46        26.61957
503.90        26.74927
504.34        26.88436
504.78        27.00064
505.22         27.0918
505.66        27.16047
506.10        27.21184
506.54         27.2851
506.98        27.39174
507.42        27.46776
507.86        27.48174
508.30        27.69625
508.74        27.60193
509.18         27.6128
509.62         27.6141
510.06        27.67504
510.50        27.80196
510.94        27.98433
511.38        28.17177
511.82        28.26579
512.26        28.24676
512.70        28.14411
513.14        28.02551
513.58         27.9963
514.02        28.08049
514.46        28.24586
514.90        28.43202
515.34        28.53945
515.78        28.54113
516.22        28.46915
516.66         28.3734
517.10        28.33112
517.54         28.3613
517.98        28.43513
518.42         28.5163
518.86        28.54862
519.30        28.51716
519.74        28.44527
520.18         28.3568
520.62        28.28431
521.06        28.24145
521.50        28.22142
521.93        28.22145
522.37        28.22896
522.81        28.24202
523.25        28.25973
523.69        28.28601
524.13        28.32685
524.57        28.37708
525.01        28.42738
525.45        28.45342
525.89        28.41935
526.32        28.31631
526.76        28.16685
527.20        27.99796
527.64        27.85242
528.08        27.74451
528.52        27.66707
528.96        27.61094
529.40        27.55941
529.83        27.50488
530.27        27.45529
530.71        27.41264
531.15        27.38226
531.59        27.36202
532.03        27.34506
532.46        27.31752
532.90        27.26971
533.34        27.19965
533.78        27.11768
534.22        27.03415
534.66        26.96393
535.09         26.9099
535.53        26.87361
535.97        26.85785
536.41        26.87358
536.85        26.91733
537.28        26.98313
537.72        27.04638
538.16        27.06877
538.60         27.0449
539.04        26.99259
539.47        26.93057
539.91        26.91321
540.35        26.94754
540.79        27.02643
541.22        27.14364
541.66        27.29284
542.10         27.4624
542.54        27.65097
542.97        27.84652
543.41        28.03554
543.85         28.2104
544.29         28.3768
544.72        28.51833
545.16        28.63085
545.60        28.71696
546.04        28.77231
546.47        28.83481
546.91        29.00816
547.35        29.28282
547.79        29.54268
548.22        29.75224
548.66        30.01748
549.10        30.33658
549.53        30.55209
549.97        30.61688
550.41        31.08925
550.84        31.03841
551.28         31.1675
551.72        31.20877
552.15        31.45141
552.59        31.51077
553.03        31.69759
553.46        31.88518
553.90        32.04951
554.34        32.17702
554.77        32.31061
555.21        32.45496
555.65        32.53174
556.08         32.5714
556.52        32.72448
556.96        32.96424
557.39        33.17218
557.83         33.3278
558.27        33.41758
558.70        33.47671
559.14        33.60569
559.57        33.78329
560.01        33.94952
560.45        34.06927
560.88        34.00906
561.32        33.97693
561.75        33.96277
562.19        34.03745
562.63        34.10015
563.06        34.15027
563.50        34.26936
563.93        34.42321
564.37        34.55167
564.80        34.63446
565.24        34.69657
565.68        34.75374
566.11        34.85437
566.55        35.00547
566.98        35.13881
567.42        35.28175
567.85        35.40889
568.29        35.51905
568.72        35.72673
569.16         36.0892
569.60        35.89197
570.03        36.23623
570.47        36.42931
570.90        36.61443
571.34        36.56545
571.77        36.84002
572.21        36.95753
572.64        37.04661
573.08        37.14983
573.51        37.35299
573.95        37.20984
574.38        37.58024
574.82        37.75195
