SpectraSmart Spectrum 2.9.0.0
--------- Device Information -----------
Spectrum Name :  反射率_0
Saving Time :  2024/04/30 01:17:52
Spectro-Module Model Name : SE2030-DUVN
Spectro-Module Serial Number : OS361AC55029948
Wavelength Start : 200
Wavelength End : 1025
Wavelength Unit : Wavelength(nm)
Spectrum Unit : Reflectance(%)
-----------Spectrum Setting ------------
Integration Time : 20ms
Average : 10
Boxcar : 0
Background removal :  enabled
linearity correction :  enabled
SC :  disabled
Intensity correction :  disabled
DWT denoise :  enabled
savitzky-golay :  disabled
FFT :  disabled
Running average :  disabled
Kalman :  disabled
High pass :  disabled
---------------BEGIN--------------------
Wavelength(nm)             Reflectance(%)
200.29               0
200.75        43.65789
201.21        28.04105
201.67        7.320222
202.13       -11.48378
202.58        -24.6789
203.04       -32.82451
203.50       -34.56266
203.96        -27.9428
204.42       -13.38869
204.88        7.706795
205.34        30.13098
205.80        44.78335
206.26         49.8302
206.72        49.32153
207.18        45.17747
207.64         38.4012
208.10        29.44961
208.55        17.43258
209.01         6.01102
209.47        4.508975
209.93        13.67683
210.39        28.35379
210.85        40.76785
211.31        44.42264
211.77        38.85161
212.23        23.69022
212.69        1.273713
213.14       -10.90962
213.60       -2.841262
214.06        15.71392
214.52         32.4554
214.98        39.44552
215.44        37.95908
215.90        31.39013
216.36        23.07031
216.81        19.09557
217.27        22.74099
217.73          33.117
218.19        49.51066
218.65         63.8427
219.11        68.60403
219.57        66.02675
220.02        60.66716
220.48        56.34927
220.94        52.90641
221.40        48.70164
221.86         43.6298
222.32        39.92725
222.77        39.12126
223.23        40.81413
223.69         42.7265
224.15        43.34739
224.61        42.81648
225.06        41.42184
225.52        40.24259
225.98        41.08313
226.44        43.80587
226.90        46.98866
227.36        49.44595
227.81        50.53793
228.27        50.52781
228.73        49.69371
229.19        48.55809
229.65        48.14721
230.10        48.66846
230.56        49.71994
231.02        50.58776
231.48        50.68784
231.93        49.96362
232.39        48.65514
232.85        47.25652
233.31        46.75313
233.77         47.4109
234.22        49.09404
234.68        50.77301
235.14        50.63791
235.60        48.38068
236.05        44.70142
236.51        41.22809
236.97        39.98202
237.43        41.42347
237.88        45.49192
238.34         51.2532
238.80         55.5916
239.26        56.18631
239.71        53.70703
240.17        49.69337
240.63        46.50991
241.08        44.62608
241.54        43.11867
242.00        41.97967
242.46        41.77069
242.91        43.26716
243.37        46.88139
243.83        50.45959
244.28        51.45996
244.74        49.43081
245.20        44.04994
245.66        37.20036
246.11        34.12229
246.57        37.53316
247.03        46.53493
247.48        56.63905
247.94        57.39745
248.40        49.23947
248.85        38.94917
249.31        31.51545
249.77        28.70253
250.22         29.9434
250.68        34.81713
251.14         44.6363
251.59         55.5889
252.05         60.1996
252.51        59.89478
252.96        57.55558
253.42        55.25763
253.88         52.8593
254.33        49.51488
254.79        46.38914
255.25         45.5006
255.70        46.67176
256.16        48.83505
256.62         50.4896
257.07        50.57787
257.53        49.64978
257.99        48.10749
258.44        46.35376
258.90        45.58191
259.35        45.52542
259.81        45.89836
260.27        46.26358
260.72        46.32616
261.18        46.20254
261.63         45.8216
262.09        45.31039
262.55        44.55341
263.00        43.58524
263.46        42.64368
263.91        41.67526
264.37        40.84196
264.83        40.08551
265.28        39.31528
265.74        38.70956
266.19        38.33687
266.65        38.23489
267.11        38.31441
267.56        38.35308
268.02         38.0229
268.47        37.25853
268.93        36.17387
269.38        34.97168
269.84        34.12513
270.30        33.74097
270.75        33.67265
271.21        33.70906
271.66        33.51907
272.12        33.02441
272.57        32.32084
273.03        31.53158
273.48        30.76906
273.94        30.14233
274.39        29.56958
274.85        29.09188
275.31        28.70895
275.76        28.38057
276.22        28.12004
276.67        27.84907
277.13        27.52732
277.58        27.11103
278.04        26.66896
278.49        26.17012
278.95        25.65809
279.40        25.11275
279.86        24.58041
280.31        24.09522
280.77        23.81382
281.22        23.70681
281.68        23.75289
282.13        23.80929
282.59        23.71399
283.04        23.42281
283.50        22.97932
283.95        22.48748
284.41        22.11669
284.86        21.89612
285.32        21.80804
285.77        21.70804
286.22        21.44936
286.68        21.02702
287.13        20.47019
287.59        19.95835
288.04        19.71144
288.50        19.77164
288.95        20.02416
289.41        20.28633
289.86         20.2614
290.32         19.9142
290.77        19.34169
291.22        18.71041
291.68        18.28398
292.13        18.12874
292.59        18.17616
293.04        18.35905
293.50        18.59459
293.95         18.8461
294.40        19.15094
294.86        19.46894
295.31        19.74935
295.77        19.98328
296.22        20.16876
296.68        20.37454
297.13        20.69533
297.58        21.15277
298.04         21.6831
298.49        22.22119
298.95         22.6529
299.40        22.94739
299.85        23.14162
300.31        23.26241
300.76        23.30655
301.21        23.31583
301.67        23.29525
302.12        23.27186
302.58        23.42139
303.03        23.75585
303.48        24.07975
303.94         24.2798
304.39        24.98197
304.84        24.82849
305.30        24.91688
305.75        24.91041
306.20        24.96472
306.66        25.10213
307.11        25.28599
307.57        25.45984
308.02        25.48096
308.47        25.34115
308.93        25.09293
309.38        24.82519
309.83        24.71624
310.29        24.79577
310.74        25.00323
311.19        25.20958
311.65        25.21065
312.10        24.96723
312.55        24.55062
313.00        24.09642
313.46        23.81498
313.91        23.74374
314.36        23.81268
314.82        23.91591
315.27         23.9021
315.72        23.71783
316.18        23.42945
316.63        23.07442
317.08        22.71957
317.53        22.40327
317.99         22.1135
318.44        21.87336
318.89        21.72491
319.35        21.66865
319.80        21.69094
320.25        21.75989
320.70        21.81878
321.16        21.83433
321.61        21.82261
322.06        21.76177
322.51        21.63214
322.97        21.43808
323.42        21.19121
323.87        20.93226
324.32        20.73132
324.78          20.599
325.23        20.52943
325.68        20.48672
326.13        20.40828
326.59         20.2716
327.04        20.10523
327.49         19.9242
327.94        19.76171
328.39        19.62508
328.85        19.49176
329.30        19.36813
329.75        19.23942
330.20        19.10757
330.66        18.98666
331.11        18.87524
331.56        18.75108
332.01        18.61082
332.46        18.44685
332.92        18.30011
333.37        18.26066
333.82        18.33639
334.27        18.50509
334.72        18.65807
335.17        18.61453
335.63        18.33853
336.08        17.88933
336.53        17.40396
336.98        17.12743
337.43        17.12642
337.88         17.3242
338.34        17.60032
338.79        17.78043
339.24        17.80257
339.69        17.73185
340.14        17.60253
340.59        17.47298
341.05        17.37311
341.50        17.26654
341.95        17.19167
342.40        17.22119
342.85        17.35401
343.30        17.57104
343.75        17.76446
344.20        17.75719
344.66        17.52719
345.11         17.1249
345.56        16.68118
346.01        16.40527
346.46        16.35652
346.91        16.47512
347.36         16.6693
347.81        16.80063
348.26        16.82637
348.72        16.78018
349.17        16.70737
349.62        16.68646
350.07        16.73244
350.52        16.81071
350.97        16.85851
351.42        16.78577
351.87        16.58768
352.32        16.31499
352.77        16.04759
353.22        15.90887
353.67         15.9318
354.13        16.06981
354.58        16.28324
355.03         16.5082
355.48        16.70514
355.93        16.88241
356.38          16.998
356.83        16.99175
357.28        16.86353
357.73         16.6322
358.18        16.36839
358.63        16.18931
359.08        16.12294
359.53        16.13801
359.98        16.18617
360.43        16.18366
360.88        16.10778
361.33        15.99178
361.78        15.85499
362.23         15.7248
362.68        15.61703
363.13        15.52236
363.58        15.45297
364.03        15.43247
364.48        15.45592
364.93        15.50562
365.38        15.55764
365.83        15.57274
366.28        15.53628
366.73        15.46121
367.18        15.33496
367.63        15.14032
368.08         14.8868
368.53        14.58585
368.98        14.30004
369.43        14.12814
369.88        14.09389
370.33        14.17752
370.78        14.30812
371.23         14.3636
371.68        14.30974
372.13         14.1735
372.58        14.02108
373.03         13.9636
373.48         14.0222
373.93        14.15351
374.38        14.28151
374.83         14.2856
375.28        14.14167
375.72        13.89651
376.17        13.63315
376.62        13.43896
377.07        13.33728
377.52        13.29433
377.97        13.29466
378.42        13.31313
378.87        13.33481
379.32        13.37231
379.77        13.39808
380.22        13.36885
380.67        13.27957
381.11        13.13389
381.56        12.98639
382.01        12.92696
382.46        12.97562
382.91        13.11051
383.36        13.25592
383.81        13.29607
384.26         13.2085
384.71        13.02261
385.15         12.8213
385.60        12.75869
386.05        12.84906
386.50        13.04039
386.95        13.22195
387.40        13.22249
387.85        13.01955
388.29        12.68081
388.74        12.33782
389.19        12.12105
389.64        12.06059
390.09        12.10671
390.54        12.21765
390.98        12.32312
391.43        12.39315
391.88        12.44387
392.33        12.46549
392.78        12.45585
393.23        12.41963
393.67        12.32493
394.12        12.20169
394.57        12.17542
395.02        12.07599
395.47        12.03968
395.91        12.00651
396.36         11.9534
396.81        11.88343
397.26        11.80868
397.71        11.74204
398.15        11.69502
398.60        11.68493
399.05        11.67532
399.50        11.65779
399.95        11.67233
400.39        11.65443
400.84        11.60486
401.29        11.51124
401.74        11.42519
402.18        11.35799
402.63        11.27827
403.08        11.21271
403.53        11.20859
403.97        11.26766
404.42         11.3738
404.87        11.47846
405.32        11.50244
405.76        11.42423
406.21        11.27114
406.66        11.09514
407.11        10.98074
407.55        10.95327
408.00        10.99006
408.45        11.04126
408.90        11.01689
409.34        10.89499
409.79        10.70669
410.24        10.52911
410.68        10.47471
411.13        10.56493
411.58        10.76488
412.03        10.97946
412.47        11.04849
412.92        10.92574
413.37         10.6738
413.81         10.3982
414.26         10.2748
414.71         10.3284
415.15        10.50764
415.60        10.72138
416.05        10.83305
416.49        10.80009
416.94        10.67087
417.39        10.49734
417.83        10.35887
418.28        10.28681
418.73        10.24804
419.17        10.23436
419.62        10.23499
420.07        10.24102
420.51        10.26201
420.96        10.27786
421.41        10.24778
421.85        10.16669
422.30        10.05787
422.74        9.951709
423.19        9.913079
423.64        9.946862
424.08        10.03709
424.53        10.14268
424.98        10.21333
425.42        10.22853
425.87        10.19125
426.31        10.11156
426.76         10.0239
427.21        9.907545
427.65         9.78261
428.10        9.653493
428.54         9.51141
428.99        9.376009
429.44        9.313005
429.88        9.316216
430.33        9.257613
430.77        9.192516
431.22         9.40441
431.66         9.82093
432.11        9.999071
432.56        9.862955
433.00        9.653303
433.45        9.429998
433.89        9.106527
434.34        8.839599
434.78        8.936051
435.23        9.286264
435.67        9.422754
436.12        9.298708
436.57        9.159874
437.01        9.070997
437.46        9.044294
437.90        9.098681
438.35        9.213935
438.79        9.337245
439.24        9.370979
439.68        9.310475
440.13        9.227685
440.57        9.132942
441.02        9.050074
441.46         8.99633
441.91        8.900764
442.35        8.800983
442.80        8.941226
443.24        9.235037
443.69        9.239163
444.13        8.976948
444.58        8.868694
445.02         8.91584
445.47        8.892263
445.91        8.798815
446.36        8.755934
446.80        8.765859
447.24        8.799619
447.69        8.847629
448.13        8.896637
448.58        8.939507
449.02        8.981586
449.47         9.01935
449.91        9.042143
450.36        9.049184
450.80        9.040279
451.25        9.024199
451.69        9.017626
452.13        9.021572
452.58        9.037916
453.02        9.050706
453.47        9.034805
453.91        8.985083
454.36        8.939182
454.80        8.873415
455.24        8.851341
455.69        8.867978
456.13        8.907452
456.58        8.960719
457.02        9.004798
457.46        9.033618
457.91        9.052105
458.35        9.052535
458.79        9.024273
459.24        8.978021
459.68          8.9231
460.13        8.882952
460.57        8.850302
461.01        8.900902
461.46        8.934511
461.90        8.975703
462.34        9.109254
462.79        9.286006
463.23        9.312553
463.68        9.200613
464.12        9.145221
464.56        9.157051
465.01        9.139481
465.45        9.091505
465.89        9.053268
466.34        9.042796
466.78        9.093814
467.22        9.202756
467.67        9.212939
468.11        9.119533
468.55        8.981232
468.99        8.852266
469.44        8.792027
469.88        8.816169
470.32        8.911423
470.77        9.028503
471.21        9.099906
471.65        9.101074
472.10        9.058692
472.54        9.006033
472.98        9.008479
473.42        9.077427
473.87        9.184042
474.31        9.292746
474.75        9.349327
475.20        9.345414
475.64        9.301631
476.08        9.239416
476.52         9.18851
476.97        9.161252
477.41        9.144503
477.85        9.152273
478.29        9.205329
478.74        9.303597
479.18        9.436038
479.62        9.559258
480.06        9.629491
480.50        9.641328
480.95        9.520767
481.39        9.461784
481.83        9.454404
482.27        9.565729
482.72         9.68645
483.16        9.895145
483.60        9.995594
484.04        9.997362
484.48        9.941846
484.93        9.898698
485.37        9.936362
485.81         9.97433
486.25        10.31566
486.69        9.694604
487.14        9.951065
487.58        10.67257
488.02        10.57835
488.46        10.64538
488.90        10.80819
489.34         10.4549
489.79        10.47789
490.23        10.56876
490.67        10.74982
491.11        10.92195
491.55        10.87442
491.99        10.68259
492.43        10.69215
492.88        10.92307
493.32        11.15204
493.76        11.32456
494.20        11.47827
494.64        11.60013
495.08        11.67336
495.52        11.70919
495.96        11.76076
496.41        11.84417
496.85        11.87842
497.29        11.87606
497.73        12.07077
498.17        12.26901
498.61        12.28733
499.05        12.12428
499.49        12.09437
499.93        12.22771
500.37        12.40232
500.82        12.56631
501.26          12.668
501.70        12.69041
502.14        12.66806
502.58        12.65083
503.02        12.70225
503.46        12.83772
503.90        13.03763
504.34        13.25003
504.78        13.38688
505.22        13.42432
505.66         13.3876
506.10        13.31682
506.54        13.29164
506.98        13.33604
507.42        13.40041
507.86        13.45132
508.30        13.58807
508.74        13.55161
509.18        13.55804
509.62         13.5567
510.06        13.58833
510.50        13.65915
510.94        13.75838
511.38        13.86441
511.82        13.93558
512.26        13.96148
512.70        13.95476
513.14        13.93721
513.58        13.94295
514.02        13.98068
514.46        14.03872
514.90        14.10185
515.34        14.14535
515.78        14.16193
516.22        14.16111
516.66        14.15071
517.10        14.14242
517.54        14.13935
517.98         14.1342
518.42        14.12777
518.86        14.12213
519.30         14.1167
519.74        14.11454
520.18         14.1044
520.62        14.06691
521.06         14.0021
521.50        13.91777
521.93        13.84091
522.37        13.81167
522.81        13.83971
523.25        13.91034
523.69        13.99386
524.13        14.04486
524.57        14.05005
525.01        14.01939
525.45        13.96983
525.89        13.93107
526.32         13.9096
526.76        13.89822
527.20        13.88207
527.64        13.84028
528.08        13.77055
528.52        13.68491
528.96        13.59949
529.40         13.5376
529.83        13.50541
530.27        13.49675
530.71        13.50139
531.15        13.50544
531.59        13.50164
532.03        13.49095
532.46        13.47244
532.90        13.44848
533.34        13.42035
533.78        13.39113
534.22        13.35708
534.66        13.31288
535.09        13.25904
535.53        13.20188
535.97        13.15929
536.41        13.16368
536.85        13.21711
537.28        13.30702
537.72        13.39775
538.16        13.43631
538.60        13.41209
539.04        13.34669
539.47        13.26518
539.91        13.22088
540.35        13.22525
540.79        13.26825
541.22        13.34376
541.66        13.44394
542.10        13.55959
542.54        13.69187
542.97        13.83311
543.41        13.96959
543.85        14.09678
544.29        14.21634
544.72        14.31867
545.16        14.40428
545.60        14.47297
546.04        14.51977
546.47        14.56501
546.91        14.66327
547.35         14.8104
547.79        14.95037
548.22        15.05989
548.66        15.18181
549.10        15.31719
549.53        15.39116
549.97        15.39935
550.41        15.65087
550.84        15.68136
551.28        15.83354
551.72         15.9495
552.15        16.14267
552.59        16.20575
553.03        16.30825
553.46        16.39735
553.90        16.47985
554.34        16.55555
554.77        16.63918
555.21        16.73196
555.65        16.78937
556.08        16.82471
556.52        16.91954
556.96        17.05754
557.39        17.17273
557.83        17.25402
558.27        17.29495
558.70        17.31831
559.14        17.38235
559.57        17.47755
560.01        17.57222
560.45        17.64403
560.88        17.60897
561.32        17.57795
561.75        17.56781
562.19        17.61311
562.63        17.64201
563.06        17.65526
563.50        17.70544
563.93        17.78683
564.37        17.88204
564.80         17.9813
565.24        18.09021
565.68        18.19753
566.11        18.29824
566.55        18.39037
566.98        18.44835
567.42        18.50207
567.85        18.56473
568.29         18.6441
568.72        18.78436
569.16         19.0064
569.60        18.95782
570.03         19.2271
570.47        19.35344
570.90        19.47523
571.34        19.61845
571.77        19.71662
572.21        19.76336
572.64        19.75519
573.08        19.90601
573.51        20.23486
573.95         20.1307
574.38        20.46931
574.82        20.37495
