SpectraSmart Spectrum 2.9.0.0
--------- Device Information -----------
Spectrum Name :  反射率_0
Saving Time :  2024/04/30 00:43:00
Spectro-Module Model Name : SE2030-DUVN
Spectro-Module Serial Number : OS361AC55029948
Wavelength Start : 200
Wavelength End : 1025
Wavelength Unit : Wavelength(nm)
Spectrum Unit : Reflectance(%)
-----------Spectrum Setting ------------
Integration Time : 20ms
Average : 10
Boxcar : 0
Background removal :  enabled
linearity correction :  enabled
SC :  disabled
Intensity correction :  disabled
DWT denoise :  enabled
savitzky-golay :  disabled
FFT :  disabled
Running average :  disabled
Kalman :  disabled
High pass :  disabled
---------------BEGIN--------------------
Wavelength(nm)             Reflectance(%)
200.29               0
200.75        63.84416
201.21        46.26936
201.67        26.49865
202.13        11.58914
202.58        5.100951
203.04        5.588849
203.50        14.14832
203.96        31.81974
204.42        56.29888
204.88        85.26455
205.34        107.2764
205.80        107.8155
206.26        91.16026
206.72        68.38834
207.18        48.53527
207.64        36.57663
208.10        30.96126
208.55        28.76428
209.01        29.02442
209.47        30.75934
209.93        32.93591
210.39        35.86818
210.85        38.12457
211.31        38.34314
211.77        36.45956
212.23        31.86885
212.69        25.82022
213.14        25.07348
213.60        31.55556
214.06        41.17756
214.52        49.01448
214.98          52.291
215.44        51.84896
215.90        48.83065
216.36        45.16211
216.81        44.47256
217.27        48.69156
217.73         58.0226
218.19        70.82468
218.65        78.17216
219.11        74.96095
219.57        65.42358
220.02        56.34344
220.48         52.2085
220.94        52.21716
221.40        54.97895
221.86        58.78196
222.32        58.57619
222.77        53.42864
223.23        47.76354
223.69         43.3721
224.15        40.61971
224.61         38.9138
225.06        37.37172
225.52         36.6052
225.98        37.59654
226.44        39.94028
226.90        42.78283
227.36        44.73861
227.81        44.80234
228.27         43.2095
228.73        40.19646
229.19        36.98932
229.65        36.22971
230.10        38.22849
230.56        41.50511
231.02        44.28819
231.48        45.09224
231.93        43.91848
232.39        41.38657
232.85        38.35377
233.31        36.47244
233.77        36.32641
234.22        37.61037
234.68        39.29968
235.14        39.52878
235.60        37.91443
236.05        35.19464
236.51        32.83515
236.97        32.71505
237.43        35.30667
237.88        40.53424
238.34        47.52825
238.80        53.03931
239.26        54.45851
239.71           52.41
240.17         48.2938
240.63        44.27463
241.08        40.77826
241.54        36.68819
242.00        32.40083
242.46        31.82218
242.91        39.00004
243.37        52.69241
243.83        67.30721
244.28        78.86706
244.74        87.73875
245.20        94.26096
245.66        97.67979
246.11        96.70663
246.57        90.91515
247.03        81.44225
247.48        69.77682
247.94        60.45487
248.40        56.75712
248.85        56.96444
249.31        59.92138
249.77        64.85258
250.22        72.45737
250.68        84.91021
251.14        102.3759
251.59        112.0969
252.05        104.5975
252.51         89.9052
252.96        77.41231
253.42         69.9971
253.88        65.29562
254.33        61.50663
254.79        58.20895
255.25        55.12023
255.70        52.67139
256.16        51.34892
256.62         50.8753
257.07        50.90347
257.53        51.48547
257.99        52.38285
258.44        52.85823
258.90        52.57772
259.35        51.38909
259.81        50.00302
260.27         48.8951
260.72        48.52169
261.18        48.84862
261.63        49.33921
262.09        49.66659
262.55        49.14762
263.00        47.80564
263.46         46.2093
263.91         44.5656
264.37        43.33179
264.83        42.46836
265.28        41.75078
265.74        41.26838
266.19        40.96344
266.65        40.84034
267.11        40.86254
267.56        40.81985
268.02        40.39674
268.47        39.52868
268.93        38.30581
269.38        36.95448
269.84         35.9996
270.30        35.56058
270.75         35.4903
271.21         35.5167
271.66        35.20973
272.12        34.48512
272.57        33.47041
273.03        32.39613
273.48        31.54173
273.94        31.03909
274.39        30.73651
274.85        30.54422
275.31        30.27877
275.76        29.87236
276.22        29.40734
276.67        28.90286
277.13        28.46505
277.58        28.07071
278.04        27.72728
278.49        27.34273
278.95        26.87507
279.40         26.2948
279.86        25.70962
280.31        25.16408
280.77        24.83067
281.22        24.69067
281.68        24.69549
282.13        24.77525
282.59        24.88004
283.04         24.9538
283.50        25.00157
283.95        24.94578
284.41        24.68021
284.86        24.20783
285.32        23.62747
285.77        23.02737
286.22        22.59946
286.68        22.39475
287.13        22.32093
287.59        22.37727
288.04        22.50114
288.50        22.66404
288.95        22.84589
289.41        22.97521
289.86        22.90965
290.32        22.66273
290.77        22.28073
291.22        21.88263
291.68        21.66031
292.13        21.65915
292.59        21.84378
293.04        22.18667
293.50        22.66542
293.95         23.2469
294.40        23.93546
294.86        24.63615
295.31        25.21798
295.77        25.64167
296.22        25.91487
296.68        26.13755
297.13        26.45505
297.58        26.90823
298.04        27.43255
298.49        27.93297
298.95        28.25093
299.40        28.36356
299.85        28.34641
300.31        28.30844
300.76        28.35656
301.21        28.54832
301.67        28.84391
302.12        29.18368
302.58        29.61706
303.03        30.11228
303.48        30.51777
303.94         30.7662
304.39        31.47944
304.84        31.43468
305.30        31.61949
305.75        31.69534
306.20        31.77166
306.66        31.86893
307.11        31.96283
307.57        32.05257
308.02        32.06139
308.47        31.99302
308.93        31.87948
309.38        31.73827
309.83        31.64249
310.29        31.60574
310.74        31.60128
311.19        31.58586
311.65        31.48591
312.10        31.28664
312.55           31.02
313.00        30.74216
313.46        30.53796
313.91        30.41609
314.36        30.34981
314.82        30.30053
315.27        30.22696
315.72        30.10114
316.18        29.94493
316.63        29.74536
317.08        29.49207
317.53         29.1994
317.99        28.88607
318.44        28.58597
318.89        28.35741
319.35        28.21411
319.80          28.135
320.25        28.11708
320.70        28.15331
321.16        28.21461
321.61        28.30694
322.06        28.35856
322.51        28.26274
322.97        28.00163
323.42         27.6143
323.87        27.18526
324.32         26.8561
324.78         26.6577
325.23         26.5662
325.68        26.52653
326.13        26.44514
326.59        26.28453
327.04        26.08349
327.49        25.85843
327.94        25.64549
328.39        25.44986
328.85        25.23924
329.30        25.01536
329.75        24.75019
330.20        24.44983
330.66        24.14203
331.11        23.84672
331.56        23.56546
332.01        23.30586
332.46        23.05964
332.92        22.86599
333.37        22.81696
333.82        22.91206
334.27        23.12058
334.72        23.32541
335.17        23.33349
335.63        23.09718
336.08        22.67691
336.53        22.18654
336.98        21.84036
337.43         21.7073
337.88        21.72715
338.34        21.82827
338.79        21.91172
339.24        21.93344
339.69        21.93889
340.14        21.92467
340.59        21.88113
341.05        21.81571
341.50        21.71134
341.95        21.61869
342.40        21.63349
342.85        21.76067
343.30        21.96334
343.75        22.14111
344.20         22.1319
344.66        21.91465
345.11        21.54471
345.56         21.1178
346.01        20.78515
346.46        20.60167
346.91        20.52496
347.36        20.53289
347.81        20.59163
348.26        20.67212
348.72        20.77388
349.17         20.8565
349.62          20.851
350.07        20.74188
350.52        20.55188
350.97        20.30896
351.42        20.05742
351.87        19.82811
352.32        19.62985
352.77        19.49749
353.22        19.48239
353.67         19.5872
354.13         19.7813
354.58        20.03219
355.03        20.28598
355.48        20.50483
355.93        20.68755
356.38        20.78109
356.83        20.71419
357.28        20.49214
357.73        20.14773
358.18        19.77978
358.63        19.54591
359.08        19.48219
359.53        19.54282
359.98        19.65784
360.43        19.70784
360.88        19.65623
361.33        19.54381
361.78        19.38848
362.23         19.2182
362.68        19.05123
363.13        18.87557
363.58        18.71935
364.03        18.63127
364.48         18.6164
364.93        18.66298
365.38        18.72786
365.83        18.73674
366.28        18.67139
366.73        18.55247
367.18        18.41187
367.63         18.3033
368.08         18.2397
368.53        18.19935
368.98        18.16855
369.43        18.12512
369.88         18.0624
370.33        17.99669
370.78        17.91868
371.23        17.81111
371.68         17.6756
372.13        17.51104
372.58        17.35924
373.03        17.29021
373.48        17.30839
373.93        17.38639
374.38        17.45253
374.83        17.38781
375.28        17.17455
375.72        16.86279
376.17        16.53599
376.62        16.27831
377.07        16.11687
377.52        16.01945
377.97        15.99637
378.42        16.06374
378.87        16.20414
379.32        16.40362
379.77         16.5856
380.22        16.63793
380.67        16.53865
381.11        16.31046
381.56        16.03142
382.01        15.83498
382.46        15.76366
382.91        15.79186
383.36        15.84855
383.81         15.8212
384.26        15.68855
384.71        15.48491
385.15        15.29102
385.60        15.25498
386.05        15.38356
386.50        15.61699
386.95        15.83748
387.40         15.8653
387.85         15.6744
388.29        15.33394
388.74        14.97311
389.19        14.71385
389.64        14.58811
390.09         14.5475
390.54        14.57621
390.98        14.64617
391.43        14.73629
391.88        14.85047
392.33        14.93801
392.78        14.94017
393.23        14.85639
393.67        14.67028
394.12        14.45628
394.57        14.41992
395.02        14.36907
395.47         14.4435
395.91        14.53423
396.36         14.5514
396.81        14.47704
397.26        14.34373
397.71        14.19465
398.15        14.08446
398.60        14.04645
399.05        14.02933
399.50        14.00793
399.95        14.00849
400.39        13.95055
400.84        13.84211
401.29        13.69403
401.74        13.61024
402.18        13.60947
402.63        13.63486
403.08        13.67396
403.53        13.71833
403.97         13.7571
404.42        13.79374
404.87        13.80494
405.32        13.75375
405.76        13.63464
406.21        13.46375
406.66        13.29136
407.11        13.19964
407.55        13.20991
408.00        13.30145
408.45        13.41111
408.90        13.42168
409.34        13.30409
409.79        13.09479
410.24        12.88616
410.68        12.81708
411.13        12.91473
411.58        13.13428
412.03        13.37376
412.47        13.46047
412.92        13.34231
413.37        13.08996
413.81        12.80303
414.26        12.64972
414.71        12.65573
415.15        12.77185
415.60        12.92797
416.05        13.02509
416.49        13.02855
416.94        12.97624
417.39        12.88942
417.83        12.79677
418.28        12.71765
418.73        12.63349
419.17        12.56499
419.62        12.54905
420.07        12.58697
420.51        12.66965
420.96        12.75361
421.41        12.76133
421.85        12.67685
422.30        12.53912
422.74        12.39076
423.19        12.31572
423.64        12.32556
424.08        12.40311
424.53        12.50327
424.98        12.57227
425.42        12.59019
425.87         12.5592
426.31        12.50004
426.76        12.46687
427.21        12.42807
427.65        12.39472
428.10        12.34313
428.54         12.2174
428.99        12.03422
429.44        11.90231
429.88        11.82785
430.33         11.6687
430.77        11.51106
431.22        11.70379
431.66         12.1804
432.11        12.44212
432.56        12.39818
433.00        12.33771
433.45        12.26906
433.89        11.94599
434.34         11.5383
434.78        11.49725
435.23        11.75071
435.67        11.81847
436.12        11.67529
436.57        11.58964
437.01        11.60931
437.46        11.69078
437.90         11.8319
438.35         12.0281
438.79        12.20722
439.24        12.23643
439.68        12.11493
440.13        11.93505
440.57        11.73555
441.02        11.59353
441.46        11.54105
441.91        11.47098
442.35        11.40554
442.80        11.62636
443.24        12.01408
443.69        12.00316
444.13        11.63208
444.58        11.45719
445.02        11.48508
445.47        11.41881
445.91        11.26901
446.36        11.20301
446.80        11.22632
447.24        11.30146
447.69        11.40296
448.13        11.48982
448.58         11.5476
449.02        11.58504
449.47         11.6165
449.91         11.6583
450.36        11.71373
450.80        11.77264
451.25        11.81519
451.69        11.81258
452.13        11.75954
452.58        11.67511
453.02         11.5819
453.47        11.51437
453.91        11.48011
454.36        11.50473
454.80        11.51643
455.24        11.53131
455.69        11.52696
456.13        11.50726
456.58        11.48958
457.02        11.48867
457.46        11.50998
457.91        11.54526
458.35        11.57401
458.79        11.57012
459.24         11.5395
459.68         11.4978
460.13        11.47137
460.57        11.44618
461.01        11.51677
461.46        11.55391
461.90        11.58746
462.34        11.72847
462.79        11.91621
463.23          11.906
463.68        11.72248
464.12        11.62501
464.56        11.63043
465.01        11.61305
465.45        11.57072
465.89        11.55233
466.34         11.5775
466.78        11.68766
467.22        11.87131
467.67        11.91333
468.11        11.80291
468.55        11.61846
468.99        11.43451
469.44        11.33666
469.88        11.35041
470.32        11.45771
470.77        11.59918
471.21        11.69017
471.65        11.70084
472.10        11.66379
472.54        11.62036
472.98        11.64867
473.42         11.7612
473.87        11.92268
474.31        12.08331
474.75        12.17047
475.20        12.17203
475.64        12.11284
476.08         12.0284
476.52        11.96941
476.97        11.95366
477.41        11.96327
477.85        11.99918
478.29        12.06082
478.74        12.14513
479.18        12.24581
479.62        12.33719
480.06        12.40837
480.50        12.46022
480.95        12.38323
481.39        12.39344
481.83         12.4178
482.27        12.53123
482.72        12.61051
483.16        12.79591
483.60        12.88865
484.04        12.91207
484.48         12.9061
484.93        12.92526
485.37        12.97165
485.81        12.95889
486.25        13.33886
486.69        12.64304
487.14         12.8906
487.58        13.57823
488.02        13.43732
488.46        13.69137
488.90        14.13361
489.34        13.61054
489.79        13.64586
490.23         13.7654
490.67        13.98653
491.11        14.20292
491.55         14.1906
491.99        14.02758
492.43        14.07789
492.88        14.36138
493.32         14.6334
493.76        14.84513
494.20         15.0598
494.64        15.26658
495.08        15.43743
495.52         15.5636
495.96        15.67741
496.41        15.78958
496.85         15.8018
497.29        15.75095
497.73         15.9768
498.17        16.23259
498.61        16.27161
499.05        16.07632
499.49        16.03895
499.93        16.19505
500.37        16.38909
500.82        16.57961
501.26        16.73927
501.70        16.85022
502.14        16.94243
502.58        17.03761
503.02        17.15011
503.46        17.28695
503.90        17.44513
504.34        17.60353
504.78        17.72572
505.22        17.80212
505.66        17.84029
506.10        17.85759
506.54        17.90257
506.98        17.98802
507.42        18.06446
507.86        18.09968
508.30        18.24724
508.74        18.16805
509.18        18.14556
509.62        18.11191
510.06        18.12355
510.50        18.19048
510.94        18.30256
511.38        18.43346
511.82        18.52937
512.26        18.57496
512.70         18.5824
513.14        18.57804
513.58        18.60369
514.02        18.66872
514.46        18.75958
514.90        18.84672
515.34        18.88333
515.78        18.85972
516.22        18.79249
516.66        18.71705
517.10        18.68773
517.54        18.71539
517.98        18.78023
518.42        18.84914
518.86        18.86899
519.30         18.8264
519.74        18.74181
520.18        18.63859
520.62        18.55025
521.06        18.49117
521.50        18.45585
521.93        18.44303
522.37          18.445
522.81        18.45961
523.25        18.48487
523.69        18.52277
524.13         18.5766
524.57        18.63927
525.01        18.70065
525.45         18.7365
525.89        18.71063
526.32        18.61704
526.76        18.47894
527.20        18.32059
527.64        18.18005
528.08        18.07127
528.52        17.98486
528.96        17.92718
529.40        17.90594
529.83        17.91518
530.27        17.95425
530.71        17.99056
531.15        17.97394
531.59        17.89468
532.03        17.76561
532.46        17.62189
532.90        17.52738
533.34        17.49684
533.78        17.51445
534.22        17.54874
534.66        17.55042
535.09        17.50622
535.53        17.43656
535.97        17.36705
536.41        17.34361
536.85        17.37373
537.28        17.43791
537.72        17.50372
538.16        17.52413
538.60        17.49031
539.04        17.42691
539.47        17.35137
539.91        17.30629
540.35        17.30094
540.79        17.32813
541.22         17.3946
541.66        17.51441
542.10        17.67943
542.54        17.88083
542.97        18.09035
543.41        18.26448
543.85        18.39252
544.29        18.48985
544.72        18.56072
545.16        18.62868
545.60        18.70347
546.04        18.77372
546.47        18.86326
546.91        19.03844
547.35        19.28765
547.79          19.533
548.22        19.73929
548.66        19.95798
549.10        20.18739
549.53        20.33029
549.97        20.36628
550.41        20.68459
550.84        20.67204
551.28         20.7895
551.72        20.86245
552.15        21.08994
552.59        21.21013
553.03        21.42932
553.46        21.64021
553.90        21.79187
554.34        21.87044
554.77        21.91439
555.21        21.95765
555.65        21.99611
556.08        22.06154
556.52        22.24268
556.96         22.4926
557.39        22.68544
557.83        22.79759
558.27        22.83526
558.70         22.8485
559.14          22.945
559.57        23.11844
560.01        23.31393
560.45        23.48478
560.88        23.49632
561.32        23.48952
561.75        23.49288
562.19        23.55926
562.63        23.60341
563.06        23.62943
563.50        23.70461
563.93        23.81501
564.37        23.92868
564.80        24.03256
565.24        24.13988
565.68         24.2472
566.11        24.36472
566.55         24.4923
566.98        24.58988
567.42        24.68686
567.85        24.78068
568.29        24.87228
568.72        25.04612
569.16        25.34056
569.60        25.23791
570.03         25.5103
570.47        25.77829
570.90        25.85218
571.34        26.01053
571.77        26.16946
572.21        26.27767
572.64        26.33019
573.08        26.48608
573.51        26.77458
573.95        26.74769
574.38        26.81043
574.82        27.01372
