SpectraSmart Spectrum 2.9.0.0
--------- Device Information -----------
Spectrum Name :  反射率_0
Saving Time :  2024/04/30 00:47:38
Spectro-Module Model Name : SE2030-DUVN
Spectro-Module Serial Number : OS361AC55029948
Wavelength Start : 200
Wavelength End : 1025
Wavelength Unit : Wavelength(nm)
Spectrum Unit : Reflectance(%)
-----------Spectrum Setting ------------
Integration Time : 20ms
Average : 10
Boxcar : 0
Background removal :  enabled
linearity correction :  enabled
SC :  disabled
Intensity correction :  disabled
DWT denoise :  enabled
savitzky-golay :  disabled
FFT :  disabled
Running average :  disabled
Kalman :  disabled
High pass :  disabled
---------------BEGIN--------------------
Wavelength(nm)             Reflectance(%)
200.29               0
200.75        92.78952
201.21         80.1736
201.67        67.21261
202.13        57.59898
202.58        53.35996
203.04        53.68495
203.50        59.68026
203.96        72.89921
204.42        91.66932
204.88        113.4204
205.34        128.8177
205.80         126.483
206.26        110.4764
206.72        90.30701
207.18        72.77132
207.64        61.13624
208.10        53.99104
208.55        48.85898
209.01        45.92163
209.47        46.86222
209.93        51.12439
210.39        57.58244
210.85        62.99314
211.31        64.66245
211.77        62.48211
212.23        55.79899
212.69        46.57684
213.14        44.94513
213.60        54.14407
214.06        68.09695
214.52        78.94277
214.98        81.83047
215.44        78.07328
215.90        69.73657
216.36         60.4692
216.81        57.41262
217.27        64.25134
217.73          81.319
218.19         106.959
218.65        126.8333
219.11        129.8378
219.57        120.4835
220.02        108.9006
220.48        103.2726
220.94        103.0379
221.40        106.0523
221.86        109.5783
222.32        106.8609
222.77         97.5012
223.23        88.13877
223.69        81.61056
224.15        78.41765
224.61        77.62963
225.06        78.41998
225.52        80.34621
225.98        82.09462
226.44        82.95203
226.90        83.20685
227.36        83.41795
227.81        84.11626
228.27        85.49599
228.73        87.24853
229.19        88.83247
229.65        89.07153
230.10        87.83507
230.56        86.24853
231.02         84.7942
231.48        83.91198
231.93        83.45204
232.39        83.18722
232.85        83.24688
233.31        84.00804
233.77        85.45549
234.22        87.75186
234.68        89.65243
235.14        89.05392
235.60        85.73215
236.05        80.46705
236.51        75.62648
236.97        74.24146
237.43        77.00722
237.88        84.01019
238.34        93.70244
238.80        100.8281
239.26        101.5207
239.71        96.81451
240.17        89.62036
240.63        84.21368
241.08        81.69598
241.54        80.90078
242.00        82.11114
242.46        84.88402
242.91        88.37735
243.37        92.19017
243.83        96.27075
244.28        101.3521
244.74        107.8089
245.20         114.875
245.66        121.0802
246.11        123.2765
246.57        119.5328
247.03        111.3741
247.48        99.37941
247.94        87.07303
248.40        78.99226
248.85        74.66564
249.31        73.91593
249.77        75.56814
250.22        79.53877
250.68        87.21378
251.14        98.64812
251.59        105.0992
252.05         100.423
252.51        91.32124
252.96        84.10154
253.42        81.44582
253.88        81.80414
254.33        83.82446
254.79        86.69685
255.25          87.938
255.70        86.89486
256.16         85.4268
256.62        84.21942
257.07        83.62485
257.53        83.92487
257.99        84.48979
258.44        84.57834
258.90        84.05526
259.35          82.623
259.81        81.23341
260.27         80.0352
260.72        79.15858
261.18        78.82336
261.63        78.50754
262.09        78.26739
262.55        77.73327
263.00        76.80501
263.46        75.87979
263.91        74.83611
264.37        73.97921
264.83        73.20058
265.28        72.39458
265.74        71.68616
266.19        70.95761
266.65        70.31461
267.11        69.72084
267.56        69.17332
268.02        68.71125
268.47        68.26696
268.93        67.82802
269.38        67.30853
269.84        66.67878
270.30        65.92017
270.75        65.05729
271.21         64.1302
271.66        63.10433
272.12        62.01486
272.57        60.83744
273.03        59.69077
273.48        58.65137
273.94        57.82468
274.39        57.11639
274.85        56.52362
275.31        55.89452
275.76         55.1563
276.22        54.39389
276.67        53.57869
277.13        52.84018
277.58        52.11924
278.04        51.46036
278.49        50.74485
278.95        49.96091
279.40        49.05347
279.86        48.15821
280.31        47.29177
280.77        46.64627
281.22        46.18189
281.68        45.87457
282.13        45.64455
282.59        45.48866
283.04        45.31973
283.50        45.14854
283.95        44.84103
284.41        44.25271
284.86        43.36911
285.32        42.33363
285.77        41.26478
286.22        40.43095
286.68        39.90268
287.13        39.56174
287.59        39.38623
288.04        39.25395
288.50        39.14227
288.95        39.03516
289.41        38.91264
289.86         38.6744
290.32        38.34396
290.77        37.93269
291.22        37.50682
291.68        37.17924
292.13        36.97162
292.59        36.88519
293.04        36.93137
293.50        37.16749
293.95        37.56847
294.40         38.1256
294.86        38.71219
295.31        39.14513
295.77        39.38014
296.22        39.44665
296.68        39.48225
297.13        39.68314
297.58         40.0988
298.04        40.63822
298.49          41.168
298.95        41.48621
299.40        41.54144
299.85        41.41523
300.31        41.22234
300.76        41.06638
301.21        41.01864
301.67        41.05809
302.12        41.12294
302.58        41.26533
303.03         41.4566
303.48        41.58201
303.94         41.6242
304.39        42.14896
304.84        42.12742
305.30        42.37458
305.75        42.52991
306.20        42.58934
306.66        42.55906
307.11         42.4417
307.57        42.30837
308.02        42.17372
308.47        42.06505
308.93        41.97829
309.38        41.88671
309.83        41.80425
310.29        41.72922
310.74        41.65702
311.19        41.55796
311.65        41.37502
312.10        41.09954
312.55        40.75788
313.00        40.42249
313.46         40.2063
313.91        40.11799
314.36        40.12273
314.82        40.15007
315.27        40.10663
315.72        39.95155
316.18         39.7225
316.63        39.43254
317.08        39.11559
317.53         38.7982
317.99        38.48294
318.44        38.19156
318.89        37.96574
319.35        37.81005
319.80        37.71041
320.25        37.65806
320.70        37.63328
321.16        37.60869
321.61        37.60456
322.06         37.5621
322.51        37.40232
322.97        37.11389
323.42        36.71937
323.87        36.31238
324.32        36.04865
324.78        35.95148
325.23        36.00494
325.68        36.08488
326.13        35.98129
326.59        35.64081
327.04        35.14174
327.49        34.63157
327.94        34.36559
328.39        34.39911
328.85         34.6364
329.30        34.94337
329.75        35.02504
330.20        34.79998
330.66        34.36601
331.11        33.85732
331.56        33.45964
332.01        33.24176
332.46        33.13881
332.92        33.13299
333.37        33.23755
333.82        33.41305
334.27        33.66161
334.72        33.89116
335.17        33.94158
335.63        33.77187
336.08        33.43085
336.53        33.00447
336.98        32.67375
337.43        32.50194
337.88        32.44513
338.34         32.4624
338.79        32.50113
339.24        32.52774
339.69        32.57156
340.14        32.60754
340.59        32.58862
341.05         32.5117
341.50        32.37684
341.95        32.23604
342.40        32.18847
342.85        32.24461
343.30        32.36142
343.75        32.46867
344.20        32.45303
344.66        32.30068
345.11        32.05947
345.56        31.76754
346.01        31.47974
346.46        31.23892
346.91        31.03815
347.36        30.93629
347.81        31.02373
348.26        31.29205
348.72        31.69038
349.17        32.10868
349.62        32.35096
350.07        32.35681
350.52         32.1875
350.97        31.89686
351.42        31.57262
351.87        31.26582
352.32        30.96521
352.77         30.7357
353.22        30.68038
353.67         30.8082
354.13        31.08434
354.58         31.4128
355.03        31.62923
355.48        31.68012
355.93        31.60315
356.38        31.43315
356.83        31.23336
357.28        31.03318
357.73        30.81509
358.18        30.60065
358.63        30.42872
359.08        30.30106
359.53        30.20742
359.98        30.11986
360.43        29.98574
360.88         29.7922
361.33        29.56193
361.78        29.29729
362.23        29.00231
362.68        28.69402
363.13        28.38068
363.58        28.11062
364.03        27.95791
364.48          27.932
364.93        28.00543
365.38        28.12102
365.83        28.18501
366.28        28.16481
366.73        28.07857
367.18        27.94543
367.63        27.80135
368.08        27.65942
368.53        27.50735
368.98        27.34722
369.43        27.18384
369.88        27.02332
370.33        26.87823
370.78        26.74817
371.23        26.62702
371.68         26.5125
372.13        26.39706
372.58        26.29381
373.03        26.22646
373.48        26.18703
373.93        26.15783
374.38         26.0903
374.83         25.9085
375.28        25.61126
375.72        25.23789
376.17        24.86707
376.62        24.56062
377.07        24.34068
377.52        24.18298
377.97        24.10819
378.42        24.14878
378.87        24.28862
379.32        24.50271
379.77        24.70066
380.22        24.75146
380.67        24.62812
381.11        24.36107
381.56        24.03098
382.01        23.77772
382.46        23.65108
382.91        23.62684
383.36        23.64421
383.81        23.60577
384.26        23.49009
384.71        23.32337
385.15        23.17179
385.60         23.1647
386.05        23.29864
386.50        23.51636
386.95        23.69909
387.40        23.66788
387.85        23.40321
388.29         22.9763
388.74        22.53366
389.19        22.20091
389.64        22.01191
390.09        21.91521
390.54        21.90455
390.98        21.96368
391.43        22.07546
391.88        22.23848
392.33        22.37293
392.78        22.38745
393.23        22.27851
393.67        22.02102
394.12        21.73053
394.57        21.72314
395.02        21.70741
395.47        21.89048
395.91        22.08694
396.36        22.12879
396.81        21.98413
397.26        21.71893
397.71        21.42741
398.15        21.23625
398.60        21.20062
399.05        21.22466
399.50        21.25809
399.95        21.32484
400.39        21.29568
400.84        21.18995
401.29        21.00389
401.74        20.86039
402.18        20.78532
402.63        20.70429
403.08        20.64501
403.53        20.66681
403.97        20.76582
404.42          20.926
404.87        21.06975
405.32         21.0703
405.76        20.90092
406.21        20.60893
406.66        20.29431
407.11        20.11698
407.55        20.12159
408.00        20.26481
408.45        20.45487
408.90        20.52157
409.34        20.41917
409.79        20.20127
410.24        19.98528
410.68        19.94726
411.13        20.11998
411.58        20.43876
412.03        20.77565
412.47        20.91653
412.92        20.79306
413.37        20.49391
413.81        20.13023
414.26        19.89253
414.71        19.81397
415.15        19.84312
415.60         19.9209
416.05        19.97185
416.49        19.96625
416.94        19.93517
417.39        19.88238
417.83         19.8042
418.28        19.71105
418.73        19.59455
419.17          19.484
419.62        19.43272
420.07         19.4491
420.51        19.51889
420.96        19.60719
421.41        19.64546
421.85        19.61428
422.30        19.55379
422.74        19.48696
423.19        19.48161
423.64        19.54086
424.08        19.64892
424.53        19.76866
424.98        19.86891
425.42        19.93548
425.87        19.96194
426.31        19.94076
426.76        19.89174
427.21        19.75642
427.65        19.57347
428.10         19.3734
428.54        19.17989
428.99        19.02612
429.44        19.03491
429.88         19.1333
430.33        18.95922
430.77        18.63765
431.22        18.79283
431.66        19.35991
432.11         19.6629
432.56        19.60456
433.00        19.52415
433.45        19.44074
433.89        19.20286
434.34        18.92933
434.78        18.86362
435.23        18.96748
435.67        18.97375
436.12        18.87431
436.57        18.81927
437.01        18.83309
437.46        18.88401
437.90        18.96677
438.35         19.0784
438.79         19.1888
439.24        19.22021
439.68        19.18849
440.13        19.19313
440.57        19.20114
441.02        19.16539
441.46        19.09174
441.91         18.8652
442.35        18.58941
442.80          18.807
443.24        19.34706
443.69        19.27826
444.13        18.67031
444.58        18.42103
445.02        18.53676
445.47        18.53468
445.91        18.41429
446.36        18.41488
446.80        18.52976
447.24        18.69451
447.69        18.85555
448.13        18.92861
448.58        18.89733
449.02        18.78987
449.47        18.66006
449.91        18.57989
450.36        18.57432
450.80        18.62174
451.25        18.69011
451.69        18.72327
452.13        18.70581
452.58         18.6644
453.02        18.62131
453.47        18.60812
453.91        18.62599
454.36        18.71188
454.80        18.75075
455.24        18.77758
455.69        18.76156
456.13         18.7146
456.58        18.66003
457.02        18.61534
457.46        18.59319
457.91        18.58557
458.35        18.58873
458.79        18.60726
459.24        18.64852
459.68        18.71941
460.13        18.80751
460.57        18.80793
461.01        18.85842
461.46        18.78093
461.90        18.67156
462.34        18.78979
462.79        19.06091
463.23        19.06702
463.68        18.83179
464.12        18.74149
464.56        18.80913
465.01        18.84186
465.45        18.81752
465.89        18.78641
466.34        18.77995
466.78        18.86953
467.22         19.0701
467.67        19.09847
468.11        18.95578
468.55        18.75179
468.99        18.56075
469.44        18.44872
469.88         18.4399
470.32        18.52099
470.77        18.64236
471.21        18.73583
471.65        18.77214
472.10         18.7798
472.54        18.77659
472.98         18.8081
473.42        18.88277
473.87        18.97811
474.31        19.07079
474.75        19.13475
475.20        19.16727
475.64        19.17307
476.08        19.16267
476.52        19.14656
476.97        19.13162
477.41        19.11287
477.85        19.10379
478.29        19.12384
478.74        19.18147
479.18        19.25973
479.62        19.33502
480.06        19.41407
480.50        19.50365
480.95        19.43272
481.39        19.51493
481.83        19.58579
482.27        19.74567
482.72        19.80488
483.16        20.02088
483.60        20.12125
484.04        20.16193
484.48        20.23859
484.93        20.35191
485.37        20.26334
485.81        19.99451
486.25        20.20752
486.69        19.95718
487.14        20.10008
487.58        20.72218
488.02        20.69832
488.46        20.70772
488.90        21.17268
489.34        20.74527
489.79        20.79244
490.23        20.84373
490.67        21.03206
491.11        21.27351
491.55        21.30442
491.99        21.19152
492.43        21.27396
492.88         21.5636
493.32         21.8385
493.76        22.04926
494.20        22.24851
494.64        22.43048
495.08         22.5753
495.52         22.6764
495.96        22.78436
496.41        22.91604
496.85        22.92603
497.29        22.85942
497.73        23.19538
498.17        23.56916
498.61        23.62288
499.05        23.32586
499.49        23.24043
499.93        23.41752
500.37        23.63456
500.82        23.83843
501.26        23.99883
501.70        24.09575
502.14        24.17285
502.58         24.2619
503.02        24.38304
503.46        24.54469
503.90         24.7409
504.34        24.93925
504.78        25.08455
505.22         25.1601
505.66        25.17533
506.10        25.15149
506.54        25.15201
506.98        25.19673
507.42        25.22325
507.86        25.19316
508.30        25.32885
508.74        25.16581
509.18        25.09749
509.62        25.03841
510.06         25.0794
510.50         25.2308
510.94        25.46777
511.38        25.73262
511.82         25.9164
512.26        25.98631
512.70        25.96845
513.14        25.90575
513.58        25.86799
514.02        25.87741
514.46        25.91535
514.90        25.95884
515.34        25.97188
515.78        25.94693
516.22        25.90098
516.66        25.86177
517.10        25.86749
517.54        25.92424
517.98        26.01621
518.42        26.10977
518.86        26.15251
519.30        26.13172
519.74        26.06384
520.18        25.97953
520.62         25.9261
521.06        25.91712
521.50        25.94026
521.93        25.97699
522.37        25.98856
522.81        25.96786
523.25        25.92558
523.69        25.88033
524.13        25.85957
524.57        25.86695
525.01        25.88966
525.45        25.90536
525.89        25.88012
526.32        25.80354
526.76        25.69614
527.20         25.5769
527.64        25.47572
528.08        25.40224
528.52        25.34936
528.96        25.30994
529.40        25.27247
529.83        25.23093
530.27        25.19133
530.71        25.15413
531.15        25.12248
531.59        25.09489
532.03        25.06702
532.46        25.02989
532.90        24.97952
533.34        24.91539
533.78        24.84588
534.22        24.77778
534.66        24.71984
535.09        24.67433
535.53        24.64583
535.97        24.63814
536.41        24.66362
536.85        24.71909
537.28         24.7953
537.72          24.872
538.16        24.91897
538.60        24.92891
539.04        24.91488
539.47         24.8802
539.91        24.85468
540.35        24.84272
540.79        24.84574
541.22        24.87661
541.66         24.9594
542.10        25.09224
542.54        25.26716
542.97         25.4606
543.41         25.6386
543.85        25.78899
544.29        25.92411
544.72        26.03738
545.16        26.13843
545.60        26.23152
546.04        26.30506
546.47        26.38579
546.91        26.55758
547.35        26.80771
547.79        27.03346
548.22        27.20476
548.66        27.42131
549.10        27.68384
549.53        27.84916
549.97        27.87813
550.41        28.28436
550.84        28.22307
551.28        28.33371
551.72          28.372
552.15        28.59898
552.59        28.66234
553.03        28.84285
553.46        29.02275
553.90        29.17627
554.34        29.29042
554.77         29.4064
555.21        29.52711
555.65        29.57962
556.08        29.59316
556.52        29.70508
556.96        29.90154
557.39        30.09052
557.83        30.25534
558.27         30.3807
558.70        30.48018
559.14        30.61303
559.57        30.75432
560.01         30.8641
560.45        30.93476
560.88        30.86942
561.32        30.86855
561.75        30.93666
562.19        31.10495
562.63        31.20555
563.06        31.22656
563.50        31.27039
563.93        31.33071
564.37        31.40291
564.80        31.47192
565.24        31.50773
565.68        31.53309
566.11        31.64342
566.55        31.84385
566.98        32.04261
567.42        32.24775
567.85        32.42167
568.29         32.5563
568.72         32.7558
569.16        33.06768
569.60        32.88832
570.03        33.24331
570.47        33.41653
570.90        33.42843
571.34        33.71379
571.77        33.76994
572.21        33.92758
572.64        34.04122
573.08        34.20232
573.51        34.42731
573.95         34.4407
574.38        34.63097
574.82        34.58497
