SpectraSmart Spectrum 2.9.0.0
--------- Device Information -----------
Spectrum Name :  反射率_0
Saving Time :  2024/04/30 01:10:26
Spectro-Module Model Name : SE2030-DUVN
Spectro-Module Serial Number : OS361AC55029948
Wavelength Start : 200
Wavelength End : 1025
Wavelength Unit : Wavelength(nm)
Spectrum Unit : Reflectance(%)
-----------Spectrum Setting ------------
Integration Time : 20ms
Average : 10
Boxcar : 0
Background removal :  enabled
linearity correction :  enabled
SC :  disabled
Intensity correction :  disabled
DWT denoise :  enabled
savitzky-golay :  disabled
FFT :  disabled
Running average :  disabled
Kalman :  disabled
High pass :  disabled
---------------BEGIN--------------------
Wavelength(nm)             Reflectance(%)
200.29               0
200.75        45.97341
201.21        30.57039
201.67        11.97138
202.13       -4.277937
202.58        -15.3599
203.04       -21.39056
203.50       -22.37224
203.96       -19.05488
204.42       -12.38078
204.88        -2.65595
205.34        9.075128
205.80         19.8999
206.26        27.52276
206.72        32.14313
207.18        32.97773
207.64         29.4431
208.10        22.25919
208.55        11.57622
209.01        0.699128
209.47       -1.896577
209.93        5.000779
210.39        16.88604
210.85        27.46481
211.31        31.67942
211.77        29.35175
212.23        20.64904
212.69        7.514346
213.14        1.779085
213.60        9.057686
214.06        22.40713
214.52        33.62808
214.98         37.5691
215.44        35.36562
215.90        29.52307
216.36         22.6515
216.81        19.62577
217.27        23.18969
217.73        32.61977
218.19        48.15392
218.65        64.15012
219.11        73.06984
219.57        74.74194
220.02        71.52758
220.48        66.23538
220.94        58.67044
221.40        46.96617
221.86        31.39888
222.32        19.58533
222.77        17.08194
223.23        20.92369
223.69        25.49937
224.15        27.06811
224.61        25.81091
225.06        22.68628
225.52        19.63253
225.98        20.22852
226.44        24.50936
226.90        29.82075
227.36        33.95416
227.81        35.68653
228.27        35.40932
228.73        33.80063
229.19        31.82882
229.65        31.39967
230.10        32.80623
230.56        34.92533
231.02        36.80185
231.48        37.71122
231.93        37.63151
232.39        36.99779
232.85         36.0039
233.31        35.03444
233.77        34.29606
234.22        33.76685
234.68        33.39613
235.14        33.13492
235.60        33.03465
236.05        33.16758
236.51        33.74006
236.97        35.00397
237.43        37.07523
237.88         40.1568
238.34        43.93613
238.80        47.34241
239.26        49.23194
239.71        49.63702
240.17        48.76097
240.63        47.40453
241.08         45.7192
241.54        42.88403
242.00        39.10188
242.46         37.3898
242.91        41.14706
243.37        49.84865
243.83         58.3443
244.28        61.43578
244.74        58.48562
245.20        49.80573
245.66        37.57058
246.11         28.2115
246.57        25.82777
247.03        29.18455
247.48        35.99215
247.94        39.70453
248.40        38.82993
248.85        36.52697
249.31        35.13348
249.77        35.76992
250.22        38.74419
250.68        44.36327
251.14         53.6827
251.59        62.68036
252.05        65.20972
252.51         63.5326
252.96        60.87885
253.42        59.36389
253.88         58.6385
254.33        57.78649
254.79        57.51174
255.25        58.38079
255.70         59.7028
256.16        61.24716
256.62        62.08376
257.07        61.48897
257.53        60.09821
257.99        58.19321
258.44        56.11828
258.90        55.10641
259.35        54.84982
259.81        55.07703
260.27        55.41008
260.72        55.60585
261.18        55.76742
261.63        55.73463
262.09         55.4392
262.55        54.46252
263.00        52.88903
263.46        51.17149
263.91        49.52277
264.37        48.46535
264.83        47.91843
265.28        47.64065
265.74        47.57441
266.19        47.40493
266.65          47.114
267.11        46.73983
267.56        46.26564
268.02        45.66635
268.47        44.91511
268.93        44.01179
269.38        42.99442
269.84        42.06834
270.30        41.28411
270.75         40.6223
271.21        40.01249
271.66        39.28714
272.12        38.42484
272.57        37.46996
273.03        36.54523
273.48        35.75606
273.94        35.19809
274.39        34.78277
274.85        34.50288
275.31        34.27386
275.76        34.03242
276.22         33.8029
276.67        33.53384
277.13        33.25648
277.58        32.91515
278.04         32.5448
278.49        32.06975
278.95        31.48483
279.40        30.76879
279.86        30.03423
280.31        29.31639
280.77        28.78483
281.22        28.43188
281.68        28.23699
282.13        28.15819
282.59        28.18936
283.04        28.27005
283.50        28.38303
283.95        28.42378
284.41        28.25143
284.86        27.84812
285.32        27.32424
285.77        26.74549
286.22        26.28209
286.68        25.99071
287.13        25.78384
287.59        25.71117
288.04         25.7848
288.50        25.98897
288.95        26.27519
289.41        26.51997
289.86        26.49383
290.32        26.19982
290.77        25.71873
291.22        25.21155
291.68        24.93764
292.13        24.96018
292.59        25.21693
293.04        25.67335
293.50         26.3035
293.95        27.06481
294.40        27.97355
294.86         28.8953
295.31        29.63171
295.77        30.13826
296.22        30.44091
296.68        30.71941
297.13        31.24447
297.58        32.07849
298.04        33.11432
298.49        34.15457
298.95        34.88972
299.40        35.25305
299.85        35.35548
300.31        35.39223
300.76        35.59726
301.21        36.05515
301.67        36.68896
302.12        37.34485
302.58         37.9351
303.03          38.408
303.48        38.69529
303.94        38.84867
304.39        39.57032
304.84        39.81004
305.30        40.37502
305.75        40.86627
306.20        41.23807
306.66        41.47726
307.11         41.6095
307.57        41.68368
308.02        41.68192
308.47        41.63778
308.93        41.55587
309.38        41.47623
309.83        41.51778
310.29        41.69312
310.74        41.96547
311.19        42.21524
311.65        42.24451
312.10        42.01746
312.55        41.60563
313.00        41.16972
313.46         40.9632
313.91        41.02661
314.36        41.27658
314.82        41.56986
315.27        41.69636
315.72        41.58172
316.18        41.30426
316.63        40.92249
317.08        40.54036
317.53        40.20921
317.99        39.90966
318.44        39.65033
318.89         39.4539
319.35        39.31882
319.80        39.24387
320.25        39.22168
320.70        39.23091
321.16        39.24177
321.61        39.26665
322.06        39.25073
322.51        39.12465
322.97        38.87669
323.42        38.53014
323.87        38.15414
324.32        37.86683
324.78        37.68734
325.23        37.60933
325.68        37.55711
326.13        37.40476
326.59        37.11594
327.04        36.74353
327.49        36.36721
327.94        36.13044
328.39        36.05984
328.85        36.09187
329.30        36.15099
329.75        36.04679
330.20         35.7358
330.66        35.28418
331.11        34.79701
331.56        34.41073
332.01        34.17333
332.46        34.03827
332.92        33.98131
333.37         34.0031
333.82        34.06695
334.27        34.17665
334.72        34.26755
335.17        34.22913
335.63        34.03515
336.08         33.7263
336.53        33.36631
336.98        33.09388
337.43        32.95511
337.88        32.91128
338.34        32.93088
338.79        32.97947
339.24        33.02506
339.69        33.08609
340.14        33.12056
340.59        33.05684
341.05         32.8912
341.50        32.64103
341.95        32.38174
342.40        32.24532
342.85        32.25412
343.30        32.35769
343.75        32.48222
344.20        32.50725
344.66        32.40947
345.11        32.23147
345.56        31.99624
346.01        31.73655
346.46        31.48717
346.91        31.24453
347.36        31.07442
347.81        31.07718
348.26        31.25552
348.72        31.56937
349.17        31.91512
349.62        32.10774
350.07        32.09096
350.52        31.91393
350.97        31.65244
351.42        31.42678
351.87        31.27977
352.32        31.18586
352.77        31.12665
353.22        31.07276
353.67        31.01387
354.13        30.95949
354.58        30.92985
355.03        30.95208
355.48        31.01596
355.93        31.09373
356.38        31.12416
356.83        31.02075
357.28        30.77247
357.73        30.41693
358.18        30.01465
358.63        29.66019
359.08        29.38776
359.53        29.17775
359.98        29.01904
360.43        28.89039
360.88        28.77746
361.33        28.68392
361.78        28.59819
362.23        28.49717
362.68        28.37651
363.13        28.24493
363.58        28.09632
364.03        27.92643
364.48        27.73897
364.93        27.52813
365.38        27.34002
365.83        27.24992
366.28         27.2633
366.73        27.35571
367.18        27.43282
367.63        27.34552
368.08        27.06505
368.53        26.63622
368.98        26.16876
369.43        25.84163
369.88        25.70633
370.33        25.72034
370.78        25.78819
371.23        25.75144
371.68        25.56569
372.13        25.27179
372.58        24.96558
373.03        24.79902
373.48        24.79961
373.93        24.91163
374.38        25.01368
374.83        24.91269
375.28         24.5789
375.72        24.09092
376.17        23.60182
376.62        23.28314
377.07         23.1719
377.52         23.1982
377.97        23.30701
378.42        23.40775
378.87        23.45794
379.32        23.48756
379.77        23.46532
380.22        23.34341
380.67        23.12154
381.11        22.80082
381.56        22.46698
382.01        22.26811
382.46        22.24082
382.91        22.35611
383.36         22.4987
383.81        22.48628
384.26        22.28447
384.71        21.94358
385.15        21.59172
385.60        21.45876
386.05        21.56852
386.50        21.83692
386.95        22.10241
387.40         22.1166
387.85        21.84147
388.29        21.37201
388.74        20.88267
389.19        20.54009
389.64        20.38418
390.09         20.3466
390.54        20.39098
390.98        20.45587
391.43        20.51506
391.88        20.58676
392.33        20.62679
392.78        20.58935
393.23         20.4783
393.67        20.25764
394.12        20.01285
394.57        20.00518
395.02        19.95956
395.47        20.07549
395.91        20.20263
396.36        20.21944
396.81        20.10509
397.26        19.91007
397.71        19.69571
398.15        19.54152
398.60        19.49417
399.05        19.47897
399.50          19.476
399.95        19.54565
400.39         19.5746
400.84        19.56386
401.29          19.485
401.74        19.40727
402.18        19.33888
402.63        19.22637
403.08        19.10501
403.53        19.04463
403.97        19.05211
404.42        19.10967
404.87        19.16548
405.32        19.13419
405.76        18.99514
406.21        18.78392
406.66        18.56153
407.11        18.42562
407.55        18.40463
408.00        18.46809
408.45        18.55685
408.90        18.56227
409.34        18.45533
409.79        18.27024
410.24        18.08894
410.68        18.03284
411.13        18.12493
411.58        18.32417
412.03          18.536
412.47        18.60286
412.92        18.47634
413.37        18.22361
413.81        17.93823
414.26        17.78504
414.71        17.78537
415.15        17.89164
415.60        18.03413
416.05         18.1168
416.49        18.10674
416.94        18.04167
417.39        17.93803
417.83        17.81648
418.28        17.69612
418.73        17.56076
419.17        17.44657
419.62        17.41513
420.07        17.47062
420.51          17.596
420.96        17.72563
421.41        17.74372
421.85        17.62742
422.30        17.43429
422.74        17.22869
423.19         17.1347
423.64        17.16841
424.08        17.29826
424.53         17.4628
424.98        17.58353
425.42        17.63231
425.87        17.62123
426.31        17.56306
426.76        17.50615
427.21        17.40604
427.65        17.28035
428.10          17.147
428.54        17.01341
428.99        16.90237
429.44        16.92964
429.88        17.02019
430.33        16.83585
430.77        16.48922
431.22        16.53895
431.66        16.94912
432.11        17.15074
432.56         17.0689
433.00        17.04306
433.45        17.06313
433.89        16.81109
434.34        16.44289
434.78        16.45998
435.23        16.78105
435.67        16.86218
436.12        16.67766
436.57        16.53053
437.01        16.47695
437.46        16.47753
437.90        16.54292
438.35        16.67546
438.79        16.82204
439.24        16.86924
439.68        16.81853
440.13        16.76836
440.57        16.71756
441.02        16.65569
441.46        16.59379
441.91         16.4649
442.35        16.31676
442.80        16.46683
443.24        16.80557
443.69         16.7773
444.13        16.41404
444.58        16.24673
445.02        16.27543
445.47         16.2193
445.91         16.0861
446.36         16.0339
446.80         16.0642
447.24        16.13906
447.69        16.23327
448.13        16.30585
448.58        16.34555
449.02        16.36269
449.47        16.37317
449.91        16.39258
450.36         16.4276
450.80        16.46809
451.25        16.50467
451.69        16.52143
452.13        16.51338
452.58        16.49451
453.02        16.46844
453.47        16.43911
453.91        16.40432
454.36        16.40842
454.80        16.37198
455.24        16.35711
455.69        16.34319
456.13        16.32881
456.58        16.31392
457.02        16.28247
457.46        16.23769
457.91        16.18231
458.35        16.12591
458.79        16.09088
459.24         16.0895
459.68        16.12167
460.13        16.17204
460.57        16.14218
461.01        16.15004
461.46        16.04773
461.90        15.92293
462.34        16.00235
462.79        16.22231
463.23        16.22205
463.68        16.02107
464.12        15.94761
464.56        16.01017
465.01        16.04561
465.45         16.0239
465.89        15.97162
466.34        15.91585
466.78        15.92272
467.22        16.02465
467.67        16.02046
468.11        15.92051
468.55        15.80456
468.99         15.7125
469.44        15.66349
469.88        15.66671
470.32        15.72133
470.77        15.79462
471.21          15.847
471.65        15.85974
472.10        15.85137
472.54        15.83626
472.98        15.85414
473.42        15.91174
473.87        15.99179
474.31        16.07178
474.75        16.12228
475.20         16.1405
475.64        16.13256
476.08        16.11195
476.52        16.09533
476.97         16.0896
477.41        16.08634
477.85        16.09359
478.29        16.12253
478.74        16.17739
479.18        16.24497
479.62        16.30243
480.06        16.35264
480.50        16.40035
480.95        16.30181
481.39         16.3295
481.83        16.35825
482.27        16.48211
482.72        16.55251
483.16        16.76461
483.60        16.87235
484.04        16.92593
484.48        16.93822
484.93        16.96914
485.37        17.03815
485.81        17.11496
486.25        17.25805
486.69        17.17133
487.14        17.09616
487.58        17.56193
488.02        17.50686
488.46        17.61111
488.90        18.01187
489.34        17.32173
489.79        17.40102
490.23        17.72935
490.67        17.99376
491.11        18.10122
491.55        18.04541
491.99        17.92117
492.43        17.98224
492.88        18.25037
493.32         18.5378
493.76        18.78675
494.20        19.02101
494.64        19.22423
495.08        19.38135
495.52         19.4807
495.96         19.5482
496.41        19.59815
496.85        19.54359
497.29        19.43673
497.73        19.63163
498.17        19.85863
498.61        19.98172
499.05        19.92888
499.49        19.95117
499.93        20.07078
500.37        20.20747
500.82        20.34699
501.26        20.46917
501.70        20.56726
502.14        20.67396
502.58        20.79041
503.02        20.89409
503.46        20.98543
503.90        21.07493
504.34        21.16482
504.78         21.2557
505.22        21.34761
505.66        21.43497
506.10        21.51054
506.54        21.58973
506.98         21.6745
507.42        21.71424
507.86        21.69347
508.30        21.83328
508.74        21.73766
509.18        21.73727
509.62        21.72214
510.06         21.7152
510.50        21.72089
510.94        21.74021
511.38         21.7867
511.82         21.8697
512.26        21.98506
512.70        22.12277
513.14        22.25367
513.58        22.33411
514.02        22.35515
514.46        22.32929
514.90        22.27755
515.34        22.23808
515.78        22.22416
516.22        22.22453
516.66         22.2364
517.10        22.25375
517.54        22.27132
517.98        22.29277
518.42        22.30433
518.86        22.28243
519.30         22.2239
519.74         22.1346
520.18        22.03701
520.62        21.96627
521.06          21.932
521.50        21.92896
521.93        21.93811
522.37        21.91998
522.81         21.8693
523.25         21.7964
523.69        21.72927
524.13        21.71078
524.57        21.74509
525.01        21.81284
525.45        21.87625
525.89        21.87591
526.32         21.7953
526.76        21.66163
527.20        21.50512
527.64        21.37288
528.08         21.2804
528.52        21.21599
528.96        21.17101
529.40        21.13125
529.83        21.08982
530.27        21.05466
530.71        21.02424
531.15        20.99723
531.59        20.97054
532.03        20.93844
532.46        20.89547
532.90        20.84292
533.34        20.78039
533.78        20.71325
534.22        20.64084
534.66        20.56047
535.09        20.47392
535.53        20.39107
535.97        20.32531
536.41        20.30322
536.85        20.32705
537.28        20.38458
537.72        20.45388
538.16        20.50204
538.60        20.51878
539.04        20.51672
539.47        20.49508
539.91        20.47388
540.35        20.45687
540.79        20.44687
541.22        20.46012
541.66        20.52677
542.10        20.64709
542.54        20.81011
542.97         20.9947
543.41        21.16802
543.85        21.31897
544.29        21.46132
544.72         21.5823
545.16        21.67946
545.60        21.75531
546.04         21.8006
546.47        21.85637
546.91        22.02302
547.35        22.29275
547.79        22.56913
548.22        22.79488
548.66        23.00483
549.10        23.19297
549.53        23.25713
549.97        23.19993
550.41        23.50442
550.84        23.48413
551.28        23.65369
551.72        23.78599
552.15        24.06319
552.59        24.17609
553.03        24.36948
553.46        24.55281
553.90        24.71778
554.34        24.85583
554.77        24.99422
555.21        25.12609
555.65         25.1752
556.08         25.1664
556.52        25.22722
556.96        25.35802
557.39        25.49863
557.83        25.63906
558.27         25.7575
558.70        25.86514
559.14        26.01025
559.57        26.16744
560.01         26.3051
560.45        26.39699
560.88        26.32957
561.32        26.27499
561.75        26.25028
562.19         26.3192
562.63        26.39726
563.06        26.48287
563.50        26.64444
563.93        26.84074
564.37        26.99394
564.80        27.08211
565.24        27.13649
565.68        27.17205
566.11        27.23133
566.55        27.32679
566.98        27.40468
567.42        27.50554
567.85        27.64021
568.29        27.80953
568.72        28.08673
569.16        28.49299
569.60        28.41663
570.03        28.72058
570.47        28.84848
570.90        29.07483
571.34        28.91711
571.77        29.25886
572.21        29.36895
572.64        29.47672
573.08         29.6529
573.51        29.92442
573.95        29.97079
574.38        30.04254
574.82        30.26533
