SpectraSmart Spectrum 2.9.0.0
--------- Device Information -----------
Spectrum Name :  反射率_0
Saving Time :  2024/04/30 01:14:04
Spectro-Module Model Name : SE2030-DUVN
Spectro-Module Serial Number : OS361AC55029948
Wavelength Start : 200
Wavelength End : 1025
Wavelength Unit : Wavelength(nm)
Spectrum Unit : Reflectance(%)
-----------Spectrum Setting ------------
Integration Time : 20ms
Average : 10
Boxcar : 0
Background removal :  enabled
linearity correction :  enabled
SC :  disabled
Intensity correction :  disabled
DWT denoise :  enabled
savitzky-golay :  disabled
FFT :  disabled
Running average :  disabled
Kalman :  disabled
High pass :  disabled
---------------BEGIN--------------------
Wavelength(nm)             Reflectance(%)
200.29               0
200.75        95.88873
201.21        75.78514
201.67        55.19704
202.13        43.83133
202.58        46.22891
203.04        60.80881
203.50         84.7021
203.96        110.0038
204.42        130.2117
204.88        144.2684
205.34        147.5557
205.80        137.3825
206.26        119.5422
206.72        100.1098
207.18        83.68379
207.64        71.75514
208.10        62.99389
208.55        56.11299
209.01        51.45865
209.47        51.32486
209.93        55.43988
210.39        61.72506
210.85        67.95335
211.31        72.95579
211.77        77.26476
212.23        81.87563
212.69        86.35057
213.14        88.16859
213.60        85.30561
214.06        80.23611
214.52        76.28062
214.98        75.67088
215.44        78.17739
215.90        83.31841
216.36        90.22445
216.81        96.95626
217.27        103.0094
217.73        109.7349
218.19        117.8339
218.65        126.2586
219.11        132.2425
219.57        133.5142
220.02        133.0476
220.48        135.7177
220.94        141.8338
221.40        152.0969
221.86         162.807
222.32        161.5997
222.77        147.1383
223.23        130.3205
223.69        118.5764
224.15        115.1233
224.61        118.4937
225.06        127.2626
225.52        138.8554
225.98         145.954
226.44        146.0003
226.90        142.2321
227.36        138.8107
227.81        138.9696
228.27        142.9296
228.73        149.2708
229.19        155.5406
229.65        156.6055
230.10        151.8616
230.56        145.3586
231.02        139.6731
231.48        136.9315
231.93        136.9076
232.39        138.6709
232.85        141.9346
233.31        146.4016
233.77        151.5469
234.22         157.675
234.68        162.9439
235.14         164.302
235.60        161.1474
236.05        154.2245
236.51         146.648
236.97        142.3802
237.43        142.2134
237.88        146.1388
238.34        151.8384
238.80         153.802
239.26        148.9874
239.71        139.5289
240.17        129.2658
240.63        122.8441
241.08        121.3443
241.54        123.8234
242.00        131.0846
242.46        140.1865
242.91        145.9712
243.37         146.643
243.83        143.6738
244.28        139.9735
244.74        135.7991
245.20        128.8288
245.66          120.35
246.11        114.8579
246.57        114.5789
247.03        120.4115
247.48        127.2132
247.94        123.5666
248.40        111.2116
248.85        97.24267
249.31        88.59278
249.77        87.95181
250.22         95.2031
250.68        111.6757
251.14        137.7477
251.59        154.5305
252.05        147.0243
252.51        129.5038
252.96        115.7129
253.42        111.3426
253.88        113.6716
254.33        119.9881
254.79        127.8682
255.25        131.3611
255.70        129.1815
256.16        125.5849
256.62        122.8971
257.07        122.4812
257.53         124.665
257.99        128.1998
258.44        131.1781
258.90        132.0607
259.35        130.3122
259.81        127.9234
260.27        126.0426
260.72        125.7115
261.18        127.1207
261.63        128.9466
262.09        130.4271
262.55         129.859
263.00        127.2045
263.46        123.8334
263.91        120.3867
264.37        118.3297
264.83        117.5067
265.28        117.3474
265.74        117.5209
266.19        117.0826
266.65        116.0433
267.11        114.6503
267.56        113.2059
268.02        112.2379
268.47        111.7317
268.93        111.4866
269.38        111.2493
269.84        110.7314
270.30        109.8215
270.75        108.6269
271.21        107.2496
271.66        105.6479
272.12        103.9096
272.57         101.959
273.03        100.0108
273.48        98.26211
273.94        96.89236
274.39        95.75204
274.85        94.78869
275.31         93.6552
275.76         92.2425
276.22        90.75851
276.67        89.24745
277.13        88.06117
277.58        87.10644
278.04        86.37504
278.49        85.59533
278.95        84.65322
279.40        83.40977
279.86        82.08534
280.31        80.67828
280.77        79.44566
281.22         78.3434
281.68        77.38895
282.13        76.51134
282.59        75.80743
283.04        75.15995
283.50        74.59622
283.95        73.90827
284.41        72.90132
284.86        71.52553
285.32         69.9705
285.77        68.37989
286.22        67.11031
286.68        66.24813
287.13        65.63702
287.59        65.19812
288.04        64.68745
288.50        64.08984
288.95        63.40139
289.41        62.73199
289.86        62.12254
290.32        61.62264
290.77        61.17354
291.22        60.69785
291.68        60.08341
292.13        59.30849
292.59        58.48114
293.04        57.75243
293.50        57.41466
293.95        57.47239
294.40        57.84156
294.86        58.29986
295.31         58.5131
295.77        58.39689
296.22        58.03786
296.68        57.60734
297.13        57.34208
297.58        57.32186
298.04        57.44574
298.49        57.61344
298.95        57.69183
299.40        57.62326
299.85        57.46729
300.31        57.28069
300.76        57.05687
301.21        56.84741
301.67        56.67051
302.12        56.48962
302.58        56.40682
303.03        56.40006
303.48        56.37603
303.94        56.33527
304.39         56.6996
304.84        56.69557
305.30        56.92862
305.75        57.07445
306.20        57.07488
306.66        56.93415
307.11        56.65865
307.57        56.35284
308.02        56.05733
308.47        55.81932
308.93        55.63155
309.38        55.45889
309.83        55.31514
310.29         55.1976
310.74         55.0928
311.19        54.97939
311.65        54.80931
312.10        54.56482
312.55        54.27201
313.00        53.97081
313.46        53.72417
313.91        53.53672
314.36        53.39326
314.82        53.27739
315.27        53.18843
315.72        53.10035
316.18         53.0132
316.63         52.8881
317.08        52.67434
317.53        52.37381
317.99        52.02379
318.44        51.64946
318.89        51.30108
319.35        50.99974
319.80        50.72728
320.25        50.53441
320.70        50.50029
321.16        50.60643
321.61        50.84949
322.06        51.07309
322.51        51.02928
322.97        50.66456
323.42        50.05821
323.87        49.38693
324.32        48.94385
324.78        48.79121
325.23        48.87385
325.68        49.04298
326.13        49.04793
326.59        48.80611
327.04        48.41349
327.49        47.98299
327.94        47.71577
328.39        47.65723
328.85        47.71277
329.30        47.80266
329.75        47.71297
330.20        47.39356
330.66        46.92534
331.11        46.42151
331.56        46.01715
332.01        45.76754
332.46        45.62942
332.92        45.58714
333.37        45.67487
333.82        45.85461
334.27         46.1189
334.72        46.38837
335.17        46.52844
335.63        46.49402
336.08        46.33215
336.53        46.08938
336.98        45.88591
337.43        45.76889
337.88        45.71053
338.34        45.70172
338.79        45.74479
339.24        45.82187
339.69         45.9443
340.14        46.07264
340.59        46.13488
341.05        46.11747
341.50        46.03258
341.95        45.92577
342.40        45.88436
342.85        45.92414
343.30        46.00923
343.75        46.09279
344.20        46.10123
344.66        46.02696
345.11        45.89813
345.56        45.73429
346.01        45.56043
346.46        45.40118
346.91        45.25343
347.36        45.16381
347.81        45.20238
348.26        45.36901
348.72        45.63201
349.17        45.91636
349.62        46.07751
350.07         46.0754
350.52        45.95324
350.97        45.77439
351.42         45.6401
351.87        45.58243
352.32        45.56961
352.77        45.59196
353.22        45.63472
353.67        45.68158
354.13        45.73259
354.58        45.75906
355.03        45.71301
355.48        45.58052
355.93        45.36806
356.38         45.0991
356.83        44.81261
357.28        44.52464
357.73        44.23636
358.18        43.93964
358.63          43.619
359.08        43.27774
359.53         42.9267
359.98        42.59982
360.43        42.34738
360.88        42.17397
361.33        42.05896
361.78         41.9517
362.23        41.77194
362.68        41.50344
363.13        41.17595
363.58        40.82996
364.03        40.53016
364.48        40.29646
364.93        40.10503
365.38        39.94941
365.83        39.82122
366.28         39.7086
366.73        39.61211
367.18        39.50104
367.63        39.32555
368.08        39.07505
368.53         38.7602
368.98        38.41926
369.43        38.11645
369.88        37.87631
370.33        37.69514
370.78         37.5435
371.23         37.3699
371.68        37.16253
372.13        36.93018
372.58        36.72334
373.03        36.62284
373.48        36.62922
373.93        36.69998
374.38        36.73733
374.83         36.5879
375.28        36.22833
375.72        35.71702
376.17        35.17958
376.62        34.72966
377.07        34.40485
377.52        34.16936
377.97        34.02373
378.42        33.96888
378.87        33.98783
379.32        34.07383
379.77        34.16734
380.22        34.17921
380.67        34.08331
381.11        33.88617
381.56        33.63071
382.01        33.39955
382.46         33.2241
382.91        33.09854
383.36        32.97481
383.81        32.77512
384.26        32.49194
384.71        32.15196
385.15        31.84115
385.60        31.72318
386.05        31.79983
386.50        32.00693
386.95        32.20652
387.40          32.186
387.85        31.91416
388.29         31.4633
388.74        30.99494
389.19        30.63653
389.64        30.42377
390.09        30.30086
390.54        30.26027
390.98        30.28568
391.43        30.36436
391.88        30.49129
392.33        30.58884
392.78        30.57541
393.23        30.44747
393.67        30.16076
394.12        29.82331
394.57         29.7932
395.02        29.65974
395.47        29.73006
395.91        29.81258
396.36        29.78795
396.81        29.63843
397.26        29.41834
397.71        29.18977
398.15         29.0276
398.60        28.98691
399.05        28.97324
399.50         28.9627
399.95        29.05301
400.39        29.08134
400.84        29.04421
401.29        28.91022
401.74        28.80345
402.18        28.73828
402.63        28.62774
403.08        28.50571
403.53        28.44625
403.97        28.45314
404.42          28.513
404.87        28.55841
405.32         28.4785
405.76        28.25436
406.21        27.93694
406.66        27.62594
407.11        27.48008
407.55        27.54015
408.00        27.75277
408.45        28.01883
408.90        28.15384
409.34        28.10085
409.79        27.91126
410.24        27.69118
410.68        27.60184
411.13        27.67889
411.58        27.86698
412.03        28.06782
412.47        28.12118
412.92        27.97458
413.37        27.70441
413.81        27.39764
414.26        27.21501
414.71        27.17328
415.15        27.22596
415.60        27.31183
416.05        27.35557
416.49        27.33129
416.94        27.27371
417.39        27.18295
417.83        27.05039
418.28        26.89193
418.73        26.70231
419.17         26.5476
419.62        26.53873
420.07        26.68403
420.51        26.94143
420.96        27.21121
421.41        27.31919
421.85        27.22424
422.30        27.01232
422.74        26.75693
423.19        26.61071
423.64        26.59626
424.08        26.67468
424.53        26.79583
424.98        26.91361
425.42          27.006
425.87        27.07327
426.31        27.08919
426.76        27.04955
427.21        26.87017
427.65         26.6039
428.10        26.31485
428.54        26.08883
428.99        25.97129
429.44        26.07864
429.88        26.28123
430.33        26.09609
430.77         25.6597
431.22        25.72322
431.66        26.24091
432.11        26.51745
432.56        26.46511
433.00        26.38664
433.45        26.29615
433.89        26.13749
434.34        25.98014
434.78        25.88706
435.23         25.8483
435.67        25.78137
436.12        25.69563
436.57        25.63348
437.01        25.61871
437.46        25.66397
437.90        25.76337
438.35        25.90487
438.79        26.05129
439.24         26.1019
439.68        26.07764
440.13        26.11248
440.57        26.16174
441.02        26.15425
441.46         26.0944
441.91        25.82909
442.35        25.48856
442.80        25.79587
443.24        26.51866
443.69        26.39925
444.13         25.5475
444.58        25.19212
445.02        25.34424
445.47        25.35444
445.91        25.19255
446.36        25.13033
446.80        25.15768
447.24        25.21061
447.69        25.27515
448.13         25.3239
448.58        25.35137
449.02        25.36303
449.47        25.37501
449.91        25.39552
450.36        25.43078
450.80        25.47209
451.25         25.5078
451.69        25.51082
452.13        25.47797
452.58        25.43275
453.02        25.38532
453.47        25.34716
453.91        25.31691
454.36        25.35786
454.80        25.35039
455.24        25.39674
455.69        25.45982
456.13        25.53121
456.58        25.58854
457.02        25.57495
457.46        25.49287
457.91        25.36202
458.35        25.21706
458.79        25.14311
459.24        25.17104
459.68        25.25817
460.13        25.36457
460.57        25.47168
461.01        25.50497
461.46        25.42976
461.90        25.29514
462.34        25.44997
462.79        25.79058
463.23        25.75245
463.68        25.37803
464.12        25.20709
464.56        25.26476
465.01        25.26519
465.45        25.18445
465.89        25.15216
466.34        25.18176
466.78        25.24082
467.22        25.37664
467.67        25.37894
468.11        25.26594
468.55        25.08905
468.99        24.91817
469.44        24.83508
469.88        24.85934
470.32        24.97143
470.77         25.1125
471.21        25.20191
471.65        25.20794
472.10        25.16632
472.54        25.10471
472.98        25.08634
473.42        25.12623
473.87        25.20084
474.31        25.28134
474.75        25.33591
475.20        25.36012
475.64         25.3571
476.08        25.34028
476.52        25.32254
476.97        25.31012
477.41         25.2959
477.85        25.28519
478.29        25.28583
478.74        25.30723
479.18        25.32964
479.62        25.34369
480.06        25.39347
480.50        25.49106
480.95        25.39938
481.39        25.50673
481.83        25.55654
482.27        25.68026
482.72        25.66172
483.16        25.84487
483.60        25.91826
484.04        25.98318
484.48        26.02822
484.93        26.07666
485.37        26.18266
485.81        26.33792
486.25        26.33306
486.69        26.17017
487.14        26.36578
487.58        26.57285
488.02        26.60006
488.46        26.90998
488.90        27.00858
489.34        26.42946
489.79        26.61132
490.23        26.70644
490.67        27.02702
491.11        27.25671
491.55        27.16767
491.99        26.86362
492.43        26.84005
492.88        27.13504
493.32        27.43638
493.76        27.66428
494.20        27.86466
494.64        28.01972
495.08        28.10936
495.52        28.15004
495.96        28.22746
496.41        28.36399
496.85        28.41499
497.29        28.38951
497.73        28.70008
498.17        28.93125
498.61        28.92358
499.05        28.63297
499.49        28.50151
499.93        28.58626
500.37        28.75919
500.82        28.97157
501.26        29.14002
501.70         29.2402
502.14        29.33708
502.58        29.45077
503.02        29.57494
503.46        29.71499
503.90        29.87223
504.34        30.02629
504.78        30.14504
505.22         30.2186
505.66        30.24659
506.10        30.24661
506.54        30.28214
506.98        30.36909
507.42         30.4343
507.86        30.42116
508.30         30.5829
508.74        30.35531
509.18        30.21434
509.62        30.07168
510.06        30.06169
510.50        30.20396
510.94        30.46666
511.38        30.76563
511.82        30.94359
512.26        30.95941
512.70        30.85734
513.14        30.71569
513.58        30.65757
514.02        30.71598
514.46        30.85275
514.90        31.01184
515.34        31.10428
515.78        31.10394
516.22        31.03898
516.66        30.95702
517.10        30.92901
517.54        30.96973
517.98        31.05321
518.42        31.12848
518.86        31.11674
519.30        31.00397
519.74        30.82334
520.18        30.63275
520.62        30.51661
521.06        30.49969
521.50        30.56224
521.93        30.66712
522.37        30.74237
522.81        30.76874
523.25        30.75869
523.69         30.7467
524.13        30.78756
524.57        30.88571
525.01        31.01501
525.45        31.11795
525.89        31.10565
526.32        30.96012
526.76        30.72871
527.20        30.47519
527.64        30.29687
528.08        30.22005
528.52        30.21585
528.96        30.25401
529.40         30.2846
529.83        30.28574
530.27        30.27539
530.71        30.24968
531.15        30.20532
531.59         30.1431
532.03        30.05827
532.46        29.95901
532.90        29.87329
533.34        29.80726
533.78        29.76321
534.22        29.72967
534.66        29.68563
535.09        29.62561
535.53        29.56261
535.97        29.51673
536.41         29.5272
536.85        29.59692
537.28        29.70811
537.72        29.81914
538.16        29.86658
538.60        29.83654
539.04        29.75186
539.47        29.64333
539.91        29.58546
540.35        29.58919
540.79        29.64396
541.22        29.72827
541.66        29.81196
542.10        29.88376
542.54        29.95632
542.97          30.046
543.41        30.18173
543.85        30.36314
544.29        30.58044
544.72        30.78945
545.16        30.94422
545.60        31.03243
546.04        31.05641
546.47        31.06614
546.91        31.18996
547.35        31.42377
547.79        31.63927
548.22        31.79198
548.66        31.98486
549.10        32.21592
549.53         32.3256
549.97        32.28394
550.41        32.70833
550.84        32.62529
551.28         32.7653
551.72        32.82612
552.15        33.07944
552.59        33.11125
553.03        33.25606
553.46        33.39244
553.90        33.51437
554.34        33.61245
554.77        33.72465
555.21        33.84772
555.65         33.8889
556.08        33.87855
556.52        33.97999
556.96         34.1743
557.39        34.34844
557.83        34.48607
558.27        34.57516
558.70        34.64302
559.14        34.77684
559.57        34.94671
560.01        35.09422
560.45        35.20379
560.88        35.13878
561.32        35.11888
561.75        35.20508
562.19        35.40791
562.63        35.38888
563.06        35.18793
563.50        35.17779
563.93        35.34335
564.37        35.44165
564.80        35.45718
565.24        35.53401
565.68        35.65785
566.11        35.76881
566.55        35.86247
566.98        35.90483
567.42        35.95346
567.85        36.02705
568.29        36.14204
568.72        36.39066
569.16        36.80339
569.60        36.66819
570.03        37.10563
570.47        37.24863
570.90        37.41973
571.34        37.53463
571.77        37.69849
572.21        37.91385
572.64        38.13203
573.08        38.10859
573.51        37.98529
573.95        38.09226
574.38        38.66969
574.82        39.01001
