SpectraSmart Spectrum 2.9.0.0
--------- Device Information -----------
Spectrum Name :  反射率_0
Saving Time :  2024/04/30 01:16:35
Spectro-Module Model Name : SE2030-DUVN
Spectro-Module Serial Number : OS361AC55029948
Wavelength Start : 200
Wavelength End : 1025
Wavelength Unit : Wavelength(nm)
Spectrum Unit : Reflectance(%)
-----------Spectrum Setting ------------
Integration Time : 20ms
Average : 10
Boxcar : 0
Background removal :  enabled
linearity correction :  enabled
SC :  disabled
Intensity correction :  disabled
DWT denoise :  enabled
savitzky-golay :  disabled
FFT :  disabled
Running average :  disabled
Kalman :  disabled
High pass :  disabled
---------------BEGIN--------------------
Wavelength(nm)             Reflectance(%)
200.29               0
200.75        37.42383
201.21        29.52738
201.67        19.88753
202.13        11.62109
202.58         6.14415
203.04        3.908407
203.50        4.196537
203.96        5.135972
204.42        5.963624
204.88        7.072901
205.34        10.26439
205.80        17.11291
206.26         25.3394
206.72        32.51204
207.18        36.52784
207.64         36.1546
208.10        32.04263
208.55        24.90814
209.01        16.45392
209.47        11.84426
209.93        12.71506
210.39        16.99068
210.85        21.24668
211.31        22.39352
211.77        20.13184
212.23        14.57193
212.69        7.471666
213.14        7.013245
213.60         15.4186
214.06         26.8955
214.52        35.87242
214.98        39.40033
215.44        38.55276
215.90         35.0807
216.36         30.3576
216.81        26.91997
217.27        26.35034
217.73        27.74594
218.19        32.49276
218.65        41.64911
219.11        51.99205
219.57        60.43201
220.02        64.31538
220.48        63.40134
220.94        58.05388
221.40        47.71286
221.86        33.26145
222.32        22.96536
222.77        22.15636
223.23        27.14317
223.69        32.66281
224.15        35.65608
224.61        36.52274
225.06          36.352
225.52        36.62685
225.98        39.25115
226.44        43.67884
226.90        48.08735
227.36        51.29942
227.81        52.90115
228.27        53.30431
228.73        52.80674
229.19        51.94997
229.65        51.72433
230.10        52.29961
230.56        53.33412
231.02        54.11736
231.48        54.05019
231.93        53.07993
232.39        51.45765
232.85        49.71719
233.31        48.93368
233.77         49.4164
234.22        51.02594
234.68         52.7008
235.14        52.56416
235.60        50.29343
236.05        46.61328
236.51        43.18468
236.97        42.08965
237.43        43.79663
237.88        48.21476
238.34        54.36769
238.80        58.98521
239.26          59.599
239.71        56.93298
240.17        52.47166
240.63        48.41416
241.08        45.06827
241.54        41.12714
242.00        36.44855
242.46        33.34318
242.91        35.05519
243.37        42.04792
243.83        50.03485
244.28        54.13018
244.74        53.67921
245.20        49.02249
245.66        41.50927
246.11        35.42929
246.57        33.50327
247.03        34.69027
247.48         37.7221
247.94        38.96169
248.40        37.93822
248.85        36.64111
249.31        36.11092
249.77        36.56171
250.22        38.12165
250.68        40.76811
251.14        45.66576
251.59        52.40886
252.05        57.05902
252.51        58.95741
252.96        58.56518
253.42        56.96549
253.88        54.36666
254.33        50.51301
254.79        47.20368
255.25         47.3052
255.70        50.29288
256.16        54.27981
256.62        57.35983
257.07        58.38603
257.53        58.09251
257.99        56.98397
258.44        55.47564
258.90        54.79054
259.35        54.65282
259.81        54.88322
260.27        55.07124
260.72        54.93789
261.18        54.65495
261.63        54.11877
262.09        53.48562
262.55        52.62606
263.00        51.56218
263.46        50.55407
263.91         49.5324
264.37         48.6976
264.83        47.96997
265.28        47.24701
265.74        46.68198
266.19        46.27457
266.65        46.07632
267.11        46.02611
267.56        45.94482
268.02        45.58493
268.47        44.87806
268.93        43.88997
269.38        42.80519
269.84        42.06134
270.30        41.73984
270.75        41.71415
271.21        41.69867
271.66        41.23938
272.12        40.27188
272.57        38.92866
273.03        37.53648
273.48        36.52201
273.94        36.04582
274.39        35.90641
274.85        35.90518
275.31        35.68385
275.76        35.15415
276.22        34.47807
276.67        33.76486
277.13        33.26719
277.58        32.97325
278.04        32.82171
278.49        32.65659
278.95        32.36945
279.40        31.89081
279.86        31.35283
280.31        30.77211
280.77         30.2914
281.22        29.90357
281.68         29.6008
282.13        29.36325
282.59        29.22457
283.04        29.14058
283.50        29.09293
283.95        28.99419
284.41        28.73002
284.86        28.27688
285.32         27.7272
285.77        27.11576
286.22        26.56494
286.68        26.12316
287.13        25.72859
287.59        25.43246
288.04        25.25181
288.50        25.19034
288.95        25.20584
289.41        25.22842
289.86        25.10815
290.32        24.84634
290.77        24.48719
291.22        24.10958
291.68        23.84216
292.13        23.71438
292.59        23.70127
293.04        23.81889
293.50        24.11622
293.95        24.57192
294.40        25.17496
294.86        25.78384
295.31        26.19109
295.77        26.35349
296.22        26.31898
296.68        26.25601
297.13        26.41414
297.58        26.85392
298.04         27.4638
298.49        28.09906
298.95        28.52535
299.40        28.68597
299.85        28.67357
300.31        28.57781
300.76        28.48002
301.21        28.44616
301.67        28.44678
302.12        28.48343
302.58        28.69962
303.03        29.08542
303.48        29.46891
303.94        29.72444
304.39        30.39165
304.84         30.2114
305.30        30.21624
305.75        30.12348
306.20        30.13699
306.66        30.28881
307.11        30.51382
307.57        30.74351
308.02        30.80706
308.47        30.68974
308.93        30.45999
309.38        30.18111
309.83        29.99634
310.29        29.93975
310.74        29.95891
311.19        29.99499
311.65        29.95237
312.10        29.80398
312.55        29.58813
313.00        29.34785
313.46         29.1446
313.91        28.98622
314.36        28.85409
314.82        28.72989
315.27        28.60744
315.72        28.47069
316.18        28.33273
316.63         28.1752
317.08        27.97739
317.53        27.74446
317.99         27.4931
318.44        27.24564
318.89        27.04231
319.35        26.89248
319.80        26.77962
320.25         26.7071
320.70        26.67942
321.16        26.67727
321.61        26.70968
322.06        26.71494
322.51        26.60195
322.97        26.35374
323.42        25.99802
323.87        25.61529
324.32        25.33942
324.78        25.19434
325.23        25.16002
325.68        25.15108
326.13        25.02357
326.59        24.73931
327.04         24.3576
327.49        23.96573
327.94         23.7133
328.39        23.63433
328.85        23.66924
329.30        23.75228
329.75        23.73288
330.20        23.56797
330.66        23.30781
331.11        23.01084
331.56        22.74832
332.01        22.55045
332.46         22.3886
332.92        22.27101
333.37        22.23952
333.82        22.28426
334.27        22.39689
334.72        22.51184
335.17        22.51594
335.63        22.37987
336.08        22.13753
336.53        21.84233
336.98        21.60546
337.43        21.46693
337.88        21.39906
338.34        21.37644
338.79        21.37576
339.24         21.3764
339.69        21.39746
340.14        21.42464
340.59        21.42963
341.05        21.40986
341.50        21.36237
341.95        21.31766
342.40        21.33617
342.85        21.42075
343.30        21.53968
343.75        21.63897
344.20         21.6356
344.66        21.51923
345.11        21.31617
345.56        21.05887
346.01        20.79619
346.46         20.5623
346.91        20.35649
347.36        20.20975
347.81        20.16482
348.26        20.22102
348.72         20.3622
349.17        20.54012
349.62        20.67015
350.07        20.72093
350.52        20.70794
350.97        20.65069
351.42          20.585
351.87          20.528
352.32        20.47441
352.77        20.42959
353.22        20.40334
353.67        20.39791
354.13        20.41096
354.58        20.44687
355.03           20.51
355.48        20.59089
355.93        20.67944
356.38        20.73994
356.83        20.72164
357.28        20.61731
357.73        20.44337
358.18        20.23994
358.63          20.072
359.08        19.95697
359.53        19.87823
359.98        19.81131
360.43        19.71478
360.88        19.57931
361.33        19.42385
361.78        19.26471
362.23        19.12432
362.68        19.01215
363.13         18.9222
363.58         18.8517
364.03         18.7968
364.48        18.75272
364.93        18.71617
365.38        18.68549
365.83        18.65923
366.28         18.6323
366.73        18.59983
367.18        18.54806
367.63        18.45717
368.08        18.32599
368.53        18.16505
368.98        17.99355
369.43        17.84185
369.88        17.72226
370.33        17.63018
370.78        17.56213
371.23        17.51019
371.68        17.46764
372.13        17.43243
372.58        17.39703
373.03        17.35035
373.48        17.28459
373.93        17.19567
374.38        17.08121
374.83        16.94139
375.28        16.78547
375.72        16.62059
376.17        16.46783
376.62        16.32135
377.07        16.18322
377.52        16.04883
377.97        15.95034
378.42        15.93917
378.87        16.01677
379.32        16.16354
379.77        16.30217
380.22        16.32043
380.67        16.19736
381.11        15.95841
381.56        15.69518
382.01        15.55857
382.46        15.58634
382.91        15.73883
383.36        15.90908
383.81        15.93343
384.26        15.78145
384.71        15.50378
385.15        15.21386
385.60        15.11216
386.05         15.2223
386.50        15.47263
386.95        15.72908
387.40         15.7851
387.85        15.60548
388.29        15.26575
388.74        14.90589
389.19        14.66269
389.64        14.56831
390.09        14.56718
390.54        14.62321
390.98         14.6767
391.43        14.70593
391.88        14.73353
392.33        14.73758
392.78         14.6983
393.23        14.62002
393.67        14.46878
394.12         14.3052
394.57        14.31448
395.02         14.2983
395.47        14.40327
395.91        14.50831
396.36        14.50221
396.81        14.36945
397.26        14.15238
397.71        13.92854
398.15         13.8037
398.60         13.8157
399.05        13.89253
399.50        13.97642
399.95        14.04759
400.39        14.01375
400.84         13.8956
401.29        13.71401
401.74         13.5923
402.18        13.55902
402.63        13.55244
403.08        13.56219
403.53        13.58349
403.97        13.60553
404.42        13.63285
404.87        13.64247
405.32        13.59468
405.76        13.48287
406.21        13.32526
406.66        13.16491
407.11        13.07323
407.55        13.07127
408.00         13.1403
408.45        13.23456
408.90        13.26722
409.34        13.21286
409.79        13.09454
410.24         12.9775
410.68        12.96127
411.13        13.06398
411.58          13.252
412.03        13.43931
412.47        13.48294
412.92        13.34263
413.37        13.08098
413.81        12.79297
414.26        12.63914
414.71        12.64233
415.15        12.75829
415.60        12.91471
416.05         13.0073
416.49        13.00036
416.94         12.9308
417.39        12.82624
417.83        12.72652
418.28        12.65327
418.73         12.5861
419.17         12.5347
419.62        12.51837
420.07        12.53565
420.51         12.5826
420.96         12.6329
421.41        12.63556
421.85        12.57858
422.30        12.49137
422.74        12.39469
423.19        12.34141
423.64        12.33659
424.08        12.37027
424.53        12.41846
424.98        12.46445
425.42        12.49899
425.87        12.51544
426.31         12.5072
426.76        12.48497
427.21        12.40902
427.65        12.30507
428.10        12.18396
428.54        12.04486
428.99        11.91247
429.44        11.87071
429.88        11.89102
430.33        11.77828
430.77        11.60801
431.22        11.75196
431.66        12.16081
432.11        12.36549
432.56        12.29215
433.00        12.22338
433.45        12.16272
433.89        11.85875
434.34        11.47187
434.78        11.44459
435.23        11.71575
435.67        11.82131
436.12        11.73205
436.57         11.7141
437.01        11.77361
437.46        11.79625
437.90        11.77748
438.35        11.74478
438.79        11.70718
439.24        11.65936
439.68        11.62262
440.13        11.63968
440.57        11.68116
441.02        11.70455
441.46        11.70057
441.91        11.60188
442.35        11.45195
442.80        11.55737
443.24        11.80979
443.69        11.64617
444.13        11.15575
444.58        10.94183
445.02        11.01578
445.47        11.07542
445.91        11.08013
446.36        11.10951
446.80         11.1471
447.24        11.17883
447.69        11.20495
448.13        11.22794
448.58        11.24926
449.02        11.26374
449.47        11.28457
449.91        11.32821
450.36         11.3953
450.80        11.47896
451.25        11.55217
451.69         11.5714
452.13        11.52788
452.58        11.44333
453.02        11.34484
453.47        11.27616
453.91        11.24741
454.36         11.2795
454.80        11.30197
455.24        11.33041
455.69        11.34182
456.13        11.34135
456.58        11.34033
457.02        11.34388
457.46        11.35699
457.91        11.37454
458.35        11.38695
458.79        11.38485
459.24          11.376
459.68         11.3695
460.13        11.37989
460.57        11.37454
461.01         11.4434
461.46        11.46507
461.90        11.47687
462.34        11.60108
462.79        11.78059
463.23        11.76707
463.68        11.58596
464.12        11.49491
464.56        11.50924
465.01        11.50712
465.45        11.47358
465.89        11.43786
466.34        11.41858
466.78        11.46074
467.22        11.57678
467.67        11.59955
468.11        11.52867
468.55        11.42807
468.99        11.33479
469.44        11.27604
469.88        11.26373
470.32        11.29522
470.77        11.34753
471.21        11.39659
471.65        11.42642
472.10        11.44899
472.54        11.46965
472.98        11.51093
473.42        11.57461
473.87        11.64848
474.31        11.71271
474.75        11.73962
475.20         11.7289
475.64        11.68792
476.08        11.63796
476.52        11.60929
476.97        11.61011
477.41        11.62838
477.85        11.66031
478.29        11.69682
478.74         11.7367
479.18         11.7781
479.62        11.80674
480.06        11.83062
480.50        11.85414
480.95        11.76531
481.39        11.77144
481.83        11.80515
482.27        11.93891
482.72        12.05923
483.16        12.27389
483.60        12.37349
484.04        12.38775
484.48        12.28075
484.93        12.15554
485.37        12.28692
485.81        12.53912
486.25        12.75065
486.69        12.12846
487.14        12.25167
487.58        12.74187
488.02        12.78564
488.46        12.86587
488.90        12.94427
489.34        12.48781
489.79        12.49432
490.23        12.72417
490.67        13.00358
491.11         13.2197
491.55        13.19783
491.99        13.01574
492.43        13.03642
492.88        13.28066
493.32        13.50231
493.76        13.64578
494.20        13.76613
494.64        13.85594
495.08        13.89612
495.52        13.90787
495.96        13.96534
496.41        14.08714
496.85        14.17044
497.29        14.21612
497.73        14.48346
498.17        14.73462
498.61         14.7536
499.05        14.53961
499.49        14.47443
499.93        14.59812
500.37        14.76351
500.82        14.92145
501.26        15.02997
501.70        15.07202
502.14        15.08403
502.58         15.1075
503.02        15.18782
503.46        15.33647
503.90        15.53869
504.34        15.74846
504.78        15.88854
505.22         15.9375
505.66         15.9144
506.10        15.85589
506.54        15.83972
506.98         15.8883
507.42        15.94902
507.86        15.98252
508.30        16.10658
508.74        16.01752
509.18        15.97333
509.62        15.92383
510.06        15.93245
510.50        16.00997
510.94        16.14015
511.38        16.28926
511.82        16.39349
512.26        16.43434
512.70        16.42836
513.14        16.40448
513.58         16.4084
514.02        16.45258
514.46        16.52299
514.90        16.59657
515.34        16.63683
515.78        16.63504
516.22        16.60431
516.66         16.5691
517.10        16.56617
517.54        16.60193
517.98        16.66105
518.42        16.71834
518.86        16.73421
519.30        16.69942
519.74        16.63014
520.18        16.54486
520.62        16.47025
521.06        16.41786
521.50        16.38314
521.93        16.36787
522.37        16.36938
522.81         16.3865
523.25        16.41746
523.69        16.45721
524.13        16.49785
524.57          16.533
525.01        16.55816
525.45        16.56518
525.89        16.54385
526.32        16.49161
526.76        16.41833
527.20        16.33106
527.64        16.24157
528.08         16.1565
528.52        16.07626
528.96        16.00854
529.40        15.96365
529.83        15.94137
530.27        15.94043
530.71        15.94641
531.15        15.93798
531.59        15.90846
532.03        15.86112
532.46        15.80435
532.90        15.75768
533.34        15.72575
533.78        15.70617
534.22        15.68915
534.66        15.65922
535.09        15.61346
535.53        15.56306
535.97        15.52334
536.41          15.523
536.85        15.56489
537.28        15.63614
537.72        15.71215
538.16        15.75758
538.60        15.76347
539.04        15.74514
539.47        15.70968
539.91        15.68501
540.35        15.67653
540.79        15.68179
541.22        15.71073
541.66        15.78199
542.10        15.89334
542.54        16.03895
542.97        16.19696
543.41        16.33248
543.85        16.43639
544.29         16.5191
544.72        16.58509
545.16        16.65644
545.60        16.73861
546.04         16.8202
546.47        16.90862
546.91        17.04175
547.35        17.20856
547.79        17.34962
548.22        17.45656
548.66        17.60855
549.10        17.81024
549.53        17.96344
549.97        18.03604
550.41        18.34831
550.84        18.34762
551.28         18.4515
551.72        18.50186
552.15        18.67082
552.59        18.72904
553.03        18.85891
553.46        18.98568
553.90        19.09604
554.34        19.18266
554.77        19.27177
555.21        19.36454
555.65        19.40896
556.08        19.42347
556.52         19.5012
556.96        19.63404
557.39        19.76346
557.83        19.87926
558.27        19.96974
558.70        20.04576
559.14        20.14912
559.57        20.26237
560.01        20.35605
560.45        20.41929
560.88        20.37835
561.32        20.36581
561.75        20.39235
562.19        20.48385
562.63        20.53536
563.06        20.54216
563.50        20.57238
563.93        20.63048
564.37        20.71359
564.80        20.81461
565.24        20.93458
565.68        21.05211
566.11        21.14853
566.55        21.21953
566.98        21.24272
567.42         21.2616
567.85        21.30303
568.29         21.3806
568.72        21.54455
569.16        21.81692
569.60        21.77489
570.03        22.08496
570.47        22.24352
570.90         22.4255
571.34        22.53171
571.77        22.71379
572.21        22.81953
572.64        22.87979
573.08        23.00776
573.51        23.24409
573.95        23.16372
574.38        23.38878
574.82        23.44593
