SpectraSmart Spectrum 2.9.0.0
--------- Device Information -----------
Spectrum Name :  反射率_0
Saving Time :  2024/04/30 00:42:25
Spectro-Module Model Name : SE2030-DUVN
Spectro-Module Serial Number : OS361AC55029948
Wavelength Start : 200
Wavelength End : 1025
Wavelength Unit : Wavelength(nm)
Spectrum Unit : Reflectance(%)
-----------Spectrum Setting ------------
Integration Time : 20ms
Average : 10
Boxcar : 0
Background removal :  enabled
linearity correction :  enabled
SC :  disabled
Intensity correction :  disabled
DWT denoise :  enabled
savitzky-golay :  disabled
FFT :  disabled
Running average :  disabled
Kalman :  disabled
High pass :  disabled
---------------BEGIN--------------------
Wavelength(nm)             Reflectance(%)
200.29               0
200.75        28.96228
201.21        22.44186
201.67        13.18919
202.13        4.681938
202.58       -1.456452
203.04       -5.649607
203.50       -7.434443
203.96       -5.533555
204.42       -0.224633
204.88        7.547731
205.34        15.53728
205.80        19.75968
206.26        19.95539
206.72        18.66525
207.18        15.71279
207.64        10.40597
208.10        2.937743
208.55        -7.21662
209.01       -16.34489
209.47       -15.60246
209.93        -4.71229
210.39        11.04186
210.85        24.32304
211.31         29.4501
211.77        26.39267
212.23        15.11542
212.69       -1.926198
213.14       -9.608562
213.60      -0.3621708
214.06        17.01966
214.52        31.80385
214.98        37.27118
215.44        34.69884
215.90        26.87518
216.36        17.33335
216.81        12.63013
217.27        16.21692
217.73        27.61229
218.19        44.80779
218.65        56.24115
219.11        54.27071
219.57        43.92207
220.02        33.18854
220.48        27.07503
220.94        24.69016
221.40        24.00956
221.86        23.17135
222.32        18.92649
222.77        12.51053
223.23        7.769478
223.69         5.17255
224.15        4.267585
224.61        4.631488
225.06         5.61773
225.52        8.469213
225.98        14.13826
226.44        20.86728
226.90        27.02809
227.36        30.94477
227.81        31.76982
228.27        30.04907
228.73        26.18872
229.19        21.74488
229.65        20.16455
230.10        22.08075
230.56        25.65909
231.02        28.88457
231.48        29.99453
231.93        29.00878
232.39        26.72742
232.85          23.978
233.31        22.30957
233.77        22.29743
234.22        23.54251
234.68        25.41569
235.14        26.71984
235.60        27.07398
236.05        26.89873
236.51        26.81317
236.97        27.64961
237.43        29.71292
237.88        33.01686
238.34        37.28567
238.80        41.36708
239.26        43.94341
239.71         45.0526
240.17        44.80517
240.63        43.93868
241.08        42.68072
241.54        40.29634
242.00        36.98371
242.46        35.61412
242.91        39.36195
243.37        47.67657
243.83        56.05832
244.28        60.13395
244.74         59.5479
245.20        54.77163
245.66        47.35631
246.11        41.81489
246.57        40.91059
247.03         43.6028
247.48        48.31225
247.94        50.44489
248.40        49.24785
248.85          47.132
249.31        45.61625
249.77        44.91428
250.22        44.89319
250.68         44.9411
251.14        45.77895
251.59        48.91417
252.05        52.91354
252.51        56.07418
252.96        56.92443
253.42          55.521
253.88        52.24519
254.33        47.21379
254.79        42.64686
255.25         42.3299
255.70        45.81011
256.16        50.50478
256.62        54.16683
257.07        55.49349
257.53        55.22518
257.99        53.98177
258.44        52.21921
258.90        51.18867
259.35        50.74489
259.81         50.7642
260.27         50.8174
260.72        50.60945
261.18        50.27109
261.63        49.66623
262.09        49.05366
262.55        48.45533
263.00        47.83229
263.46        47.33858
263.91        46.65869
264.37        45.67915
264.83        44.35443
265.28         42.7238
265.74        41.24204
266.19         40.3896
266.65        40.28457
267.11        40.69035
267.56        41.13244
268.02        40.93328
268.47         39.9472
268.93        38.38367
269.38        36.63208
269.84        35.48592
270.30         35.1318
270.75        35.30854
271.21        35.58376
271.66        35.31401
272.12        34.37325
272.57        32.97175
273.03        31.46235
273.48        30.30996
273.94        29.70131
274.39        29.43217
274.85        29.32311
275.31         29.0707
275.76        28.58442
276.22        27.98335
276.67        27.36392
277.13        26.93468
277.58        26.67778
278.04        26.54679
278.49        26.35161
278.95        25.91261
279.40        25.18715
279.86        24.33855
280.31         23.5111
280.77        23.02147
281.22        22.88082
281.68        22.98415
282.13        23.19389
282.59        23.35932
283.04        23.40691
283.50        23.38151
283.95        23.23979
284.41        22.92184
284.86         22.4463
285.32        21.88714
285.77        21.33338
286.22        20.97741
286.68        20.86526
287.13        20.91032
287.59        21.08246
288.04        21.27436
288.50        21.44955
288.95        21.59623
289.41        21.69043
289.86        21.66544
290.32        21.54345
290.77        21.34921
291.22        21.13307
291.68         20.9761
292.13        20.90737
292.59        20.93519
293.04        21.11626
293.50        21.55058
293.95        22.23009
294.40        23.11683
294.86        24.05545
295.31        24.81661
295.77        25.33443
296.22         25.6543
296.68        25.90704
297.13        26.28473
297.58        26.84528
298.04        27.50163
298.49        28.15956
298.95        28.66831
299.40        28.99195
299.85        29.19237
300.31        29.34734
300.76        29.51464
301.21        29.74373
301.67        30.01734
302.12        30.29066
302.58        30.63644
303.03        31.04236
303.48        31.36306
303.94        31.56187
304.39        32.29639
304.84        32.35834
305.30        32.70186
305.75        32.95368
306.20        33.15967
306.66        33.32315
307.11        33.44047
307.57         33.5164
308.02        33.48275
308.47        33.35654
308.93        33.16713
309.38        32.97102
309.83        32.90429
310.29         32.9859
310.74        33.16776
311.19        33.34375
311.65        33.34115
312.10         33.1231
312.55        32.75033
313.00        32.33465
313.46        32.05054
313.91        31.92989
314.36        31.91916
314.82        31.93829
315.27        31.87973
315.72        31.69812
316.18        31.43947
316.63        31.12635
317.08        30.80095
317.53        30.49205
317.99        30.20173
318.44        29.93206
318.89        29.69443
319.35        29.48846
319.80        29.30195
320.25        29.16462
320.70        29.12171
321.16        29.15407
321.61        29.25459
322.06        29.30098
322.51        29.10346
322.97        28.63322
323.42        27.96461
323.87         27.2583
324.32        26.77055
324.78        26.55847
325.23        26.56378
325.68        26.67012
326.13        26.67679
326.59        26.50981
327.04        26.23725
327.49        25.91104
327.94        25.62631
328.39        25.40837
328.85        25.20411
329.30        24.99874
329.75          24.741
330.20          24.426
330.66        24.08786
331.11        23.75821
331.56        23.45333
332.01        23.18306
332.46        22.93601
332.92        22.72476
333.37         22.5983
333.82        22.55053
334.27        22.56503
334.72        22.57874
335.17        22.48705
335.63        22.26524
336.08        21.95261
336.53        21.60155
336.98        21.31843
337.43        21.14207
337.88        21.04151
338.34        21.00105
338.79        21.01348
339.24        21.05436
339.69        21.13163
340.14        21.19552
340.59        21.16328
341.05        21.02036
341.50        20.77976
341.95        20.51539
342.40        20.35405
342.85        20.32091
343.30         20.3788
343.75        20.44114
344.20         20.3684
344.66        20.14118
345.11        19.80309
345.56        19.44291
346.01          19.197
346.46        19.10533
346.91        19.12415
347.36        19.19605
347.81        19.23701
348.26         19.2174
348.72        19.15541
349.17        19.07138
349.62        19.00236
350.07        18.95734
350.52        18.92159
350.97        18.86592
351.42        18.74715
351.87        18.56765
352.32        18.35876
352.77        18.16885
353.22        18.07156
353.67        18.08471
354.13        18.17598
354.58        18.32147
355.03        18.48443
355.48        18.63447
355.93        18.76904
356.38        18.84531
356.83        18.80242
357.28        18.63844
357.73        18.37696
358.18        18.07841
358.63        17.84184
359.08        17.69454
359.53        17.61094
359.98        17.56461
360.43         17.5069
360.88        17.42177
361.33        17.33124
361.78        17.22846
362.23        17.10004
362.68        16.94999
363.13        16.77794
363.58        16.61971
364.03        16.53559
364.48        16.53235
364.93        16.58854
365.38        16.65307
365.83        16.64312
366.28         16.5384
366.73        16.36456
367.18        16.16022
367.63        15.98749
368.08        15.86456
368.53        15.77174
368.98         15.6938
369.43        15.60585
369.88        15.50008
370.33        15.39023
370.78        15.27704
371.23         15.1588
371.68         15.0377
372.13        14.91025
372.58         14.7891
373.03        14.69672
373.48        14.63333
373.93         14.5896
374.38        14.54289
374.83        14.45587
375.28        14.32484
375.72        14.16421
376.17        14.00712
376.62        13.87101
377.07        13.76248
377.52        13.66947
377.97        13.60771
378.42        13.60298
378.87         13.6533
379.32        13.75022
379.77        13.84098
380.22        13.84828
380.67        13.75742
381.11        13.58228
381.56        13.39138
382.01        13.29644
382.46        13.32454
382.91        13.44838
383.36        13.57963
383.81        13.58312
384.26        13.43568
384.71        13.17759
385.15        12.91132
385.60        12.82057
386.05        12.92377
386.50        13.15448
386.95        13.38647
387.40        13.42343
387.85        13.23574
388.29        12.90311
388.74         12.5541
389.19        12.31456
389.64        12.21798
390.09        12.21266
390.54         12.2865
390.98         12.4175
391.43        12.57945
391.88        12.77086
392.33        12.92727
392.78        12.97135
393.23        12.89948
393.67        12.70285
394.12         12.4698
394.57        12.41278
395.02        12.37386
395.47        12.46761
395.91        12.57356
396.36        12.56769
396.81        12.42954
397.26        12.20698
397.71        11.98175
398.15        11.86368
398.60         11.8882
399.05        11.98481
399.50        12.08689
399.95        12.15457
400.39        12.10481
400.84        11.96314
401.29        11.76697
401.74        11.65674
402.18         11.6649
402.63        11.72442
403.08        11.80496
403.53        11.87058
403.97        11.90341
404.42        11.91794
404.87        11.90105
405.32        11.82945
405.76        11.70381
406.21        11.53663
406.66         11.3725
407.11        11.28619
407.55        11.29542
408.00        11.37866
408.45        11.48309
408.90        11.50826
409.34        11.42721
409.79        11.27433
410.24        11.11324
410.68        11.03944
411.13        11.07632
411.58        11.19174
412.03        11.33289
412.47        11.41289
412.92        11.39445
413.37        11.31054
413.81        11.19885
414.26        11.13747
414.71        11.13259
415.15        11.16455
415.60        11.19271
416.05        11.16878
416.49        11.08284
416.94        10.96199
417.39        10.83474
417.83        10.74043
418.28        10.69695
418.73        10.68572
419.17        10.70776
419.62        10.76424
420.07        10.84491
420.51        10.94463
420.96         11.0294
421.41        11.04123
421.85        10.97055
422.30        10.84989
422.74        10.71574
423.19        10.64157
423.64         10.6381
424.08        10.69024
424.53         10.7669
424.98        10.83502
425.42          10.878
425.87        10.89369
426.31        10.87839
426.76        10.84503
427.21        10.76199
427.65        10.65306
428.10        10.52602
428.54        10.37882
428.99        10.23495
429.44        10.16479
429.88        10.15878
430.33         10.0728
430.77        9.970666
431.22        10.16578
431.66        10.58767
432.11        10.77416
432.56        10.64816
433.00        10.46586
433.45        10.28279
433.89        9.984089
434.34        9.728144
434.78        9.855756
435.23        10.25308
435.67         10.4144
436.12        10.29026
436.57        10.14783
437.01         10.0545
437.46        10.01696
437.90        10.05612
438.35        10.15576
438.79        10.26387
439.24        10.28155
439.68        10.20672
440.13        10.11639
440.57        10.02169
441.02        9.947287
441.46        9.908663
441.91        9.824577
442.35        9.731905
442.80        9.895754
443.24        10.22033
443.69        10.21762
444.13        9.913489
444.58        9.773049
445.02        9.798285
445.47        9.737971
445.91        9.605742
446.36        9.550553
446.80        9.578003
447.24        9.656058
447.69         9.75001
448.13        9.806403
448.58        9.811902
449.02        9.780798
449.47        9.751221
449.91        9.777739
450.36        9.868924
450.80        10.00243
451.25        10.12762
451.69        10.16769
452.13        10.10555
452.58        9.973783
453.02        9.820074
453.47        9.720197
453.91        9.692704
454.36        9.744555
454.80        9.794878
455.24        9.825355
455.69        9.808825
456.13        9.760773
456.58        9.710202
457.02        9.689737
457.46        9.709262
457.91        9.753043
458.35        9.795259
458.79        9.801266
459.24        9.773241
459.68        9.728993
460.13        9.696276
460.57        9.669126
461.01        9.730817
461.46        9.770198
461.90        9.810021
462.34         9.93995
462.79        10.10607
463.23        10.09853
463.68        9.943116
464.12        9.868453
464.56          9.8878
465.01        9.892068
465.45        9.862432
465.89        9.815849
466.34        9.769084
466.78        9.767667
467.22        9.826535
467.67        9.812487
468.11        9.729976
468.55         9.62833
468.99        9.547918
469.44        9.525119
469.88        9.567569
470.32        9.668995
470.77        9.779669
471.21         9.83171
471.65         9.80407
472.10        9.724796
472.54         9.63809
472.98        9.626962
473.42        9.706573
473.87        9.843986
474.31        9.993276
474.75        10.08354
475.20        10.10033
475.64        10.06585
476.08        10.00676
476.52        9.961478
476.97        9.944137
477.41        9.939282
477.85        9.952293
478.29        9.990905
478.74        10.05524
479.18        10.14039
479.62        10.22055
480.06        10.27908
480.50        10.31555
480.95        10.24186
481.39        10.24438
481.83        10.27542
482.27        10.39928
482.72        10.51104
483.16        10.71384
483.60         10.8157
484.04        10.82712
484.48        10.80626
484.93        10.82194
485.37        10.85332
485.81        10.82636
486.25         11.3032
486.69        10.70445
487.14          10.953
487.58        11.54947
488.02        11.46741
488.46        11.46091
488.90        11.89853
489.34        11.40282
489.79        11.46218
490.23        11.57108
490.67        11.80873
491.11        12.06654
491.55         12.0713
491.99        11.90156
492.43        11.94299
492.88        12.21626
493.32        12.46878
493.76        12.64812
494.20        12.81217
494.64        12.95196
495.08        13.04747
495.52        13.10642
495.96        13.17968
496.41        13.28206
496.85        13.32259
497.29        13.32377
497.73        13.56079
498.17        13.81917
498.61        13.88931
499.05        13.74564
499.49        13.71345
499.93        13.82075
500.37        13.92875
500.82        14.02288
501.26        14.12376
501.70        14.22534
502.14        14.33924
502.58        14.46706
503.02        14.59581
503.46        14.72259
503.90        14.85015
504.34        14.97166
504.78        15.07458
505.22        15.15527
505.66        15.21438
506.10        15.25183
506.54        15.28667
506.98        15.32679
507.42        15.33887
507.86        15.31837
508.30        15.43013
508.74        15.39506
509.18        15.44193
509.62        15.48853
510.06        15.54445
510.50        15.60694
510.94         15.6752
511.38        15.74732
511.82        15.81183
512.26        15.86485
512.70        15.90838
513.14        15.93941
513.58        15.95455
514.02        15.95627
514.46        15.94678
514.90        15.93803
515.34        15.95009
515.78        15.98584
516.22        16.03724
516.66        16.09078
517.10        16.12438
517.54        16.13125
517.98        16.11819
518.42        16.08765
518.86        16.04458
519.30        15.99415
519.74        15.93622
520.18         15.8818
520.62        15.84683
521.06        15.83511
521.50         15.8461
521.93        15.86754
522.37        15.87248
522.81        15.85633
523.25        15.82358
523.69        15.79087
524.13        15.78557
524.57        15.80921
525.01        15.84745
525.45        15.87596
525.89         15.8571
526.32        15.78072
526.76        15.66641
527.20        15.53141
527.64        15.40148
528.08        15.28859
528.52        15.18978
528.96        15.10891
529.40        15.05145
529.83        15.01521
530.27        14.99844
530.71        14.99324
531.15        14.98773
531.59         14.9748
532.03        14.95422
532.46        14.91675
532.90        14.85438
533.34        14.76972
533.78         14.6717
534.22        14.57655
534.66        14.50839
535.09        14.47187
535.53        14.46386
535.97        14.47884
536.41        14.51137
536.85        14.55363
537.28        14.60383
537.72        14.64537
538.16        14.65579
538.60        14.63316
539.04        14.58992
539.47        14.53754
539.91        14.51024
540.35        14.51436
540.79         14.5462
541.22        14.61095
541.66        14.71809
542.10        14.86082
542.54        15.03286
542.97        15.21206
543.41        15.36369
543.85        15.47979
544.29        15.57196
544.72         15.6443
545.16        15.71832
545.60        15.80107
546.04        15.88202
546.47        15.97667
546.91        16.13376
547.35        16.34262
547.79        16.54051
548.22        16.70339
548.66        16.88317
549.10         17.0808
549.53        17.21079
549.97        17.25494
550.41        17.54049
550.84        17.54572
551.28        17.66254
551.72        17.73834
552.15        17.93541
552.59        18.03078
553.03        18.20239
553.46        18.36784
553.90        18.49739
554.34        18.58226
554.77        18.65125
555.21        18.72506
555.65        18.78533
556.08        18.85495
556.52        19.01408
556.96        19.22975
557.39        19.40591
557.83        19.52463
558.27        19.58635
558.70        19.62712
559.14        19.72849
559.57        19.88243
560.01        20.04573
560.45        20.18356
560.88        20.18748
561.32        20.18131
561.75        20.18806
562.19        20.25171
562.63        20.29664
563.06        20.32499
563.50         20.3941
563.93        20.49403
564.37        20.59997
564.80        20.70029
565.24        20.80545
565.68        20.90561
566.11        20.99883
566.55        21.08517
566.98        21.13601
567.42        21.18956
567.85        21.26045
568.29         21.3478
568.72        21.53136
569.16        21.84125
569.60        21.77141
570.03         21.9746
570.47        22.32425
570.90        22.35069
571.34        22.46158
571.77        22.61881
572.21        22.68161
572.64        22.69173
573.08        22.84485
573.51        23.18826
573.95        23.16397
574.38        23.41853
574.82         23.6543
