SpectraSmart Spectrum 2.9.0.0
--------- Device Information -----------
Spectrum Name :  反射率_0
Saving Time :  2024/04/30 00:58:42
Spectro-Module Model Name : SE2030-DUVN
Spectro-Module Serial Number : OS361AC55029948
Wavelength Start : 200
Wavelength End : 1025
Wavelength Unit : Wavelength(nm)
Spectrum Unit : Reflectance(%)
-----------Spectrum Setting ------------
Integration Time : 20ms
Average : 10
Boxcar : 0
Background removal :  enabled
linearity correction :  enabled
SC :  disabled
Intensity correction :  disabled
DWT denoise :  enabled
savitzky-golay :  disabled
FFT :  disabled
Running average :  disabled
Kalman :  disabled
High pass :  disabled
---------------BEGIN--------------------
Wavelength(nm)             Reflectance(%)
200.29               0
200.75        50.35378
201.21        42.57769
201.67        34.34229
202.13        27.34394
202.58        22.61976
203.04        20.09898
203.50        21.41114
203.96        29.68763
204.42        44.61235
204.88        63.61746
205.34        79.01162
205.80        80.77415
206.26         71.0909
206.72        57.48537
207.18        44.93974
207.64        35.79563
208.10        29.25924
208.55        23.55452
209.01        19.53222
209.47        20.22563
209.93        25.29827
210.39        32.76532
210.85        39.12685
211.31        41.60314
211.77        40.16746
212.23        34.61081
212.69        26.10684
213.14        22.45781
213.60        27.06284
214.06        35.69985
214.52         43.0373
214.98        45.64322
215.44        44.29915
215.90         40.6961
216.36        36.64083
216.81        35.52022
217.27        39.31211
217.73        47.66589
218.19        60.77584
218.65        73.95416
219.11        81.07484
219.57        81.94719
220.02        78.92628
220.48        74.83459
220.94        69.51232
221.40        61.63196
221.86        51.12736
222.32        42.60501
222.77        39.91111
223.23        41.73253
223.69        44.59195
224.15         46.2002
224.61        46.62976
225.06        46.50075
225.52        46.74414
225.98        48.46936
226.44        51.32662
226.90        54.19174
227.36        56.33152
227.81        57.52236
228.27        58.05805
228.73        58.02843
229.19        57.81592
229.65        58.05033
230.10        58.69632
230.56        59.57435
231.02        60.01598
231.48        59.42265
231.93        57.75775
232.39        55.28368
232.85        52.62109
233.31        51.07121
233.77        51.05108
234.22         52.3727
234.68         54.0015
235.14        54.06842
235.60        52.20258
236.05        49.12379
236.51        46.29301
236.97        45.53521
237.43        47.29863
237.88        51.52136
238.34        57.42379
238.80         62.3686
239.26        64.12065
239.71        63.08285
240.17         60.3402
240.63         57.8077
241.08        56.00438
241.54        54.13081
242.00        52.22937
242.46        51.52586
242.91        53.61987
243.37        58.15586
243.83        63.74207
244.28        69.34193
244.74        74.86382
245.20        80.33846
245.66        84.15252
246.11        82.68151
246.57        74.61121
247.03        61.36449
247.48         45.8437
247.94        36.10364
248.40        35.19128
248.85        38.82534
249.31        44.32708
249.77        50.59461
250.22         58.6034
250.68         71.1758
251.14        88.04332
251.59        95.59897
252.05        85.84563
252.51        70.03131
252.96        58.17313
253.42        53.41026
253.88        53.30429
254.33        55.74946
254.79        59.38217
255.25        60.71296
255.70        59.14705
256.16        57.09716
256.62        55.38771
257.07        54.35239
257.53        54.20898
257.99        54.44587
258.44        54.80267
258.90        55.57782
259.35        56.18648
259.81        56.76734
260.27        57.12178
260.72        57.14861
261.18        57.05256
261.63        56.64498
262.09        56.00806
262.55        54.92397
263.00        53.46407
263.46        52.00303
263.91         50.5881
264.37        49.54594
264.83        48.79845
265.28        48.19401
265.74         47.8218
266.19        47.58026
266.65        47.49302
267.11        47.52133
267.56        47.52034
268.02        47.30036
268.47        46.79613
268.93        46.04012
269.38        45.16647
269.84        44.53099
270.30        44.19351
270.75        44.06264
271.21        43.89635
271.66        43.29442
272.12        42.21789
272.57        40.79042
273.03        39.34911
273.48         38.3326
273.94        37.89721
274.39        37.82659
274.85        37.90129
275.31        37.73006
275.76        37.20806
276.22        36.49947
276.67        35.70879
277.13        35.08983
277.58        34.64025
278.04        34.32082
278.49        33.98341
278.95        33.53202
279.40        32.90895
279.86        32.24995
280.31        31.60486
280.77        31.16662
281.22        30.91676
281.68        30.81145
282.13          30.765
282.59        30.72498
283.04        30.62929
283.50        30.49278
283.95         30.2588
284.41        29.86412
284.86        29.31166
285.32        28.69178
285.77        28.04814
286.22        27.51747
286.68        27.14429
287.13         26.8538
287.59         26.6892
288.04        26.64967
288.50        26.72388
288.95        26.86573
289.41         26.9735
289.86        26.85179
290.32        26.50352
290.77        25.98955
291.22        25.44788
291.68        25.10232
292.13        25.00558
292.59        25.11033
293.04        25.37896
293.50        25.77932
293.95        26.27335
294.40        26.87839
294.86          27.496
295.31        27.98592
295.77        28.31747
296.22        28.50797
296.68        28.68656
297.13        29.04263
297.58        29.62059
298.04         30.3315
298.49        31.04652
298.95        31.55926
299.40         31.8215
299.85        31.91176
300.31        31.93064
300.76         31.9746
301.21        32.10643
301.67        32.29432
302.12        32.50208
302.58        32.81561
303.03        33.21765
303.48        33.57067
303.94        33.80093
304.39        34.47914
304.84        34.43432
305.30        34.61546
305.75        34.72246
306.20         34.8999
306.66        35.16486
307.11        35.46702
307.57        35.75293
308.02        35.86756
308.47        35.80556
308.93        35.62558
309.38        35.39759
309.83        35.28012
310.29         35.3104
310.74        35.43784
311.19         35.5791
311.65        35.59826
312.10        35.46125
312.55        35.21521
313.00        34.95176
313.46        34.81036
313.91        34.80758
314.36        34.89786
314.82        34.98799
315.27        34.95195
315.72        34.74842
316.18        34.43214
316.63        34.06327
317.08        33.74611
317.53        33.52164
317.99        33.37184
318.44        33.26919
318.89        33.17396
319.35        33.07126
319.80         32.9706
320.25        32.90169
320.70        32.91065
321.16        32.98458
321.61        33.11037
322.06        33.20413
322.51         33.1432
322.97        32.90268
323.42        32.53276
323.87        32.11659
324.32        31.79058
324.78         31.5875
325.23        31.48911
325.68        31.45233
326.13        31.40418
326.59        31.31347
327.04        31.21778
327.49        31.12411
327.94        31.05551
328.39         31.0107
328.85        30.95215
329.30        30.88565
329.75        30.78015
330.20        30.63194
330.66        30.45752
331.11        30.26345
331.56        30.03089
332.01        29.76971
332.46        29.48771
332.92        29.23639
333.37        29.13927
333.82        29.20756
334.27         29.4036
334.72        29.63488
335.17        29.74428
335.63        29.68131
336.08        29.50159
336.53        29.24492
336.98        29.00335
337.43        28.81995
337.88         28.6678
338.34        28.56791
338.79        28.57438
339.24        28.67863
339.69        28.87749
340.14        29.09082
340.59        29.17862
341.05        29.10922
341.50        28.91268
341.95        28.68172
342.40        28.57513
342.85        28.62651
343.30        28.78269
343.75        28.94697
344.20        28.96733
344.66        28.81668
345.11        28.54167
345.56        28.22737
346.01        28.00174
346.46        27.90851
346.91         27.9144
347.36        27.97154
347.81         28.0095
348.26        28.00544
348.72        27.97221
349.17         27.9467
349.62        27.98496
350.07        28.08931
350.52        28.23114
350.97        28.34085
351.42        28.31635
351.87         28.1506
352.32        27.89341
352.77        27.62761
353.22        27.48657
353.67        27.50352
354.13        27.62234
354.58        27.80374
355.03        27.98557
355.48        28.12351
355.93        28.22429
356.38         28.2304
356.83        28.05552
357.28        27.70352
357.73        27.21572
358.18        26.69005
358.63        26.28367
359.08        26.04178
359.53         25.9254
359.98        25.89351
360.43        25.87104
360.88         25.8265
361.33         25.7822
361.78        25.72129
362.23        25.61583
362.68        25.46502
363.13        25.26857
363.58          25.062
364.03        24.91036
364.48        24.82511
364.93        24.78459
365.38        24.75553
365.83        24.68234
366.28        24.55005
366.73        24.38057
367.18        24.18585
367.63        23.98275
368.08        23.78233
368.53        23.58081
368.98        23.39692
369.43        23.26065
369.88        23.17834
370.33        23.14638
370.78        23.13567
371.23        23.09662
371.68        23.01272
372.13        22.88678
372.58         22.7478
373.03        22.64661
373.48        22.58865
373.93        22.55409
374.38        22.49289
374.83        22.32722
375.28         22.0513
375.72        21.69841
376.17        21.35296
376.62        21.09012
377.07        20.92797
377.52        20.83944
377.97        20.80217
378.42        20.77891
378.87        20.75346
379.32        20.73741
379.77        20.71823
380.22        20.67749
380.67        20.60963
381.11        20.50661
381.56        20.39384
382.01        20.31623
382.46        20.28454
382.91        20.29386
383.36         20.2961
383.81        20.21586
384.26        20.04443
384.71        19.80484
385.15        19.56849
385.60        19.47345
386.05        19.52828
386.50        19.68571
386.95        19.84734
387.40         19.8597
387.85          19.698
388.29         19.4125
388.74        19.11642
389.19        18.90199
389.64        18.79239
390.09        18.74536
390.54        18.74501
390.98        18.76416
391.43        18.79147
391.88        18.83544
392.33        18.85672
392.78        18.81546
393.23        18.71424
393.67        18.52209
394.12        18.31219
394.57        18.31391
395.02        18.27315
395.47        18.37365
395.91        18.48237
396.36        18.49582
396.81        18.39788
397.26        18.23359
397.71        18.05305
398.15        17.92036
398.60        17.87775
399.05         17.8585
399.50        17.85493
399.95        17.93828
400.39         18.0063
400.84        18.05511
401.29        18.04136
401.74        17.99818
402.18        17.92551
402.63        17.78447
403.08        17.62831
403.53        17.55345
403.97        17.57526
404.42        17.66811
404.87        17.77348
405.32        17.79465
405.76        17.70511
406.21        17.54262
406.66        17.36714
407.11         17.2742
407.55        17.29311
408.00        17.39521
408.45        17.52083
408.90        17.56136
409.34        17.48769
409.79        17.33208
410.24        17.18503
410.68        17.18211
411.13        17.34828
411.58        17.63975
412.03         17.9411
412.47        18.05721
412.92        17.93068
413.37        17.63948
413.81        17.30753
414.26        17.14413
414.71        17.18066
415.15        17.35843
415.60        17.58106
416.05        17.70604
416.49        17.68828
416.94        17.58003
417.39        17.42874
417.83        17.30341
418.28        17.23546
418.73        17.19525
419.17        17.18705
419.62        17.22254
420.07        17.29528
420.51        17.40402
420.96        17.51674
421.41         17.5696
421.85        17.54627
422.30        17.47993
422.74        17.39947
423.19        17.38078
423.64         17.4296
424.08        17.53023
424.53        17.64091
424.98        17.71858
425.42         17.7483
425.87        17.73194
426.31        17.67563
426.76        17.61602
427.21        17.50778
427.65         17.3816
428.10        17.25596
428.54        17.13958
428.99        17.05739
429.44        17.10846
429.88        17.23337
430.33        17.14538
430.77        16.93523
431.22        17.09767
431.66         17.5885
432.11        17.84618
432.56        17.78337
433.00        17.75087
433.45        17.74721
433.89        17.41278
434.34        16.95862
434.78        17.04145
435.23        17.54084
435.67        17.70664
436.12        17.49443
436.57         17.3203
437.01        17.26613
437.46        17.28706
437.90        17.40086
438.35        17.60806
438.79         17.8306
439.24        17.91727
439.68        17.86374
440.13        17.78216
440.57        17.69422
441.02         17.6323
441.46        17.61661
441.91        17.54419
442.35        17.44074
442.80        17.65302
443.24        18.04247
443.69        17.93497
444.13        17.41966
444.58        17.21409
445.02        17.33115
445.47        17.40343
445.91        17.39088
446.36        17.41373
446.80        17.45757
447.24        17.49686
447.69        17.53969
448.13        17.59713
448.58        17.66961
449.02        17.74776
449.47        17.82237
449.91        17.86946
450.36        17.88688
450.80         17.8817
451.25        17.86017
451.69        17.82791
452.13        17.78928
452.58        17.75232
453.02        17.72224
453.47        17.70511
453.91        17.69678
454.36        17.74545
454.80        17.75483
455.24        17.77496
455.69        17.77823
456.13        17.76411
456.58        17.74362
457.02        17.71797
457.46        17.69505
457.91        17.67559
458.35        17.65454
458.79        17.63322
459.24        17.62361
459.68        17.63459
460.13        17.67561
460.57        17.68027
461.01        17.78242
461.46        17.80346
461.90        17.80357
462.34          17.982
462.79        18.25475
463.23        18.23162
463.68        17.95981
464.12        17.84934
464.56        17.92023
465.01        17.97312
465.45        17.96816
465.89        17.92648
466.34        17.87499
466.78        17.89712
467.22        18.01717
467.67        17.98541
468.11        17.81363
468.55        17.59879
468.99        17.42076
469.44        17.35663
469.88        17.42667
470.32        17.61363
470.77        17.83717
471.21        17.97913
471.65        17.99944
472.10        17.93779
472.54        17.85088
472.98          17.847
473.42         17.9479
473.87        18.11295
474.31        18.28123
474.75        18.36624
475.20         18.3542
475.64        18.27385
476.08        18.17225
476.52        18.11512
476.97        18.12155
477.41        18.16537
477.85        18.23381
478.29        18.30511
478.74        18.37388
479.18         18.4375
479.62        18.48069
480.06        18.52197
480.50        18.57289
480.95        18.46382
481.39        18.50239
481.83        18.54882
482.27        18.70441
482.72        18.79047
483.16        19.02929
483.60        19.14557
484.04        19.18989
484.48        19.19566
484.93        19.20638
485.37        19.19827
485.81        19.11566
486.25        19.27749
486.69        18.88032
487.14        18.93289
487.58        19.47189
488.02        19.64985
488.46        19.91023
488.90        20.34221
489.34        19.82127
489.79        19.98629
490.23        19.92196
490.67        20.13324
491.11        20.37037
491.55        20.38865
491.99         20.2485
492.43         20.3128
492.88         20.5991
493.32         20.8623
493.76        21.05799
494.20        21.25729
494.64        21.45368
495.08        21.61687
495.52        21.73598
495.96        21.85221
496.41        21.97857
496.85        21.98637
497.29        21.91543
497.73        22.20297
498.17        22.50989
498.61        22.53294
499.05         22.2473
499.49        22.17498
499.93        22.35444
500.37        22.55066
500.82         22.7204
501.26        22.87294
501.70         22.9898
502.14        23.08889
502.58        23.18469
503.02        23.28332
503.46        23.39058
503.90        23.50589
504.34        23.62376
504.78         23.7333
505.22        23.83044
505.66        23.91555
506.10        23.98307
506.54        24.05103
506.98        24.12645
507.42        24.15746
507.86        24.13083
508.30        24.29981
508.74        24.22253
509.18        24.25614
509.62        24.28307
510.06        24.33731
510.50        24.41887
510.94        24.52691
511.38        24.63618
511.82        24.69162
512.26          24.684
512.70        24.62941
513.14        24.56863
513.58        24.56497
514.02         24.6333
514.46        24.75598
514.90        24.89466
515.34        24.98601
515.78        25.01185
516.22        24.98873
516.66        24.95121
517.10        24.95422
517.54          25.008
517.98        25.09092
518.42        25.16582
518.86        25.17462
519.30        25.10616
519.74        24.98616
520.18        24.84972
520.62        24.74745
521.06        24.69693
521.50        24.68637
521.93        24.70615
522.37        24.73204
522.81         24.7557
523.25        24.77846
523.69        24.80131
524.13        24.82578
524.57        24.84837
525.01        24.86329
525.45        24.85389
525.89        24.79755
526.32        24.69084
526.76        24.55187
527.20        24.40806
527.64        24.30146
528.08        24.24275
528.52        24.22271
528.96        24.22081
529.40         24.2028
529.83        24.15717
530.27        24.09493
530.71        24.02964
531.15        23.98615
531.59         23.9678
532.03        23.96347
532.46        23.95188
532.90        23.90888
533.34        23.83135
533.78        23.73736
534.22        23.64518
534.66        23.58102
535.09        23.54986
535.53        23.54528
535.97        23.56744
536.41        23.62311
536.85        23.70413
537.28        23.80468
537.72        23.88846
538.16        23.90023
538.60        23.83375
539.04        23.71284
539.47        23.57652
539.91        23.50794
540.35        23.52081
540.79        23.59915
541.22        23.72089
541.66        23.85222
542.10        23.97652
542.54        24.10469
542.97        24.23667
543.41        24.37514
543.85        24.51886
544.29        24.66585
544.72        24.80206
545.16        24.92656
545.60        25.03775
546.04         25.1289
546.47        25.22185
546.91        25.38853
547.35        25.61784
547.79        25.81624
548.22        25.96149
548.66        26.15973
549.10        26.41388
549.53        26.58043
549.97        26.62639
550.41        27.04859
550.84        27.03643
551.28        27.20037
551.72        27.28118
552.15         27.4907
552.59          27.488
553.03        27.55773
553.46        27.62822
553.90        27.73946
554.34        27.89087
554.77        28.09936
555.21        28.32972
555.65        28.44837
556.08        28.46596
556.52        28.53696
556.96        28.66857
557.39        28.80452
557.83        28.93978
558.27        29.04635
558.70        29.13996
559.14        29.28259
559.57        29.44796
560.01        29.59981
560.45        29.71068
560.88        29.65428
561.32        29.62071
561.75        29.62564
562.19        29.72812
562.63        29.81278
563.06        29.87553
563.50        30.00256
563.93        30.15954
564.37        30.27885
564.80         30.3422
565.24        30.37764
565.68        30.40331
566.11        30.46843
566.55        30.58273
566.98        30.68506
567.42        30.80459
567.85        30.92558
568.29        31.04434
568.72        31.26388
569.16        31.61858
569.60         31.4628
570.03        31.76024
570.47        31.95837
570.90        31.98872
571.34        32.10454
571.77         32.2528
572.21        32.39278
572.64        32.51899
573.08        32.62806
573.51          32.741
573.95        32.68034
574.38        33.23124
574.82        32.75505
