SpectraSmart Spectrum 2.9.0.0
--------- Device Information -----------
Spectrum Name :  反射率_0
Saving Time :  2024/04/30 01:01:37
Spectro-Module Model Name : SE2030-DUVN
Spectro-Module Serial Number : OS361AC55029948
Wavelength Start : 200
Wavelength End : 1025
Wavelength Unit : Wavelength(nm)
Spectrum Unit : Reflectance(%)
-----------Spectrum Setting ------------
Integration Time : 20ms
Average : 10
Boxcar : 0
Background removal :  enabled
linearity correction :  enabled
SC :  disabled
Intensity correction :  disabled
DWT denoise :  enabled
savitzky-golay :  disabled
FFT :  disabled
Running average :  disabled
Kalman :  disabled
High pass :  disabled
---------------BEGIN--------------------
Wavelength(nm)             Reflectance(%)
200.29               0
200.75        43.96171
201.21        30.94291
201.67        14.55517
202.13       0.0955531
202.58       -9.810081
203.04         -16.111
203.50       -17.39064
203.96       -11.16687
204.42        2.177483
204.88        21.41273
205.34        39.14048
205.80        44.38207
206.26        38.37265
206.72        28.05687
207.18        18.15837
207.64        11.42818
208.10        7.325699
208.55        3.942342
209.01        2.476248
209.47        5.845011
209.93        13.14042
210.39        22.43691
210.85        29.64507
211.31        31.40839
211.77        27.67391
212.23        17.71544
212.69        3.898087
213.14      -0.3820415
213.60        10.26809
214.06        27.48706
214.52        41.45778
214.98        46.16851
215.44        43.00109
215.90        34.62318
216.36        24.10589
216.81        17.26909
217.27        17.29641
217.73        23.41391
218.19        35.48979
218.65        47.88351
219.11        54.37455
219.57        55.54668
220.02         54.2052
220.48        53.66824
220.94        54.15852
221.40        54.64075
221.86        53.77414
222.32        49.48011
222.77        43.19777
223.23        38.40222
223.69        35.35721
224.15        33.35728
224.61        31.94276
225.06        30.70025
225.52        30.96541
225.98        34.52977
226.44         40.2846
226.90        46.25409
227.36        50.54158
227.81        52.14957
228.27        51.62762
228.73        49.41269
229.19        46.65146
229.65        45.77255
230.10        47.18597
230.56        49.70898
231.02        51.93233
231.48         52.6827
231.93        51.94439
232.39        50.27627
232.85        48.29958
233.31        47.21057
233.77        47.41796
234.22        48.68376
234.68         50.2118
235.14        50.61434
235.60        49.56738
236.05        47.56065
236.51        45.70169
236.97        45.36169
237.43        46.87941
237.88        50.27788
238.34        54.70824
238.80         57.7545
239.26        57.63892
239.71        54.92229
240.17        50.97111
240.63         47.7505
241.08        45.58215
241.54        43.80385
242.00         42.1924
242.46        40.70844
242.91        40.03487
243.37        40.70164
243.83        42.53199
244.28         44.9195
244.74        47.54729
245.20        50.47932
245.66        52.94654
246.11        53.18806
246.57        50.67112
247.03        45.90789
247.48        40.16191
247.94        36.63475
248.40         36.5246
248.85          37.827
249.31        39.94542
249.77        42.58844
250.22        46.08107
250.68        51.61393
251.14        58.43606
251.59        59.25211
252.05        51.80498
252.51        43.02167
252.96        37.18081
253.42        35.15676
253.88        35.76352
254.33        37.98915
254.79        41.98788
255.25        46.36245
255.70        49.50296
256.16         51.7319
256.62        53.01084
257.07        53.44439
257.53        53.64235
257.99        53.56043
258.44        53.16951
258.90        53.08399
259.35        52.98775
259.81        53.02682
260.27        53.07313
260.72        53.07349
261.18        53.14668
261.63        53.05202
262.09         52.7841
262.55        52.02604
263.00        50.81372
263.46         49.5327
263.91        48.22737
264.37        47.20689
264.83        46.41164
265.28        45.69822
265.74        45.19652
266.19        44.88235
266.65        44.78512
267.11        44.84164
267.56        44.86802
268.02        44.60654
268.47         43.9869
268.93        43.07935
269.38        42.03949
269.84          41.262
270.30        40.83145
270.75        40.64245
271.21        40.48879
271.66        40.02792
272.12        39.20935
272.57        38.13348
273.03        37.02935
273.48         36.1704
273.94        35.67802
274.39        35.38856
274.85        35.20367
275.31        34.90842
275.76        34.43386
276.22        33.89661
276.67        33.29857
277.13        32.73567
277.58        32.19495
278.04        31.69606
278.49        31.22103
278.95        30.84869
279.40        30.53544
279.86        30.32839
280.31        30.13614
280.77        29.94182
281.22        29.68838
281.68        29.41015
282.13        29.12818
282.59        28.93266
283.04        28.80276
283.50        28.71025
283.95        28.55665
284.41        28.21495
284.86        27.66975
285.32        27.02782
285.77        26.36889
286.22        25.87188
286.68        25.58407
287.13        25.41733
287.59        25.35216
288.04        25.29807
288.50        25.23683
288.95        25.15892
289.41         25.0584
289.86        24.88355
290.32        24.65543
290.77        24.38446
291.22        24.10557
291.68          23.876
292.13        23.71189
292.59        23.62642
293.04        23.66368
293.50        23.90967
293.95        24.35687
294.40        24.97685
294.86        25.64146
295.31        26.16608
295.77        26.50071
296.22        26.68405
296.68        26.83307
297.13        27.11337
297.58        27.57436
298.04        28.13581
298.49        28.70994
298.95        29.15653
299.40        29.43779
299.85         29.6054
300.31        29.72536
300.76        29.83924
301.21        29.99606
301.67        30.19003
302.12        30.38256
302.58        30.65637
303.03         31.0028
303.48        31.26851
303.94        31.43084
304.39        32.16977
304.84        32.27275
305.30        32.69031
305.75        33.00484
306.20        33.19533
306.66        33.25821
307.11        33.21201
307.57        33.12548
308.02        33.02618
308.47        32.94423
308.93        32.87631
309.38        32.81464
309.83        32.79182
310.29        32.80941
310.74        32.86461
311.19        32.90595
311.65        32.84359
312.10        32.66279
312.55        32.38858
313.00        32.11843
313.46        32.00718
313.91         32.0676
314.36        32.24975
314.82         32.4327
315.27        32.44128
315.72        32.22283
316.18        31.84542
316.63        31.39166
317.08        31.00521
317.53        30.73939
317.99        30.56329
318.44        30.44558
318.89        30.33926
319.35        30.22508
319.80         30.1192
320.25        30.04044
320.70        30.01385
321.16        30.02746
321.61        30.07566
322.06        30.09988
322.51        30.02093
322.97        29.82332
323.42        29.53914
323.87        29.23142
324.32        29.00447
324.78        28.87835
325.23        28.84114
325.68        28.83897
326.13        28.78307
326.59        28.64101
327.04        28.44812
327.49        28.24301
327.94        28.10027
328.39        28.03234
328.85         27.9996
329.30        27.96409
329.75        27.81991
330.20        27.54885
330.66        27.19205
331.11        26.82226
331.56        26.52815
332.01        26.33969
332.46        26.22845
332.92        26.17424
333.37          26.169
333.82        26.18804
334.27        26.23865
334.72        26.27937
335.17        26.24218
335.63        26.11174
336.08        25.90675
336.53        25.68041
336.98         25.5442
337.43        25.52842
337.88          25.605
338.34        25.71086
338.79        25.76282
339.24        25.73253
339.69        25.65555
340.14        25.56987
340.59        25.53898
341.05        25.58039
341.50        25.65755
341.95         25.7546
342.40        25.85777
342.85        25.94888
343.30        26.02589
343.75        26.04577
344.20        25.94151
344.66        25.72066
345.11        25.40884
345.56        25.07492
346.01        24.82559
346.46        24.70054
346.91        24.67731
347.36        24.73515
347.81        24.83986
348.26        24.96587
348.72         25.1055
349.17        25.23637
349.62        25.31928
350.07        25.33814
350.52        25.30224
350.97        25.20238
351.42          25.029
351.87        24.80148
352.32        24.54116
352.77         24.3191
353.22        24.24591
353.67        24.34146
354.13        24.56433
354.58        24.84514
355.03        25.06896
355.48          25.189
355.93        25.22665
356.38        25.18234
356.83        25.06482
357.28        24.88745
357.73        24.64682
358.18        24.38112
358.63        24.15462
359.08        23.98369
359.53        23.86115
359.98        23.75536
360.43        23.60744
360.88        23.40691
361.33        23.17756
361.78        22.95086
362.23        22.77467
362.68        22.66182
363.13        22.59522
363.58        22.55547
364.03         22.5128
364.48        22.45486
364.93        22.38729
365.38        22.31516
365.83        22.24782
366.28        22.18744
366.73        22.12818
367.18        22.06171
367.63        21.97758
368.08        21.87333
368.53        21.75251
368.98        21.62849
369.43        21.52071
369.88        21.43621
370.33        21.37543
370.78        21.32026
371.23        21.24075
371.68        21.13036
372.13         20.9918
372.58        20.85769
373.03        20.78247
373.48        20.76767
373.93        20.78727
374.38        20.78297
374.83         20.6609
375.28        20.41094
375.72        20.07686
376.17        19.73138
376.62        19.43674
377.07        19.21406
377.52        19.03518
377.97        18.92406
378.42        18.92033
378.87        19.01328
379.32        19.18495
379.77        19.33943
380.22        19.33303
380.67        19.14229
381.11        18.80553
381.56        18.43023
382.01        18.19911
382.46        18.16281
382.91        18.26955
383.36        18.42413
383.81        18.47927
384.26        18.39782
384.71        18.22351
385.15        18.02119
385.60        17.91641
386.05        17.92212
386.50        17.99251
386.95        18.05611
387.40        18.00709
387.85        17.83335
388.29        17.57685
388.74        17.32984
389.19         17.1559
389.64         17.0723
390.09        17.04739
390.54        17.07287
390.98         17.1333
391.43         17.2151
391.88        17.31371
392.33        17.38518
392.78        17.38564
393.23        17.31462
393.67        17.14689
394.12        16.94617
394.57        16.91678
395.02        16.82745
395.47        16.85488
395.91        16.89157
396.36         16.8693
396.81        16.77813
397.26        16.64385
397.71        16.50578
398.15        16.41164
398.60        16.39281
399.05        16.39446
399.50        16.38494
399.95        16.39146
400.39        16.32023
400.84        16.17968
401.29        15.98772
401.74        15.87665
402.18        15.87224
402.63        15.90736
403.08        15.96182
403.53        16.01606
403.97        16.05501
404.42         16.0852
404.87        16.08727
405.32        16.03055
405.76        15.91079
406.21        15.74235
406.66        15.57132
407.11        15.47411
407.55        15.47238
408.00        15.54846
408.45        15.64563
408.90        15.65625
409.34        15.55431
409.79        15.37255
410.24        15.19944
410.68        15.16907
411.13        15.30512
411.58        15.56067
412.03        15.83056
412.47         15.9371
412.92        15.82491
413.37        15.56695
413.81        15.26071
414.26         15.0735
414.71        15.03359
415.15        15.09648
415.60        15.20436
416.05        15.27969
416.49        15.29369
416.94        15.27755
417.39        15.24202
417.83        15.19731
418.28        15.15525
418.73        15.10051
419.17        15.05217
419.62        15.04682
420.07        15.08635
420.51        15.15948
420.96        15.22978
421.41         15.2307
421.85        15.14762
422.30        15.01935
422.74        14.87877
423.19        14.79868
423.64        14.78722
424.08        14.83134
424.53        14.89562
424.98        14.94487
425.42        14.96814
425.87         14.9676
426.31        14.94901
426.76        14.94544
427.21        14.91257
427.65        14.86628
428.10        14.81361
428.54        14.74541
428.99        14.67791
429.44        14.71386
429.88        14.79393
430.33        14.63651
430.77        14.34169
431.22        14.38987
431.66        14.75289
432.11        14.93366
432.56        14.86672
433.00        14.86106
433.45        14.89704
433.89        14.65046
434.34        14.27078
434.78         14.2513
435.23        14.53294
435.67        14.62378
436.12         14.5022
436.57        14.44955
437.01        14.49099
437.46        14.53814
437.90        14.58814
438.35        14.65664
438.79        14.72503
439.24        14.73845
439.68        14.71158
440.13        14.71796
440.57        14.72933
441.02        14.70717
441.46        14.65408
441.91        14.48238
442.35        14.27265
442.80        14.44334
443.24        14.86354
443.69         14.8158
444.13        14.35295
444.58        14.16573
445.02        14.25853
445.47        14.26168
445.91        14.17165
446.36        14.16834
446.80        14.24779
447.24        14.36452
447.69        14.48419
448.13        14.55375
448.58        14.56225
449.02        14.52685
449.47        14.48282
449.91        14.47689
450.36        14.52186
450.80        14.59907
451.25        14.68073
451.69        14.72147
452.13        14.70816
452.58        14.66394
453.02         14.6035
453.47        14.54833
453.91        14.50393
454.36        14.50629
454.80        14.48222
455.24        14.48196
455.69        14.48592
456.13        14.49389
456.58        14.51139
457.02         14.5316
457.46        14.55531
457.91        14.57854
458.35        14.59485
458.79        14.60225
459.24        14.60943
459.68        14.62438
460.13        14.64883
460.57         14.6179
461.01        14.64468
461.46        14.58609
461.90        14.51405
462.34        14.62175
462.79        14.84745
463.23        14.86814
463.68        14.69689
464.12        14.62874
464.56         14.6729
465.01         14.6797
465.45        14.63923
465.89         14.6019
466.34        14.59496
466.78        14.67361
467.22        14.84188
467.67        14.86586
468.11        14.74336
468.55        14.56301
468.99        14.39902
469.44        14.32805
469.88         14.3712
470.32        14.50934
470.77        14.67646
471.21        14.77839
471.65          14.782
472.10        14.72352
472.54        14.64408
472.98        14.62383
473.42        14.68021
473.87        14.78177
474.31        14.88988
474.75        14.95044
475.20        14.95395
475.64         14.9168
476.08        14.86314
476.52        14.82444
476.97        14.81234
477.41         14.8146
477.85        14.83203
478.29        14.86503
478.74        14.91518
479.18        14.97345
479.62        15.02641
480.06        15.08918
480.50        15.16602
480.95        15.11446
481.39        15.17521
481.83        15.22012
482.27        15.33213
482.72        15.37226
483.16        15.53025
483.60        15.60243
484.04        15.63798
484.48        15.63871
484.93        15.65316
485.37        15.76788
485.81        15.87429
486.25        16.11889
486.69        15.44524
487.14        15.69111
487.58        16.30589
488.02        16.34021
488.46        16.50865
488.90        16.37682
489.34        16.13153
489.79         16.1676
490.23        16.37112
490.67        16.61621
491.11        16.79576
491.55        16.79903
491.99        16.68284
492.43        16.72882
492.88        16.95117
493.32        17.15092
493.76        17.29929
494.20        17.47233
494.64        17.66684
495.08        17.85361
495.52        18.00415
495.96        18.12169
496.41        18.21084
496.85        18.16854
497.29        18.05266
497.73        18.27563
498.17        18.55844
498.61        18.60751
499.05        18.39244
499.49         18.3472
499.93        18.50685
500.37        18.69909
500.82        18.87562
501.26        19.00275
501.70        19.06353
502.14        19.09407
502.58        19.13129
503.02        19.21135
503.46         19.3458
503.90        19.52551
504.34        19.71375
504.78        19.84694
505.22        19.90736
505.66        19.90977
506.10        19.88114
506.54        19.88802
506.98        19.94924
507.42        20.00656
507.86        20.02299
508.30        20.16636
508.74        20.06154
509.18        20.02411
509.62        19.98035
510.06         19.9932
510.50        20.07325
510.94        20.20739
511.38        20.36383
511.82        20.47995
512.26        20.53594
512.70        20.54308
513.14        20.53116
513.58        20.54781
514.02        20.60439
514.46        20.68879
514.90         20.7639
515.34        20.77058
515.78        20.70049
516.22        20.57671
516.66        20.45691
517.10        20.42893
517.54        20.50842
517.98        20.66389
518.42        20.83388
518.86        20.91878
519.30        20.89249
519.74        20.78782
520.18        20.64945
520.62        20.54591
521.06        20.50053
521.50        20.49529
521.93        20.51601
522.37        20.53389
522.81        20.54074
523.25        20.54413
523.69        20.55297
524.13        20.57841
524.57        20.61889
525.01         20.6648
525.45        20.69327
525.89        20.67123
526.32        20.59141
526.76        20.47243
527.20        20.34216
527.64        20.24399
528.08        20.18915
528.52        20.16645
528.96        20.15809
529.40        20.13466
529.83        20.08607
530.27         20.0234
530.71        19.95541
531.15        19.89789
531.59        19.85425
532.03        19.81781
532.46        19.77792
532.90         19.7255
533.34        19.65961
533.78        19.59033
534.22        19.52674
534.66        19.48088
535.09        19.45416
535.53        19.44589
535.97        19.45537
536.41        19.48749
536.85        19.53716
537.28        19.59926
537.72        19.65368
538.16        19.67146
538.60        19.64911
539.04        19.60163
539.47         19.5428
539.91        19.51388
540.35        19.52098
540.79        19.55871
541.22        19.62887
541.66        19.73639
542.10        19.87363
542.54        20.03758
542.97        20.20772
543.41         20.3536
543.85        20.46766
544.29        20.56043
544.72        20.63544
545.16        20.71583
545.60        20.80752
546.04        20.89703
546.47        20.99665
546.91        21.15775
547.35        21.36592
547.79         21.5443
548.22        21.67415
548.66        21.84216
549.10        22.05228
549.53        22.18834
549.97        22.21995
550.41        22.55712
550.84        22.52571
551.28        22.63553
551.72        22.68986
552.15        22.89473
552.59        22.96623
553.03        23.12854
553.46        23.28629
553.90        23.41783
554.34        23.51237
554.77        23.60225
555.21        23.69152
555.65        23.72329
556.08         23.7227
556.52        23.80264
556.96        23.95048
557.39         24.0897
557.83        24.20762
558.27        24.29271
558.70        24.36413
559.14        24.48188
559.57        24.62622
560.01        24.75846
560.45        24.85755
560.88        24.82274
561.32         24.8121
561.75        24.83957
562.19        24.94241
562.63        25.00302
563.06        25.01729
563.50        25.06592
563.93         25.1444
564.37        25.23343
564.80        25.32476
565.24         25.4296
565.68        25.53823
566.11        25.65252
566.55        25.77127
566.98        25.85494
567.42        25.94527
567.85         26.0579
568.29        26.19667
568.72        26.42933
569.16        26.77191
569.60        26.68291
570.03        26.98092
570.47        27.12794
570.90         27.1659
571.34        27.30055
571.77        27.38258
572.21        27.47251
572.64        27.53703
573.08        27.66657
573.51        27.87819
573.95        27.95972
574.38        28.13019
574.82        28.17603
