SpectraSmart Spectrum 2.9.0.0
--------- Device Information -----------
Spectrum Name :  反射率_0
Saving Time :  2024/04/30 00:44:47
Spectro-Module Model Name : SE2030-DUVN
Spectro-Module Serial Number : OS361AC55029948
Wavelength Start : 200
Wavelength End : 1025
Wavelength Unit : Wavelength(nm)
Spectrum Unit : Reflectance(%)
-----------Spectrum Setting ------------
Integration Time : 20ms
Average : 10
Boxcar : 0
Background removal :  enabled
linearity correction :  enabled
SC :  disabled
Intensity correction :  disabled
DWT denoise :  enabled
savitzky-golay :  disabled
FFT :  disabled
Running average :  disabled
Kalman :  disabled
High pass :  disabled
---------------BEGIN--------------------
Wavelength(nm)             Reflectance(%)
200.29               0
200.75         30.2002
201.21        23.12831
201.67        15.11483
202.13        8.856824
202.58         5.87358
203.04        5.829774
203.50        10.21645
203.96        22.09416
204.42         40.6352
204.88        62.57924
205.34         79.9258
205.80        82.43422
206.26        72.55414
206.72        58.49999
207.18        44.92546
207.64        33.63842
208.10        23.87423
208.55        13.70347
209.01         5.53285
209.47        5.912784
209.93        14.80262
210.39        28.24222
210.85        39.73857
211.31        44.13572
211.77        41.38682
212.23          31.248
212.69        16.27353
213.14        10.97294
213.60        21.61045
214.06        39.37524
214.52        53.87708
214.98        58.76151
215.44        55.41943
215.90        46.59267
216.36        35.88752
216.81        30.06364
217.27         32.7784
217.73        43.91082
218.19        62.15283
218.65        76.81986
219.11        79.56284
219.57        73.54434
220.02        66.62926
220.48        65.50402
220.94        70.09034
221.40        79.27666
221.86        89.21774
222.32        88.01383
222.77        74.48762
223.23        59.12012
223.69        48.06542
224.15         43.4612
224.61        43.87529
225.06        47.53848
225.52        53.89572
225.98        60.14572
226.44        64.06242
226.90        66.28243
227.36        67.16821
227.81        67.16623
228.27        66.67686
228.73        65.34785
229.19        63.76741
229.65        63.30671
230.10        64.10757
230.56        65.75226
231.02        67.06043
231.48        66.95947
231.93         65.4172
232.39        62.83743
232.85        60.09677
233.31        58.94458
233.77        59.90162
234.22        62.65745
234.68        65.72507
235.14        66.44511
235.60        64.21074
236.05        59.93213
236.51        55.71104
236.97        54.21477
237.43        56.06318
237.88        61.13798
238.34        68.07334
238.80        72.63871
239.26        71.90472
239.71        66.94646
240.17        60.26419
240.63        55.21286
241.08        52.45646
241.54        51.11987
242.00        51.18748
242.46        52.10837
242.91        53.43774
243.37        55.37024
243.83        58.10613
244.28        62.15409
244.74        67.73419
245.20        74.54835
245.66        81.35986
246.11          85.253
246.57        84.45161
247.03         79.7248
247.48        71.98086
247.94        64.48415
248.40        60.13461
248.85        58.05304
249.31        57.64786
249.77        57.53024
250.22        57.40744
250.68        57.70868
251.14        58.35262
251.59        58.49091
252.05        57.90639
252.51        56.99191
252.96        56.45224
253.42        57.20411
253.88        58.80254
254.33        60.78565
254.79        62.66916
255.25         62.6399
255.70        60.69164
256.16        58.55396
256.62        56.69128
257.07        55.19313
257.53        54.25196
257.99         53.4851
258.44        52.85521
258.90        52.96426
259.35        53.29911
259.81        53.87074
260.27        54.20509
260.72        53.94442
261.18        53.33728
261.63        52.33945
262.09        51.29856
262.55        50.35754
263.00        49.52378
263.46        48.91082
263.91        48.28321
264.37        47.63664
264.83        46.89435
265.28        46.05274
265.74          45.351
266.19        44.92294
266.65        44.83534
267.11        44.94065
267.56        45.04331
268.02        44.88168
268.47        44.36856
268.93        43.59597
269.38        42.63246
269.84        41.71703
270.30          40.933
270.75         40.2476
271.21        39.63128
271.66         38.9927
272.12        38.31298
272.57        37.59905
273.03         36.9368
273.48        36.36538
273.94        35.94352
274.39        35.59687
274.85        35.28272
275.31        34.86384
275.76        34.30505
276.22        33.68507
276.67        33.05173
277.13        32.57664
277.58        32.23092
278.04        31.99464
278.49        31.74333
278.95        31.39943
279.40        30.90328
279.86        30.37288
280.31         29.8098
280.77        29.33458
281.22        28.94012
281.68        28.62922
282.13        28.39833
282.59        28.30217
283.04        28.29497
283.50        28.33644
283.95        28.32796
284.41        28.13731
284.86        27.73206
285.32        27.21326
285.77        26.59497
286.22        25.96791
286.68         25.3869
287.13         24.8056
287.59        24.33258
288.04        24.07578
288.50        24.04856
288.95        24.17241
289.41        24.30931
289.86        24.21098
290.32        23.85287
290.77        23.30835
291.22        22.69668
291.68        22.21268
292.13        21.91725
292.59        21.77963
293.04        21.79995
293.50        21.99764
293.95        22.35016
294.40        22.85732
294.86         23.4228
295.31        23.90535
295.77        24.26686
296.22        24.53161
296.68         24.7884
297.13        25.16173
297.58        25.69216
298.04         26.3125
298.49        26.96535
298.95        27.55591
299.40        28.05192
299.85        28.48118
300.31        28.87372
300.76        29.22054
301.21         29.5567
301.67        29.89274
302.12        30.21148
302.58        30.62643
303.03        31.14239
303.48        31.60384
303.94        31.98305
304.39        32.94382
304.84        33.28407
305.30        33.94422
305.75        34.52496
306.20        35.02359
306.66         35.4294
307.11        35.74207
307.57         35.9903
308.02        36.14527
308.47        36.23186
308.93        36.26357
309.38        36.27192
309.83        36.35567
310.29        36.52768
310.74        36.75816
311.19        36.95909
311.65        36.98388
312.10        36.80482
312.55        36.47481
313.00        36.11518
313.46        35.91411
313.91        35.90332
314.36        36.03173
314.82        36.18906
315.27         36.2163
315.72        36.06071
316.18        35.78273
316.63        35.45243
317.08        35.19156
317.53        35.03907
317.99        34.96087
318.44        34.90678
318.89        34.80682
319.35        34.63816
319.80        34.42122
320.25        34.20314
320.70        34.05593
321.16        33.98236
321.61        33.97606
322.06        33.95337
322.51        33.78993
322.97        33.46363
323.42        33.02326
323.87        32.57357
324.32        32.28269
324.78        32.17723
325.23        32.22073
325.68         32.3042
326.13        32.24622
326.59         31.9914
327.04        31.61154
327.49        31.18831
327.94        30.86846
328.39        30.68895
328.85        30.58234
329.30        30.52046
329.75        30.40706
330.20        30.21418
330.66        29.98466
331.11        29.72669
331.56        29.42037
332.01        29.07734
332.46         28.6933
332.92        28.34162
333.37        28.18953
333.82        28.25896
334.27        28.50772
334.72        28.79858
335.17        28.89654
335.63        28.73269
336.08        28.37868
336.53        27.94195
336.98        27.62897
337.43        27.50927
337.88        27.52358
338.34        27.60336
338.79        27.66092
339.24        27.65589
339.69         27.6259
340.14        27.58644
340.59        27.55714
341.05        27.54557
341.50        27.52913
341.95        27.50338
342.40         27.4762
342.85        27.44367
343.30        27.40175
343.75        27.33283
344.20        27.20908
344.66        27.03975
345.11        26.83468
345.56        26.61947
346.01        26.42998
346.46        26.28594
346.91        26.18323
347.36        26.12746
347.81         26.1262
348.26        26.16778
348.72        26.23356
349.17        26.29766
349.62         26.3163
350.07        26.27313
350.52        26.18367
350.97        26.04239
351.42        25.84012
351.87        25.59467
352.32        25.32573
352.77        25.09329
353.22        24.99253
353.67        25.03934
354.13        25.19216
354.58        25.39856
355.03        25.57294
355.48        25.67196
355.93        25.70739
356.38        25.65277
356.83        25.47392
357.28        25.18124
357.73        24.79407
358.18        24.38034
358.63        24.05014
359.08        23.83201
359.53        23.69948
359.98        23.61535
360.43        23.51156
360.88        23.36584
361.33        23.20292
361.78        23.02181
362.23        22.81972
362.68        22.60376
363.13        22.37094
363.58        22.15119
364.03        21.99632
364.48        21.91178
364.93        21.87864
365.38        21.85808
365.83        21.78591
366.28        21.64584
366.73        21.45992
367.18        21.24781
367.63        21.04113
368.08        20.85269
368.53        20.67171
368.98        20.50918
369.43        20.38268
369.88        20.29358
370.33        20.24209
370.78        20.19728
371.23        20.10716
371.68        19.95781
372.13        19.75461
372.58         19.5392
373.03        19.38119
373.48        19.29237
373.93        19.25276
374.38        19.20226
374.83         19.0438
375.28        18.76749
375.72        18.41224
376.17        18.07284
376.62        17.84638
377.07        17.75056
377.52        17.74497
377.97        17.78785
378.42        17.80998
378.87        17.78736
379.32        17.74648
379.77        17.68303
380.22        17.59075
380.67        17.47171
381.11        17.31274
381.56        17.16072
382.01        17.09482
382.46        17.12718
382.91        17.24192
383.36        17.34768
383.81        17.30114
384.26        17.08427
384.71        16.74474
385.15         16.3987
385.60        16.25514
386.05        16.33826
386.50           16.57
386.95        16.82695
387.40         16.9164
387.85         16.7963
388.29        16.53376
388.74        16.22808
389.19        15.95529
389.64        15.74637
390.09        15.57127
390.54        15.45421
390.98        15.43763
391.43        15.52219
391.88        15.68787
392.33        15.86284
392.78        15.95936
393.23        15.96154
393.67        15.85367
394.12        15.69986
394.57        15.69895
395.02        15.63998
395.47        15.68365
395.91         15.7255
396.36        15.69632
396.81        15.59007
397.26        15.43787
397.71        15.29316
398.15        15.22252
398.60        15.25663
399.05        15.33407
399.50        15.40759
399.95        15.47924
400.39        15.45529
400.84        15.34977
401.29        15.18521
401.74        15.09742
402.18         15.1138
402.63        15.16565
403.08        15.23295
403.53        15.29661
403.97        15.34447
404.42        15.38898
404.87        15.41151
405.32        15.37998
405.76        15.29168
406.21         15.1601
406.66        15.03973
407.11        15.02211
407.55        15.12664
408.00        15.32434
408.45        15.53725
408.90        15.62024
409.34        15.53533
409.79        15.33009
410.24        15.10257
410.68        15.00088
411.13        15.06184
411.58        15.24063
412.03        15.46011
412.47        15.58914
412.92        15.57621
413.37        15.47144
413.81         15.3337
414.26        15.27504
414.71        15.30926
415.15        15.40789
415.60        15.51486
416.05        15.55899
416.49         15.5215
416.94        15.43204
417.39        15.33334
417.83        15.28666
418.28        15.31294
418.73        15.38597
419.17         15.4807
419.62        15.56034
420.07        15.60932
420.51        15.63599
420.96        15.64469
421.41        15.63406
421.85        15.60305
422.30        15.56734
422.74        15.52378
423.19         15.4956
423.64        15.48106
424.08        15.48445
424.53        15.49884
424.98        15.53776
425.42        15.60361
425.87        15.68083
426.31         15.7465
426.76        15.79071
427.21        15.75633
427.65        15.67795
428.10         15.5827
428.54        15.49207
428.99        15.43227
429.44         15.4983
429.88        15.62461
430.33        15.50913
430.77        15.25179
431.22        15.36644
431.66        15.81429
432.11        16.04494
432.56        15.98163
433.00        15.95354
433.45        15.95869
433.89        15.70023
434.34        15.33927
434.78        15.36805
435.23        15.70748
435.67        15.82147
436.12        15.68062
436.57         15.5831
437.01        15.57904
437.46        15.61769
437.90        15.70467
438.35        15.84433
438.79        15.98391
439.24        16.01406
439.68        15.94103
440.13        15.86072
440.57        15.78279
441.02        15.72878
441.46        15.71556
441.91        15.63174
442.35        15.51709
442.80        15.75567
443.24        16.20186
443.69        16.11696
444.13        15.59131
444.58        15.39841
445.02         15.5508
445.47        15.64407
445.91        15.63383
446.36        15.64966
446.80        15.67772
447.24         15.6942
447.69        15.70328
448.13        15.71069
448.58        15.71969
449.02        15.72511
449.47        15.74106
449.91        15.77934
450.36        15.84202
450.80        15.92623
451.25        16.00094
451.69        16.01381
452.13        15.95582
452.58        15.84858
453.02        15.73642
453.47        15.68989
453.91        15.71824
454.36        15.84313
454.80        15.93557
455.24        15.97182
455.69          15.914
456.13        15.78862
456.58        15.64792
457.02        15.55618
457.46        15.53598
457.91        15.56529
458.35        15.61307
458.79         15.6405
459.24        15.64666
459.68        15.65212
460.13         15.6754
460.57         15.6714
461.01        15.76343
461.46        15.78512
461.90        15.78667
462.34        15.94098
462.79        16.17183
463.23         16.1368
463.68        15.87997
464.12        15.76564
464.56        15.81365
465.01        15.85035
465.45        15.83988
465.89        15.79988
466.34         15.7536
466.78        15.77224
467.22        15.88323
467.67        15.87686
468.11        15.76178
468.55         15.6181
468.99        15.49704
469.44        15.43725
469.88         15.4517
470.32        15.53519
470.77        15.64077
471.21         15.7048
471.65         15.7041
472.10        15.66578
472.54        15.62115
472.98        15.63608
473.42        15.72196
473.87         15.8505
474.31        15.98452
474.75        16.07231
475.20        16.10425
475.64        16.09365
476.08        16.05956
476.52        16.02718
476.97        16.00762
477.41        15.99072
477.85        15.98704
478.29        16.01196
478.74        16.07138
479.18        16.15314
479.62        16.23175
480.06        16.30556
480.50        16.37658
480.95         16.2975
481.39        16.34385
481.83        16.39921
482.27        16.55774
482.72        16.66358
483.16        16.90102
483.60        17.01553
484.04        17.05438
484.48         17.0243
484.93        16.99366
485.37        17.08704
485.81        17.22773
486.25        17.46196
486.69        16.88898
487.14        17.14201
487.58        17.80399
488.02        17.69278
488.46        17.91693
488.90        18.23634
489.34        17.74925
489.79        17.70509
490.23        17.75507
490.67          18.033
491.11        18.41229
491.55        18.49722
491.99        18.34518
492.43        18.42509
492.88        18.74958
493.32        19.00245
493.76        19.14548
494.20        19.30202
494.64        19.47436
495.08        19.62203
495.52        19.73633
495.96        19.85797
496.41        19.99852
496.85        20.03441
497.29        20.00286
497.73        20.31976
498.17        20.66427
498.61        20.71857
499.05         20.4581
499.49        20.38342
499.93        20.54039
500.37        20.73297
500.82        20.90815
501.26        21.02938
501.70         21.0801
502.14        21.10497
502.58        21.14652
503.02         21.2455
503.46        21.41292
503.90        21.63356
504.34        21.86693
504.78        22.04331
505.22         22.1406
505.66        22.17582
506.10        22.16333
506.54        22.15318
506.98        22.16587
507.42        22.14548
507.86        22.08455
508.30        22.22182
508.74        22.15337
509.18        22.20806
509.62        22.26775
510.06        22.34317
510.50        22.42991
510.94        22.53173
511.38        22.63472
511.82        22.70527
512.26        22.73813
512.70        22.73926
513.14         22.7378
513.58        22.78166
514.02        22.87839
514.46        23.01091
514.90        23.14294
515.34        23.21464
515.78        23.21094
516.22        23.15247
516.66        23.06894
517.10        23.00668
517.54        22.98025
517.98        22.97535
518.42          22.982
518.86        22.98406
519.30        22.97501
519.74        22.96285
520.18         22.9463
520.62        22.91969
521.06        22.88561
521.50        22.84815
521.93          22.816
522.37         22.7984
522.81        22.79988
523.25        22.81133
523.69        22.83432
524.13        22.87192
524.57        22.91788
525.01        22.96797
525.45        22.99433
525.89        22.95313
526.32        22.83719
526.76        22.67027
527.20        22.49113
527.64        22.36091
528.08        22.29432
528.52        22.27391
528.96        22.27617
529.40        22.26166
529.83        22.21651
530.27         22.1568
530.71        22.08676
531.15        22.01545
531.59         21.9467
532.03        21.87383
532.46        21.80113
532.90        21.74476
533.34        21.70593
533.78        21.68603
534.22        21.66994
534.66        21.63246
535.09        21.56803
535.53        21.48886
535.97        21.41805
536.41        21.39923
536.85        21.43849
537.28        21.51972
537.72        21.60551
538.16        21.63929
538.60         21.6089
539.04        21.53659
539.47        21.44906
539.91        21.40749
540.35        21.42213
540.79        21.48343
541.22        21.57622
541.66        21.67962
542.10        21.78364
542.54        21.89577
542.97         22.0246
543.41        22.18446
543.85        22.37403
544.29        22.58737
544.72        22.79236
545.16        22.95799
545.60        23.07615
546.04        23.14789
546.47        23.21211
546.91        23.36718
547.35          23.609
547.79        23.83899
548.22        24.02023
548.66        24.22583
549.10        24.45482
549.53         24.5883
549.97        24.60356
550.41        24.97075
550.84        24.94767
551.28        25.09175
551.72        25.17665
552.15        25.41875
552.59        25.49998
553.03        25.67383
553.46        25.83897
553.90         25.9785
554.34        26.08229
554.77        26.18332
555.21        26.28636
555.65        26.32835
556.08        26.33865
556.52        26.44725
556.96        26.63416
557.39        26.80528
557.83        26.94419
558.27        27.03339
558.70        27.11377
559.14        27.28435
559.57        27.52263
560.01        27.77387
560.45        27.96646
560.88        27.91524
561.32        27.79338
561.75        27.64616
562.19        27.57638
562.63        27.55217
563.06        27.59142
563.50        27.74801
563.93        27.96914
564.37        28.15815
564.80        28.28156
565.24         28.3752
565.68        28.44271
566.11        28.50801
566.55        28.58203
566.98        28.61544
567.42        28.66226
567.85        28.75561
568.29        28.90468
568.72        29.17476
569.16        29.58368
569.60        29.52906
570.03        29.90964
570.47        30.06804
570.90        30.25221
571.34         30.2697
571.77        30.45003
572.21        30.50416
572.64        30.52775
573.08        30.66603
573.51        30.94765
573.95        30.96874
574.38        31.17581
574.82         31.3301
