SpectraSmart Spectrum 2.9.0.0
--------- Device Information -----------
Spectrum Name :  反射率_0
Saving Time :  2024/04/30 01:00:02
Spectro-Module Model Name : SE2030-DUVN
Spectro-Module Serial Number : OS361AC55029948
Wavelength Start : 200
Wavelength End : 1025
Wavelength Unit : Wavelength(nm)
Spectrum Unit : Reflectance(%)
-----------Spectrum Setting ------------
Integration Time : 20ms
Average : 10
Boxcar : 0
Background removal :  enabled
linearity correction :  enabled
SC :  disabled
Intensity correction :  disabled
DWT denoise :  enabled
savitzky-golay :  disabled
FFT :  disabled
Running average :  disabled
Kalman :  disabled
High pass :  disabled
---------------BEGIN--------------------
Wavelength(nm)             Reflectance(%)
200.29               0
200.75        35.35934
201.21        26.52499
201.67        16.13977
202.13        7.902999
202.58        3.667937
203.04        2.856074
203.50        6.566875
203.96         16.7981
204.42         32.5812
204.88         51.7705
205.34        66.93656
205.80        68.38496
206.26        58.57704
206.72        45.00683
207.18        32.64901
207.64         23.9031
208.10         18.0223
208.55        13.25915
209.01        10.58245
209.47        12.89803
209.93        19.43605
210.39        27.94968
210.85        35.00466
211.31        38.07021
211.77        37.24273
212.23        32.37995
212.69        24.25129
213.14        19.49409
213.60        21.66181
214.06        27.77642
214.52        33.41632
214.98        35.50148
215.44        34.54909
215.90        31.94087
216.36        29.29301
216.81        29.60494
217.27         34.6023
217.73         44.0395
218.19        57.35668
218.65        68.21758
219.11         70.9203
219.57        67.23396
220.02        60.86929
220.48        54.59248
220.94        47.71644
221.40        38.29473
221.86        26.91267
222.32        19.83138
222.77        20.37116
223.23        25.51953
223.69        30.10132
224.15        30.84752
224.61        28.16418
225.06        22.89695
225.52        17.49897
225.98        17.06259
226.44        22.02263
226.90        28.94436
227.36        34.75717
227.81         37.7035
228.27        38.27205
228.73        37.34894
229.19        36.04922
229.65        36.36222
230.10        38.44622
230.56        41.09613
231.02        43.22134
231.48        44.02281
231.93        43.50954
232.39        42.10978
232.85        40.27263
233.31        38.87006
233.77         38.2244
234.22        38.22864
234.68        38.27701
235.14        37.33031
235.60        35.29903
236.05        32.71598
236.51        30.61336
236.97        30.19721
237.43        31.75186
237.88        35.30441
238.34        40.27331
238.80        44.54238
239.26        46.27409
239.71         45.6884
240.17        43.64036
240.63        41.79511
241.08        40.58515
241.54        39.44783
242.00        38.42007
242.46         38.2535
242.91        39.94925
243.37        43.46706
243.83        47.65506
244.28        51.60448
244.74        55.21557
245.20        58.31887
245.66        60.54326
246.11         61.0774
246.57        59.56066
247.03        56.67524
247.48        51.64096
247.94        44.05115
248.40        37.05354
248.85        32.22232
249.31        30.62724
249.77        32.48318
250.22        37.94081
250.68        48.47989
251.14          65.259
251.59        78.64413
252.05        78.12686
252.51        69.93385
252.96        61.76428
253.42        56.97515
253.88         54.2355
254.33        51.92962
254.79          49.963
255.25        48.20961
255.70        46.86835
256.16        46.41516
256.62        46.36777
257.07        46.24059
257.53        46.24026
257.99        46.26151
258.44        46.14205
258.90        46.26323
259.35         46.2598
259.81         46.2645
260.27        46.16326
260.72        45.91714
261.18        45.65128
261.63         45.1969
262.09        44.61836
262.55        43.74333
263.00        42.61781
263.46        41.52335
263.91        40.45406
264.37        39.60907
264.83        38.92907
265.28        38.30225
265.74        37.86447
266.19        37.62402
266.65         37.6032
267.11        37.72801
267.56         37.8104
268.02        37.57774
268.47        36.96675
268.93        36.05757
269.38        35.01337
269.84        34.23797
270.30         33.8236
270.75         33.6687
271.21         33.5684
271.66        33.19764
272.12          32.494
272.57        31.54394
273.03        30.56405
273.48        29.81225
273.94        29.39998
274.39        29.19189
274.85        29.04948
275.31           28.72
275.76        28.14761
276.22        27.44944
276.67        26.73913
277.13        26.25342
277.58        25.98616
278.04        25.88443
278.49        25.77418
278.95        25.49463
279.40        24.98314
279.86        24.37187
280.31        23.74509
280.77        23.32958
281.22        23.13028
281.68        23.09591
282.13          23.124
282.59        23.11352
283.04        23.01609
283.50        22.85694
283.95        22.65102
284.41        22.42537
284.86        22.18603
285.32        21.96203
285.77         21.7088
286.22        21.42542
286.68        21.13578
287.13        20.82519
287.59         20.5893
288.04        20.51965
288.50        20.62947
288.95        20.84174
289.41        21.06024
289.86        21.11168
290.32        20.98487
290.77        20.74155
291.22        20.44645
291.68        20.20105
292.13        20.04431
292.59        19.96856
293.04        20.04043
293.50        20.37699
293.95        20.97472
294.40        21.80183
294.86        22.68371
295.31        23.35658
295.77        23.75233
296.22        23.92514
296.68        24.04907
297.13        24.38697
297.58        24.99994
298.04        25.76602
298.49        26.52526
298.95        27.02415
299.40        27.20897
299.85        27.18587
300.31        27.07666
300.76        27.00919
301.21         27.0595
301.67        27.18661
302.12        27.36364
302.58        27.68872
303.03        28.14241
303.48        28.56234
303.94        28.84813
304.39         29.5883
304.84        29.51418
305.30        29.65337
305.75         29.6893
306.20        29.77971
306.66        29.95073
307.11        30.15945
307.57        30.36556
308.02         30.4414
308.47        30.37908
308.93        30.22433
309.38        30.03303
309.83        29.93556
310.29        29.95811
310.74        30.06105
311.19        30.15533
311.65        30.09691
312.10        29.86199
312.55        29.50661
313.00        29.15034
313.46        28.97604
313.91        29.00967
314.36        29.18955
314.82        29.40329
315.27          29.491
315.72        29.39271
316.18        29.16399
316.63        28.85271
317.08        28.54684
317.53        28.28848
317.99        28.06715
318.44        27.87359
318.89        27.69864
319.35        27.53999
319.80        27.40237
320.25        27.32226
320.70        27.35175
321.16         27.4778
321.61        27.68747
322.06        27.87181
322.51         27.8629
322.97        27.62452
323.42        27.21222
323.87        26.74848
324.32        26.43434
324.78        26.31661
325.23        26.35713
325.68         26.4622
326.13        26.47153
326.59        26.33131
327.04        26.10109
327.49        25.84887
327.94        25.69457
328.39        25.66364
328.85        25.69819
329.30        25.74303
329.75        25.66809
330.20        25.44544
330.66        25.13025
331.11        24.79205
331.56        24.51422
332.01         24.3308
332.46        24.21094
332.92         24.1639
333.37        24.23156
333.82        24.39451
334.27        24.63853
334.72        24.86798
335.17        24.92353
335.63        24.76567
336.08        24.44158
336.53        24.04215
336.98        23.74615
337.43        23.61589
337.88        23.60906
338.34        23.67559
338.79        23.74981
339.24        23.79722
339.69        23.84862
340.14        23.90071
340.59        23.94203
341.05        23.97321
341.50        23.98137
341.95         23.9833
342.40        24.02251
342.85         24.0988
343.30        24.18712
343.75         24.2513
344.20         24.2345
344.66        24.13543
345.11        23.97899
345.56        23.77925
346.01        23.55363
346.46          23.331
346.91        23.11794
347.36        22.97455
347.81        22.99062
348.26         23.1663
348.72        23.45896
349.17        23.77654
349.62        23.95963
350.07        23.95921
350.52          23.826
350.97         23.6073
351.42        23.37746
351.87        23.17864
352.32        23.00255
352.77        22.88708
353.22        22.89454
353.67        23.02421
354.13        23.24206
354.58        23.49718
355.03        23.70304
355.48        23.81865
355.93        23.86066
356.38        23.79595
356.83        23.58083
357.28        23.23541
357.73         22.7919
358.18        22.35676
358.63        22.09822
359.08         22.0488
359.53         22.1522
359.98        22.32654
360.43        22.43256
360.88        22.42298
361.33        22.34173
361.78        22.18935
362.23        21.96989
362.68        21.70416
363.13        21.38983
363.58        21.09872
364.03        20.94893
364.48        20.95936
364.93         21.0984
365.38        21.27614
365.83        21.34057
366.28        21.25162
366.73         21.0512
367.18        20.80568
367.63         20.6237
368.08         20.5342
368.53        20.49996
368.98        20.48322
369.43        20.42397
369.88        20.30807
370.33        20.16756
370.78        20.02166
371.23        19.89715
371.68        19.80384
372.13          19.722
372.58        19.66276
373.03        19.64811
373.48        19.66921
373.93        19.71504
374.38        19.72857
374.83         19.6165
375.28        19.37217
375.72        19.03442
376.17        18.69449
376.62        18.44635
377.07        18.31299
377.52         18.2579
377.97        18.26732
378.42        18.31624
378.87         18.3815
379.32        18.46725
379.77        18.52375
380.22        18.47713
380.67        18.31791
381.11        18.06042
381.56        17.77886
382.01            17.6
382.46        17.55863
382.91        17.62593
383.36        17.72463
383.81        17.73177
384.26        17.62296
384.71        17.43679
385.15        17.24362
385.60        17.17912
386.05         17.2524
386.50        17.40694
386.95        17.56047
387.40        17.58873
387.85         17.4685
388.29         17.2442
388.74         16.9934
389.19        16.76127
389.64        16.56807
390.09        16.39063
390.54        16.25799
390.98        16.21904
391.43        16.27687
391.88        16.40997
392.33        16.53683
392.78         16.5567
393.23        16.45817
393.67        16.23643
394.12        15.97886
394.57         15.9176
395.02         15.8421
395.47        15.90203
395.91        15.97649
396.36        15.96904
396.81        15.86263
397.26        15.69741
397.71        15.52332
398.15        15.40214
398.60        15.37026
399.05        15.36964
399.50        15.37341
399.95        15.41315
400.39        15.39881
400.84        15.33533
401.29        15.22558
401.74        15.16812
402.18        15.17849
402.63        15.19962
403.08        15.22252
403.53        15.24621
403.97        15.26444
404.42         15.2803
404.87         15.2794
405.32        15.23866
405.76        15.15235
406.21        15.03038
406.66        14.90843
407.11        14.84622
407.55        14.85973
408.00         14.9347
408.45        15.01405
408.90        14.99197
409.34        14.84742
409.79        14.61623
410.24        14.39711
410.68         14.3382
411.13        14.46622
411.58         14.7315
412.03        15.02437
412.47        15.15635
412.92        15.06707
413.37        14.83143
413.81        14.54274
414.26        14.36327
414.71        14.32056
415.15        14.36707
415.60        14.45485
416.05        14.52389
416.49        14.54852
416.94        14.55727
417.39        14.54017
417.83        14.47389
418.28         14.3659
418.73        14.21297
419.17        14.06833
419.62        14.02087
420.07        14.08435
420.51        14.23322
420.96        14.39588
421.41        14.44987
421.85          14.369
422.30        14.20985
422.74        14.03829
423.19        13.97498
423.64        14.03724
424.08        14.19317
424.53        14.37857
424.98        14.50794
425.42        14.55044
425.87        14.51964
426.31        14.44116
426.76        14.37945
427.21        14.30402
427.65        14.22592
428.10        14.14046
428.54        14.02048
428.99        13.88442
429.44        13.84261
429.88        13.86433
430.33        13.72094
430.77        13.50635
431.22         13.6564
431.66        14.12081
432.11        14.37403
432.56        14.33187
433.00        14.31301
433.45        14.31705
433.89        14.03642
434.34        13.64347
434.78        13.66757
435.23        14.01708
435.67        14.10329
436.12        13.89657
436.57        13.73121
437.01        13.66201
437.46         13.6376
437.90        13.67208
438.35        13.76954
438.79        13.89565
439.24        13.97232
439.68        14.00119
440.13        14.05513
440.57        14.10674
441.02        14.11766
441.46        14.08947
441.91        13.93763
442.35         13.7349
442.80        13.87982
443.24        14.24698
443.69        14.14909
444.13        13.66238
444.58        13.47884
445.02        13.60506
445.47        13.67976
445.91        13.66232
446.36        13.66805
446.80        13.68389
447.24        13.68615
447.69        13.68254
448.13        13.68624
448.58         13.7021
449.02        13.72623
449.47        13.76205
449.91        13.80677
450.36        13.85838
450.80        13.91352
451.25        13.96236
451.69        13.98741
452.13        13.98308
452.58        13.96157
453.02        13.92449
453.47        13.87528
453.91        13.81523
454.36        13.78529
454.80        13.72887
455.24        13.71284
455.69        13.72256
456.13        13.75153
456.58        13.79127
457.02        13.81392
457.46        13.81763
457.91        13.80859
458.35        13.79435
458.79        13.79282
459.24        13.81651
459.68        13.86409
460.13        13.93162
460.57        13.94862
461.01        14.01805
461.46        14.00478
461.90        13.97075
462.34        14.09147
462.79        14.30638
463.23        14.30618
463.68        14.11601
464.12        14.03963
464.56        14.09028
465.01        14.11936
465.45        14.10591
465.89        14.08198
466.34         14.0701
466.78        14.12665
467.22        14.26476
467.67        14.27618
468.11        14.16224
468.55        14.00275
468.99        13.85408
469.44        13.76586
469.88        13.75659
470.32         13.8208
470.77        13.91485
471.21         13.9802
471.65        13.99305
472.10        13.97474
472.54        13.95626
472.98        14.00181
473.42        14.11864
473.87        14.27814
474.31        14.42685
474.75        14.48742
475.20        14.45055
475.64          14.342
476.08        14.21219
476.52        14.13511
476.97        14.13139
477.41        14.17469
477.85        14.24877
478.29        14.32406
478.74        14.39167
479.18        14.45484
479.62        14.49845
480.06        14.53269
480.50         14.5666
480.95        14.46571
481.39        14.48127
481.83        14.52356
482.27        14.67491
482.72        14.79018
483.16         15.0252
483.60        15.13273
484.04        15.14872
484.48        15.11127
484.93        15.07217
485.37        15.07894
485.81        15.07956
486.25        15.28172
486.69        14.78664
487.14        15.02801
487.58        15.57349
488.02        15.64759
488.46        15.76467
488.90        16.19423
489.34        15.47923
489.79        15.48888
490.23        15.71541
490.67        16.02617
491.11        16.29118
491.55         16.2831
491.99        16.08723
492.43        16.11684
492.88        16.39262
493.32        16.62125
493.76        16.75683
494.20        16.89954
494.64        17.04575
495.08        17.16118
495.52        17.24024
495.96        17.32333
496.41        17.42385
496.85         17.4335
497.29        17.39011
497.73        17.66378
498.17        17.97687
498.61        18.04996
499.05        17.85564
499.49        17.82094
499.93        17.98168
500.37        18.16654
500.82        18.32617
501.26        18.42592
501.70        18.45127
502.14        18.44251
502.58        18.44159
503.02        18.49141
503.46        18.60625
503.90        18.77565
504.34        18.96404
504.78        19.10887
505.22        19.19062
505.66        19.22244
506.10        19.22378
506.54        19.24929
506.98        19.31472
507.42         19.3651
507.86        19.37129
508.30        19.50696
508.74        19.41323
509.18        19.39397
509.62        19.37139
510.06        19.39681
510.50        19.47672
510.94         19.5973
511.38        19.73894
511.82        19.85844
512.26        19.93997
512.70        19.99371
513.14        20.02084
513.58        20.02465
514.02        20.01176
514.46        19.98192
514.90        19.95145
515.34         19.9488
515.78        19.98018
516.22         20.0383
516.66        20.10658
517.10        20.15676
517.54        20.17849
517.98        20.17616
518.42        20.15442
518.86        20.12228
519.30        20.08417
519.74         20.0393
520.18        19.98612
520.62        19.92137
521.06        19.84893
521.50        19.77666
521.93        19.71917
522.37         19.6921
522.81        19.70074
523.25        19.73559
523.69        19.78606
524.13        19.83657
524.57        19.87809
525.01        19.91062
525.45        19.92451
525.89        19.90616
526.32        19.85306
526.76        19.77589
527.20        19.68926
527.64        19.61809
528.08        19.56968
528.52        19.53809
528.96        19.51737
529.40        19.50104
529.83        19.48438
530.27        19.46317
530.71        19.42882
531.15        19.41749
531.59         19.3521
532.03        19.29172
532.46        19.22127
532.90        19.16141
533.34        19.11554
533.78        19.08539
534.22        19.05863
534.66        19.01232
535.09        18.94379
535.53        18.86712
535.97        18.80593
536.41        18.80391
536.85        18.86496
537.28        18.96796
537.72        19.07839
538.16        19.14427
538.60        19.15236
539.04        19.12607
539.47        19.07183
539.91        19.01892
540.35        18.97649
540.79        18.94271
541.22        18.94486
541.66        19.03041
542.10         19.1982
542.54        19.43011
542.97        19.67697
543.41        19.86158
543.85        19.96607
544.29        20.01918
544.72        20.03966
545.16        20.07466
545.60        20.14004
546.04        20.21302
546.47        20.31473
546.91        20.51005
547.35        20.78207
547.79         21.0503
548.22        21.26582
548.66        21.46764
549.10        21.65158
549.53         21.7151
549.97        21.66057
550.41        21.94134
550.84        21.91549
551.28        22.06424
551.72         22.1692
552.15        22.38855
552.59        22.43617
553.03        22.54875
553.46        22.65556
553.90         22.7687
554.34        22.88523
554.77        23.02249
555.21        23.17082
555.65        23.25316
556.08        23.28589
556.52        23.38725
556.96        23.54523
557.39        23.68517
557.83        23.79645
558.27        23.86481
558.70        23.91935
559.14        24.03643
559.57        24.19911
560.01         24.3658
560.45        24.49736
560.88         24.4657
561.32        24.42328
561.75        24.39375
562.19        24.43679
562.63        24.47374
563.06        24.50821
563.50        24.60657
563.93        24.74116
564.37        24.85712
564.80        24.93707
565.24        25.00257
565.68        25.06218
566.11        25.14545
566.55        25.25844
566.98        25.35445
567.42        25.45909
567.85        25.56551
568.29        25.67722
568.72        25.86305
569.16        26.15337
569.60        26.06789
570.03        26.41335
570.47        26.54582
570.90         26.6671
571.34        26.82332
571.77        26.90572
572.21        26.98101
572.64         27.0133
573.08        27.10862
573.51        27.32226
573.95        27.26663
574.38        27.65541
574.82        27.64875
