SpectraSmart Spectrum 2.9.0.0
--------- Device Information -----------
Spectrum Name :  反射率_0
Saving Time :  2024/04/30 01:07:55
Spectro-Module Model Name : SE2030-DUVN
Spectro-Module Serial Number : OS361AC55029948
Wavelength Start : 200
Wavelength End : 1025
Wavelength Unit : Wavelength(nm)
Spectrum Unit : Reflectance(%)
-----------Spectrum Setting ------------
Integration Time : 20ms
Average : 10
Boxcar : 0
Background removal :  enabled
linearity correction :  enabled
SC :  disabled
Intensity correction :  disabled
DWT denoise :  enabled
savitzky-golay :  disabled
FFT :  disabled
Running average :  disabled
Kalman :  disabled
High pass :  disabled
---------------BEGIN--------------------
Wavelength(nm)             Reflectance(%)
200.29               0
200.75        30.17418
201.21        22.21589
201.67        11.82738
202.13        1.670932
202.58       -6.593034
203.04       -13.41244
203.50       -15.50034
203.96       -6.130336
204.42        15.47383
204.88        45.65614
205.34        72.67274
205.80        80.00105
206.26        69.66109
206.72        52.74988
207.18        36.59018
207.64        24.99489
208.10         17.1104
208.55        10.25095
209.01        5.979261
209.47        8.662888
209.93        17.40294
210.39        29.21231
210.85         38.8483
211.31        42.08504
211.77        38.92418
212.23        29.03564
212.69        14.27466
213.14        7.390475
213.60        14.69545
214.06        28.80199
214.52        41.28257
214.98        46.97043
215.44        46.87962
215.90        43.45372
216.36        38.46838
216.81         35.0302
217.27        34.91908
217.73        37.13844
218.19        42.07915
218.65        48.68552
219.11        54.06586
219.57        57.40024
220.02        58.11438
220.48        56.63544
220.94        52.90237
221.40        46.10725
221.86        36.44271
222.32        28.70693
222.77        26.52695
223.23        28.31472
223.69        30.44999
224.15        30.41196
224.61        28.19483
225.06         24.2394
225.52        20.31008
225.98        19.93673
226.44        23.33201
226.90        28.07821
227.36        31.69096
227.81        32.53382
228.27        30.89341
228.73         27.4396
229.19        23.57248
229.65        22.28609
230.10        24.11036
230.56        27.30242
231.02        30.17632
231.48        31.34832
231.93         30.8056
232.39        29.19687
232.85        27.08627
233.31        25.53184
233.77        24.96175
234.22        25.15682
234.68        25.70756
235.14        25.86707
235.60        25.49454
236.05        24.94471
236.51        24.79743
236.97         25.7971
237.43        28.21117
237.88        32.14925
238.34        37.31689
238.80        42.24238
239.26        45.31568
239.71        46.49928
240.17        46.09691
240.63        45.25777
241.08        44.41235
241.54        42.95284
242.00        41.27586
242.46        41.86348
242.91        46.97704
243.37         55.5873
243.83        63.90934
244.28        68.98103
244.74        70.76146
245.20        69.32858
245.66        65.38832
246.11        61.24898
246.57        58.50134
247.03        57.23677
247.48         56.2892
247.94        53.16722
248.40        48.99859
248.85        45.50909
249.31        44.29448
249.77        45.88349
250.22        50.51403
250.68         59.3227
251.14        72.70741
251.59        81.62172
252.05        78.49342
252.51        70.08658
252.96        63.04209
253.42        60.10668
253.88         59.9361
254.33        61.00294
254.79        62.90473
255.25        64.05192
255.70         63.7757
256.16        63.26282
256.62        62.58681
257.07        61.63083
257.53        60.77117
257.99        59.80432
258.44         58.6376
258.90        57.92178
259.35        57.33178
259.81         56.9977
260.27        56.70007
260.72        56.29453
261.18        55.89714
261.63        55.27363
262.09        54.46843
262.55        53.22623
263.00        51.60917
263.46        49.99615
263.91        48.38623
264.37        47.03342
264.83        45.86066
265.28        44.72289
265.74        43.80956
266.19        43.19903
266.65        42.92657
267.11        42.89581
267.56        42.80305
268.02        42.20604
268.47        41.01448
268.93        39.36407
269.38         37.5698
269.84        36.31288
270.30        35.75841
270.75        35.70352
271.21        35.79196
271.66        35.47156
272.12        34.62328
272.57        33.41003
273.03        32.10092
273.48         31.0375
273.94        30.37685
274.39        29.95415
274.85        29.66064
275.31        29.28819
275.76        28.76911
276.22        28.19901
276.67         27.6261
277.13        27.19147
277.58         26.8693
278.04        26.63722
278.49        26.36358
278.95        25.95203
279.40        25.35888
279.86        24.70299
280.31        24.05035
280.77        23.60351
281.22        23.36184
281.68        23.28135
282.13        23.28583
282.59        23.30797
283.04        23.30064
283.50         23.2811
283.95        23.21406
284.41        23.05008
284.86        22.79075
285.32        22.49731
285.77        22.19979
286.22        22.00828
286.68        21.95667
287.13        21.97805
287.59        22.09415
288.04        22.28158
288.50        22.52197
288.95        22.77501
289.41        22.98014
289.86        23.01262
290.32        22.88944
290.77        22.66881
291.22        22.42912
291.68         22.2906
292.13        22.29705
292.59          22.442
293.04        22.78933
293.50        23.45498
293.95        24.42545
294.40        25.65855
294.86        26.95779
295.31         28.0254
295.77        28.78039
296.22        29.28322
296.68         29.7129
297.13        30.33984
297.58        31.23942
298.04         32.3007
298.49        33.38055
298.95        34.25621
299.40        34.87509
299.85        35.32757
300.31        35.73463
300.76        36.21204
301.21        36.82064
301.67        37.51616
302.12        38.21827
302.58        38.95391
303.03        39.68549
303.48        40.29949
303.94        40.77412
304.39         41.6765
304.84        41.97401
305.30        42.49616
305.75        42.90871
306.20        43.24818
306.66        43.52648
307.11        43.73237
307.57        43.91268
308.02        44.04479
308.47        44.15168
308.93        44.24455
309.38        44.31118
309.83        44.38797
310.29        44.47933
310.74        44.57085
311.19        44.62754
311.65        44.58579
312.10        44.43223
312.55        44.19581
313.00        43.94984
313.46        43.80688
313.91        43.77769
314.36        43.83155
314.82        43.89372
315.27        43.86682
315.72        43.70744
316.18         43.4468
316.63        43.11904
317.08        42.79046
317.53        42.49173
317.99        42.22486
318.44        41.95749
318.89        41.64412
319.35        41.28207
319.80        40.88712
320.25        40.54772
320.70        40.40285
321.16        40.45304
321.61        40.66315
322.06        40.86522
322.51        40.79335
322.97        40.38356
323.42        39.72576
323.87         38.9784
324.32        38.39906
324.78         38.0514
325.23        37.88575
325.68        37.80563
326.13        37.65072
326.59        37.36671
327.04        37.02654
327.49        36.68798
327.94        36.45249
328.39        36.33637
328.85         36.2709
329.30        36.21806
329.75        36.06364
330.20        35.77996
330.66        35.41119
331.11        35.00072
331.56        34.58321
332.01        34.18512
332.46         33.7937
332.92         33.4495
333.37        33.26707
333.82        33.24755
334.27        33.36038
334.72        33.49934
335.17        33.48125
335.63        33.25031
336.08        32.86964
336.53        32.40451
336.98        31.99492
337.43        31.69866
337.88        31.47923
338.34        31.33224
338.79        31.26802
339.24        31.26542
339.69        31.33264
340.14         31.4104
340.59        31.39524
341.05        31.26387
341.50        31.03039
341.95        30.76551
342.40         30.5953
342.85        30.54433
343.30        30.57241
343.75        30.59699
344.20        30.48624
344.66        30.22571
345.11        29.86315
345.56        29.48335
346.01        29.21463
346.46        29.09633
346.91        29.08435
347.36        29.13766
347.81        29.19693
348.26        29.23083
348.72        29.24377
349.17        29.22215
349.62        29.14193
350.07        29.00021
350.52        28.80534
350.97        28.57051
351.42        28.31474
351.87        28.05863
352.32        27.81935
352.77        27.62412
353.22        27.51225
353.67        27.48751
354.13        27.52078
354.58        27.60344
355.03        27.72185
355.48        27.84699
355.93        27.96811
356.38        28.00544
356.83         27.8435
357.28        27.47894
357.73         26.9607
358.18        26.41164
358.63         26.0262
359.08        25.85157
359.53        25.83124
359.98        25.88076
360.43        25.85935
360.88        25.72212
361.33        25.51249
361.78         25.2598
362.23        25.00882
362.68        24.77994
363.13        24.55758
363.58        24.34455
364.03        24.15016
364.48        23.97696
364.93        23.82839
365.38        23.70715
365.83        23.61336
366.28        23.54089
366.73        23.48087
367.18        23.41647
367.63        23.32301
368.08        23.19348
368.53        23.03619
368.98        22.85626
369.43        22.66355
369.88        22.46889
370.33        22.27505
370.78        22.10165
371.23        21.97983
371.68        21.91256
372.13         21.8862
372.58        21.87573
373.03        21.83904
373.48        21.75908
373.93        21.64344
374.38        21.49074
374.83        21.30489
375.28        21.09784
375.72        20.86716
376.17        20.65458
376.62        20.47934
377.07        20.34356
377.52        20.23805
377.97         20.1538
378.42        20.07496
378.87        19.99626
379.32        19.92455
379.77        19.84911
380.22        19.75318
380.67        19.63391
381.11        19.49055
381.56        19.35145
382.01        19.26318
382.46        19.23614
382.91        19.25971
383.36        19.28823
383.81         19.2516
384.26        19.13616
384.71        18.95857
385.15         18.7683
385.60        18.67029
386.05        18.66992
386.50        18.73391
386.95        18.79181
387.40         18.7349
387.85        18.55081
388.29        18.27725
388.74        18.01069
389.19        17.82146
389.64        17.72588
390.09        17.68944
390.54        17.69633
390.98        17.71891
391.43        17.74609
391.88        17.78427
392.33        17.80006
392.78        17.76267
393.23        17.67517
393.67        17.50637
394.12        17.32085
394.57        17.32805
395.02         17.2867
395.47        17.37337
395.91        17.46558
396.36        17.47213
396.81        17.37726
397.26        17.21582
397.71        17.03463
398.15        16.89356
398.60        16.83194
399.05        16.79224
399.50        16.75443
399.95        16.76346
400.39        16.72415
400.84        16.64078
401.29        16.50933
401.74        16.42514
402.18        16.40211
402.63        16.37998
403.08        16.36388
403.53        16.37405
403.97        16.40676
404.42        16.46229
404.87        16.49854
405.32        16.44753
405.76        16.29869
406.21        16.07788
406.66        15.86643
407.11        15.79494
407.55        15.89199
408.00        16.11952
408.45        16.37054
408.90        16.45015
409.34        16.30898
409.79        16.00923
410.24         15.6891
410.68        15.55709
411.13         15.6587
411.58        15.92713
412.03        16.23909
412.47        16.38383
412.92        16.29196
413.37        16.04797
413.81        15.75244
414.26        15.57626
414.71        15.54795
415.15        15.61643
415.60        15.72158
416.05        15.78599
416.49        15.78137
416.94        15.74184
417.39        15.67896
417.83        15.60237
418.28        15.52689
418.73        15.44084
419.17        15.37039
419.62        15.36246
420.07        15.41924
420.51        15.52283
420.96         15.6308
421.41        15.66632
421.85        15.61011
422.30        15.50509
422.74        15.37707
423.19        15.28994
423.64        15.25252
424.08        15.25216
424.53        15.27312
424.98        15.31668
425.42        15.37749
425.87        15.44412
426.31        15.48959
426.76         15.4948
427.21        15.40347
427.65        15.25441
428.10        15.08155
428.54        14.91935
428.99        14.80131
429.44        14.81711
429.88        14.90771
430.33        14.79001
430.77        14.55518
431.22         14.6891
431.66        15.14376
432.11        15.36559
432.56        15.27209
433.00        15.20042
433.45        15.15634
433.89        14.82952
434.34        14.40812
434.78        14.45143
435.23        14.85171
435.67        14.96699
436.12          14.759
436.57        14.58155
437.01        14.50668
437.46        14.50378
437.90        14.58875
438.35        14.75701
438.79        14.94013
439.24        15.00577
439.68        14.95135
440.13        14.87558
440.57        14.79273
441.02        14.73565
441.46        14.72234
441.91        14.63314
442.35        14.51022
442.80        14.73184
443.24        15.15534
443.69        15.06529
444.13        14.53572
444.58        14.29446
445.02        14.35255
445.47        14.32854
445.91        14.21637
446.36        14.19264
446.80        14.25191
447.24        14.35324
447.69        14.46187
448.13        14.52199
448.58        14.52188
449.02        14.47751
449.47        14.42653
449.91        14.42026
450.36        14.47189
450.80        14.56184
451.25        14.65594
451.69        14.69891
452.13        14.67613
452.58        14.61302
453.02        14.53415
453.47        14.47725
453.91        14.44934
454.36        14.47889
454.80        14.47906
455.24        14.47852
455.69         14.4528
456.13        14.40987
456.58        14.36547
457.02         14.3282
457.46        14.30567
457.91        14.29193
458.35        14.28031
458.79         14.2676
459.24        14.26125
459.68        14.26922
460.13        14.29295
460.57          14.268
461.01        14.30254
461.46        14.25424
461.90        14.18822
462.34        14.28633
462.79        14.48628
463.23        14.47497
463.68        14.27133
464.12        14.17107
464.56        14.18647
465.01        14.17232
465.45        14.11816
465.89        14.07008
466.34        14.05317
466.78         14.1206
467.22        14.27745
467.67        14.30088
468.11         14.1881
468.55        14.02231
468.99        13.86962
469.44        13.79605
469.88        13.82054
470.32        13.92745
470.77        14.05893
471.21        14.13431
471.65         14.1248
472.10        14.06293
472.54        13.98494
472.98        13.96305
473.42        14.01149
473.87        14.10002
474.31        14.19272
474.75        14.23873
475.20        14.22986
475.64        14.18357
476.08        14.11891
476.52        14.05985
476.97        14.01819
477.41        13.98404
477.85        13.97239
478.29        14.00593
478.74         14.0882
479.18        14.20282
479.62        14.31451
480.06        14.40153
480.50        14.46222
480.95        14.37585
481.39        14.39036
481.83        14.41108
482.27        14.52326
482.72        14.58721
483.16        14.77528
483.60        14.86569
484.04        14.90065
484.48         14.9179
484.93        14.95591
485.37        14.97881
485.81        14.97547
486.25         15.1243
486.69        15.01219
487.14        15.06331
487.58        15.51396
488.02        15.58571
488.46        15.68402
488.90        16.01431
489.34        15.58802
489.79        15.62164
490.23        15.77239
490.67        16.04847
491.11        16.33307
491.55        16.30374
491.99         16.0531
492.43         16.0606
492.88        16.35469
493.32        16.63288
493.76        16.83501
494.20        17.03224
494.64        17.21065
495.08        17.34354
495.52        17.43416
495.96         17.5256
496.41        17.63289
496.85        17.67635
497.29        17.67686
497.73        17.91357
498.17        18.13504
498.61        18.23265
499.05        18.16893
499.49        18.20909
499.93        18.38278
500.37        18.61252
500.82        18.84264
501.26        18.98413
501.70        19.01986
502.14        19.00334
502.58        18.99632
503.02        19.07381
503.46        19.25532
503.90        19.51869
504.34        19.79941
504.78        19.98767
505.22        20.05219
505.66        20.02059
506.10        19.94148
506.54        19.91709
506.98        19.97695
507.42          20.052
507.86        20.09266
508.30        20.24807
508.74        20.13602
509.18         20.0808
509.62        20.01772
510.06        20.02304
510.50        20.11042
510.94        20.26212
511.38        20.43764
511.82        20.55996
512.26        20.60784
512.70        20.60099
513.14        20.57843
513.58        20.60202
514.02        20.68557
514.46        20.80709
514.90        20.92873
515.34        20.99069
515.78        20.97775
516.22        20.91057
516.66        20.82396
517.10        20.77107
517.54        20.76468
517.98        20.78617
518.42        20.80993
518.86        20.79523
519.30         20.7327
519.74        20.64133
520.18        20.53862
520.62        20.44743
521.06        20.37831
521.50        20.32846
521.93        20.30431
522.37        20.29544
522.81        20.29703
523.25        20.33206
523.69        20.40222
524.13        20.36146
524.57        20.44048
525.01        20.44851
525.45        20.43635
525.89        20.36999
526.32        20.24854
526.76         20.0863
527.20        19.91963
527.64        19.81114
528.08        19.77201
528.52        19.78566
528.96        19.81409
529.40        19.79497
529.83        19.71153
530.27        19.58454
530.71        19.44359
531.15        19.33862
531.59        19.28115
532.03        19.25294
532.46        19.22823
532.90        19.17356
533.34        19.08193
533.78        18.97375
534.22        18.86543
534.66        18.77877
535.09         18.7196
535.53        18.68359
535.97        18.67265
536.41        18.69675
536.85        18.75006
537.28        18.82502
537.72        18.89437
538.16        18.91763
538.60        18.88763
539.04        18.82184
539.47        18.73738
539.91        18.68032
540.35        18.66034
540.79        18.67321
541.22        18.72247
541.66        18.81546
542.10        18.94625
542.54        19.11184
542.97        19.29572
543.41        19.47213
543.85        19.63273
544.29        19.78528
544.72        19.92248
545.16        20.05085
545.60        20.17249
546.04        20.27722
546.47        20.38844
546.91         20.5755
547.35        20.82749
547.79        21.06201
548.22        21.24702
548.66        21.44787
549.10        21.66526
549.53        21.79266
549.97        21.81148
550.41        22.14164
550.84        22.12722
551.28        22.26419
551.72        22.35355
552.15         22.5891
552.59        22.68841
553.03         22.8761
553.46        23.06155
553.90        23.22853
554.34        23.36684
554.77        23.50496
555.21        23.64293
555.65        23.71769
556.08        23.75179
556.52         23.8601
556.96        24.03103
557.39         24.1898
557.83        24.32493
558.27        24.42384
558.70         24.5088
559.14         24.6447
559.57        24.81222
560.01        24.97204
560.45        25.09665
560.88        25.07483
561.32        25.06505
561.75        25.08378
562.19        25.17809
562.63        25.24405
563.06        25.28008
563.50        25.36349
563.93        25.47659
564.37        25.57952
564.80        25.66011
565.24         25.7353
565.68        25.81088
566.11        25.91524
566.55        26.05488
566.98        26.17091
567.42        26.28481
567.85        26.41487
568.29        26.57022
568.72        26.69084
569.16        27.04926
569.60        26.93869
570.03        27.25985
570.47        27.39942
570.90        27.59018
571.34        27.64126
571.77        27.88719
572.21        28.02676
572.64        28.11461
573.08        28.28464
573.51        28.61233
573.95        28.39212
574.38        28.76382
574.82        28.93813
