SpectraSmart Spectrum 2.9.0.0
--------- Device Information -----------
Spectrum Name :  反射率_0
Saving Time :  2024/04/30 00:58:30
Spectro-Module Model Name : SE2030-DUVN
Spectro-Module Serial Number : OS361AC55029948
Wavelength Start : 200
Wavelength End : 1025
Wavelength Unit : Wavelength(nm)
Spectrum Unit : Reflectance(%)
-----------Spectrum Setting ------------
Integration Time : 20ms
Average : 10
Boxcar : 0
Background removal :  enabled
linearity correction :  enabled
SC :  disabled
Intensity correction :  disabled
DWT denoise :  enabled
savitzky-golay :  disabled
FFT :  disabled
Running average :  disabled
Kalman :  disabled
High pass :  disabled
---------------BEGIN--------------------
Wavelength(nm)             Reflectance(%)
200.29               0
200.75        55.76773
201.21         46.7369
201.67        35.89788
202.13        25.34635
202.58        16.32606
203.04         8.29392
203.50        3.373426
203.96         6.11167
204.42        17.54432
204.88        36.24446
205.34        54.78412
205.80        61.90324
206.26        57.96322
206.72        49.25507
207.18        40.95354
207.64        36.39708
208.10        35.13112
208.55        35.54696
209.01        37.02904
209.47        38.84871
209.93         40.2874
210.39        41.78223
210.85        42.60214
211.31        41.91745
211.77        39.59222
212.23        35.00299
212.69          29.116
213.14        27.75229
213.60        32.67354
214.06        40.52067
214.52        47.01813
214.98        49.57545
215.44        48.94264
215.90        46.36981
216.36        43.31303
216.81        42.56955
217.27         45.7453
217.73        52.56012
218.19        63.09085
218.65        73.33244
219.11        78.44836
219.57        78.61056
220.02        75.79343
220.48        72.27451
220.94        67.85177
221.40        61.41984
221.86         53.1023
222.32        46.93221
222.77        45.64746
223.23        47.81163
223.69        50.44392
224.15        51.67741
224.61        51.64003
225.06        50.91956
225.52        50.16483
225.98        50.34338
226.44        51.51263
226.90         52.8321
227.36        53.95273
227.81        54.80701
228.27        55.51178
228.73         56.1276
229.19        56.48273
229.65        56.18608
230.10        55.30097
230.56        54.29006
231.02        53.31658
231.48        52.49854
231.93        51.69877
232.39        50.87323
232.85        50.09381
233.31        49.61567
233.77        49.50699
234.22        49.87249
234.68        50.16167
235.14        49.45516
235.60        47.68709
236.05        45.20166
236.51         43.1445
236.97        42.94992
237.43        44.97304
237.88        49.40751
238.34        55.34214
238.80        59.72636
239.26        60.31002
239.71        57.60683
240.17        53.56028
240.63        51.25773
241.08        51.61157
241.54        54.48221
242.00        60.26733
242.46        66.36965
242.91        68.75781
243.37        66.89725
243.83        63.32235
244.28        61.32934
244.74        61.35246
245.20         62.3714
245.66         64.4708
246.11        67.74104
246.57        72.11134
247.03         78.6094
247.48        84.89657
247.94         85.0612
248.40        79.91936
248.85        72.57845
249.31        68.02319
249.77        68.78851
250.22        74.97906
250.68        87.72202
251.14        105.9696
251.59        112.8924
252.05        99.49065
252.51        80.35966
252.96        65.97072
253.42        58.61497
253.88        55.40429
254.33        54.06427
254.79        54.11291
255.25        54.35408
255.70          54.221
256.16        54.42202
256.62        54.61071
257.07        54.47285
257.53        54.36158
257.99        54.10258
258.44        53.66096
258.90        53.67268
259.35        53.71399
259.81        53.84842
260.27        53.81054
260.72        53.41687
261.18        52.86404
261.63        52.04518
262.09         51.1118
262.55        49.95986
263.00        48.64863
263.46        47.44449
263.91        46.32805
264.37        45.52906
264.83        44.96364
265.28        44.50801
265.74        44.24593
266.19        44.08372
266.65        44.03344
267.11        44.03531
267.56        43.97643
268.02        43.70546
268.47        43.17225
268.93        42.43266
269.38        41.54722
269.84        40.74573
270.30        40.09552
270.75        39.56217
271.21        39.10369
271.66        38.60995
272.12        38.05498
272.57        37.44653
273.03        36.84748
273.48        36.26841
273.94        35.76879
274.39        35.28437
274.85        34.82586
275.31        34.33039
275.76        33.77077
276.22        33.20496
276.67        32.62001
277.13        32.09512
277.58        31.59874
278.04        31.15622
278.49        30.71746
278.95        30.30409
279.40         29.8764
279.86        29.51407
280.31        29.16466
280.77        28.86991
281.22        28.59273
281.68        28.34232
282.13        28.14899
282.59        28.11476
283.04        28.20259
283.50        28.36654
283.95        28.44456
284.41        28.21098
284.86        27.63571
285.32        26.86137
285.77         26.0291
286.22        25.40934
286.68        25.07109
287.13         24.8974
287.59        24.84789
288.04        24.79926
288.50        24.72159
288.95        24.62344
289.41        24.49235
289.86        24.26283
290.32        23.95959
290.77        23.59859
291.22        23.24177
291.68         22.9924
292.13        22.87402
292.59        22.88049
293.04        23.02911
293.50        23.36468
293.95        23.86809
294.40        24.52246
294.86        25.20348
295.31        25.73327
295.77        26.06728
296.22        26.24052
296.68        26.38004
297.13        26.67058
297.58        27.16105
298.04         27.7611
298.49        28.36938
298.95        28.82172
299.40        29.07676
299.85         29.2016
300.31         29.2591
300.76        29.28736
301.21          29.342
301.67        29.41593
302.12        29.51179
302.58        29.77378
303.03        30.19673
303.48        30.60556
303.94        30.90685
304.39        31.67642
304.84        31.67928
305.30        31.91519
305.75        32.04666
306.20        32.18069
306.66        32.33818
307.11         32.4889
307.57         32.6383
308.02        32.72325
308.47        32.74944
308.93        32.74446
309.38        32.71708
309.83        32.72605
310.29        32.78024
310.74        32.85582
311.19        32.91277
311.65        32.88338
312.10        32.75381
312.55        32.55272
313.00        32.33633
313.46         32.1904
313.91        32.12348
314.36        32.11093
314.82        32.11142
315.27        32.07752
315.72        31.98301
316.18        31.85575
316.63         31.6902
317.08        31.48794
317.53        31.26483
317.99        31.03061
318.44        30.81857
318.89        30.68732
319.35         30.6445
319.80        30.66692
320.25        30.72992
320.70        30.79172
321.16        30.82025
321.61        30.83779
322.06        30.80572
322.51        30.67489
322.97        30.44476
323.42        30.13677
323.87        29.81888
324.32        29.60556
324.78        29.51441
325.23        29.53165
325.68        29.58641
326.13          29.557
326.59        29.40344
327.04        29.17336
327.49        28.91747
327.94        28.73259
328.39        28.64044
328.85         28.5925
329.30        28.56482
329.75        28.47266
330.20        28.29693
330.66        28.07403
331.11        27.83527
331.56        27.60155
332.01        27.39058
332.46         27.1907
332.92        27.03347
333.37         27.0066
333.82        27.10967
334.27        27.31851
334.72        27.54194
335.17        27.62616
335.63        27.52773
336.08        27.29624
336.53        27.00093
336.98        26.78244
337.43        26.69028
337.88        26.68538
338.34        26.73399
338.79        26.80185
339.24        26.86249
339.69        26.93792
340.14        27.01096
340.59        27.04671
341.05        27.04324
341.50        27.00226
341.95        26.95711
342.40        26.97419
342.85        27.06077
343.30        27.18386
343.75        27.30154
344.20        27.34883
344.66        27.31519
345.11        27.22022
345.56        27.06917
346.01        26.86625
346.46        26.63758
346.91        26.39702
347.36        26.20342
347.81        26.14477
348.26        26.22695
348.72        26.41009
349.17        26.63261
349.62        26.78317
350.07        26.82064
350.52        26.77927
350.97        26.66127
351.42        26.47293
351.87        26.23779
352.32         25.9613
352.77        25.71798
353.22        25.62974
353.67        25.71663
354.13        25.93899
354.58        26.20681
355.03        26.37047
355.48        26.38109
355.93        26.27331
356.38         26.0891
356.83        25.89852
357.28        25.72635
357.73        25.55299
358.18        25.37113
358.63        25.17229
359.08        24.95902
359.53        24.74768
359.98        24.55469
360.43        24.39825
360.88        24.28135
361.33        24.19511
361.78        24.12507
362.23        24.04804
362.68        23.95816
363.13        23.86539
363.58        23.76927
364.03        23.67072
364.48        23.57006
364.93        23.45673
365.38        23.35182
365.83        23.29299
366.28        23.27954
366.73        23.29809
367.18        23.29135
367.63        23.16786
368.08        22.91539
368.53        22.56981
368.98        22.20549
369.43        21.94181
369.88        21.81606
370.33        21.79926
370.78        21.84347
371.23        21.86768
371.68        21.83903
372.13        21.76871
372.58        21.67976
373.03        21.61084
373.48        21.56472
373.93        21.52175
374.38        21.43391
374.83        21.23122
375.28        20.91727
375.72        20.53159
376.17        20.17102
376.62         19.9288
377.07        19.82386
377.52        19.81931
377.97        19.88196
378.42        19.95442
378.87        20.00682
379.32        20.05045
379.77        20.06027
380.22        20.00234
380.67        19.87286
381.11        19.67107
381.56         19.4479
382.01        19.29074
382.46        19.22652
382.91        19.24631
383.36        19.28461
383.81        19.23653
384.26        19.08367
384.71        18.85127
385.15        18.62803
385.60        18.57903
386.05         18.7122
386.50        18.96705
386.95        19.20383
387.40        19.20717
387.85        18.94934
388.29        18.51199
388.74        18.06287
389.19        17.77006
389.64         17.6695
390.09        17.69303
390.54        17.79144
390.98        17.87978
391.43        17.92709
391.88        17.96272
392.33        17.95695
392.78         17.8826
393.23        17.74851
393.67        17.51797
394.12        17.27684
394.57        17.26736
395.02        17.25359
395.47        17.40722
395.91        17.57291
396.36        17.59983
396.81         17.4625
397.26        17.21742
397.71        16.95912
398.15        16.81844
398.60        16.84126
399.05        16.93614
399.50        17.04086
399.95        17.14436
400.39        17.13642
400.84        17.04291
401.29        16.87025
401.74        16.73425
402.18        16.66429
402.63        16.59653
403.08        16.55524
403.53        16.59155
403.97        16.70102
404.42        16.86868
404.87        17.02654
405.32        17.06121
405.76        16.94734
406.21        16.72754
406.66        16.48049
407.11        16.33408
407.55        16.32627
408.00        16.42015
408.45         16.5554
408.90        16.61815
409.34        16.57423
409.79        16.46067
410.24        16.34708
410.68        16.33691
411.13        16.45135
411.58        16.65127
412.03        16.86024
412.47        16.95328
412.92         16.8873
413.37        16.71708
413.81         16.5118
414.26        16.39917
414.71         16.3969
415.15        16.47297
415.60        16.57824
416.05        16.65082
416.49         16.6672
416.94        16.64995
417.39        16.61105
417.83         16.5637
418.28        16.52085
418.73        16.47292
419.17        16.43081
419.62        16.41573
420.07        16.43029
420.51         16.4691
420.96        16.52024
421.41        16.55365
421.85        16.55721
422.30        16.55473
422.74        16.54544
423.19        16.55825
423.64        16.59075
424.08         16.6396
424.53        16.69084
424.98        16.75052
425.42        16.81676
425.87        16.87453
426.31        16.90258
426.76        16.89528
427.21        16.79742
427.65        16.65018
428.10         16.4877
428.54        16.34778
428.99        16.26422
429.44        16.31405
429.88        16.43256
430.33         16.3581
430.77        16.16469
431.22        16.28087
431.66        16.68588
432.11        16.93029
432.56        16.94403
433.00        17.00523
433.45        17.08644
433.89        16.84353
434.34        16.44331
434.78        16.45014
435.23        16.79276
435.67        16.89059
436.12        16.72111
436.57          16.621
437.01        16.63002
437.46        16.66171
437.90        16.71975
438.35        16.81916
438.79        16.93673
439.24         17.0068
439.68        17.04067
440.13        17.12018
440.57        17.20228
441.02        17.22284
441.46        17.18059
441.91        16.97954
442.35        16.72064
442.80        16.90484
443.24        17.38194
443.69        17.30793
444.13        16.75713
444.58        16.55205
445.02        16.69908
445.47        16.76423
445.91        16.71553
446.36        16.71982
446.80        16.76822
447.24        16.82262
447.69        16.88291
448.13        16.94976
448.58          17.021
449.02        17.09031
449.47        17.16235
449.91        17.23402
450.36        17.30342
450.80        17.36831
451.25        17.40843
451.69         17.3885
452.13        17.30632
452.58        17.18588
453.02        17.06089
453.47        16.98235
453.91        16.96033
454.36        17.03004
454.80        17.08488
455.24         17.1484
455.69        17.18544
456.13        17.20187
456.58         17.2116
457.02        17.22116
457.46          17.236
457.91        17.24695
458.35        17.24474
458.79        17.22646
459.24        17.20345
459.68        17.19059
460.13        17.19216
460.57        17.13504
461.01        17.15276
461.46        17.07773
461.90        16.99491
462.34         17.1337
462.79        17.42068
463.23        17.47298
463.68        17.29842
464.12        17.23321
464.56        17.28666
465.01        17.28684
465.45        17.22502
465.89        17.16471
466.34        17.14017
466.78        17.21399
467.22        17.39762
467.67         17.4287
468.11        17.30597
468.55        17.12988
468.99        16.97124
469.44        16.89389
469.88        16.91905
470.32        17.03312
470.77        17.17756
471.21        17.27137
471.65        17.28423
472.10        17.24679
472.54        17.19663
472.98        17.20968
473.42        17.29923
473.87        17.43439
474.31        17.56683
474.75        17.62947
475.20          17.613
475.64        17.53842
476.08        17.44519
476.52        17.38776
476.97         17.3842
477.41        17.41719
477.85        17.47762
478.29        17.54852
478.74        17.62655
479.18        17.70375
479.62        17.77316
480.06        17.86538
480.50        17.98284
480.95        17.95973
481.39        18.07363
481.83        18.12268
482.27        18.19377
482.72        18.28111
483.16        18.34876
483.60        18.40441
484.04        18.44289
484.48        18.40476
484.93        18.34262
485.37        18.50101
485.81        18.72442
486.25        18.71287
486.69        17.98778
487.14        18.05935
487.58        18.87277
488.02        19.01243
488.46        19.20121
488.90        19.42997
489.34        19.01642
489.79        18.99744
490.23        19.09645
490.67         19.3321
491.11        19.59559
491.55        19.60882
491.99        19.44002
492.43        19.49408
492.88        19.78566
493.32        20.04131
493.76         20.2145
494.20        20.39411
494.64        20.57492
495.08        20.72112
495.52        20.82861
495.96        20.94433
496.41        21.07996
496.85        21.11889
497.29        21.08622
497.73        21.35669
498.17        21.60928
498.61        21.62028
499.05        21.36382
499.49         21.2685
499.93        21.38077
500.37        21.55262
500.82        21.73495
501.26         21.8711
501.70        21.94188
502.14        21.99597
502.58        22.06804
503.02         22.1854
503.46         22.3565
503.90        22.57004
504.34        22.78888
504.78        22.95089
505.22        23.03736
505.66        23.06136
506.10        23.04405
506.54        23.04742
506.98         23.0916
507.42        23.11567
507.86        23.09273
508.30        23.24047
508.74        23.13271
509.18        23.12646
509.62        23.12148
510.06        23.16671
510.50        23.26608
510.94        23.40739
511.38        23.56648
511.82        23.69175
512.26         23.7664
512.70        23.80136
513.14        23.80929
513.58        23.81191
514.02        23.81867
514.46        23.82453
514.90        23.82928
515.34        23.83383
515.78          23.839
516.22        23.84709
516.66        23.86183
517.10        23.88621
517.54        23.91809
517.98        23.95368
518.42        23.98135
518.86        23.98321
519.30        23.95664
519.74        23.90913
520.18        23.85309
520.62        23.80739
521.06        23.77938
521.50        23.76636
521.93        23.76924
522.37        23.78023
522.81        23.79908
523.25        23.82617
523.69        23.85669
524.13        23.88431
524.57        23.90374
525.01        23.90836
525.45         23.8989
525.89        23.87915
526.32        23.84581
526.76         23.8069
527.20         23.7475
527.64        23.64635
528.08        23.50626
528.52          23.339
528.96        23.18126
529.40        23.08993
529.83        23.07449
530.27        23.11949
530.71        23.18354
531.15        23.20251
531.59        23.15886
532.03        23.07083
532.46        22.96248
532.90         22.8814
533.34        22.83882
533.78        22.82024
534.22        22.81103
534.66        22.78971
535.09        22.74863
535.53        22.70409
535.97        22.66205
536.41        22.63631
536.85        22.63007
537.28         22.6363
537.72        22.64937
538.16        22.66322
538.60        22.67498
539.04        22.68993
539.47         22.6991
539.91        22.71033
540.35        22.72066
540.79        22.73581
541.22        22.76716
541.66        22.83725
542.10        22.94633
542.54        23.08637
542.97        23.24326
543.41        23.39771
543.85        23.54125
544.29        23.68268
544.72         23.8081
545.16        23.91329
545.60        23.99858
546.04        24.05681
546.47         24.1189
546.91        24.27201
547.35        24.50709
547.79        24.72683
548.22        24.89718
548.66        25.09976
549.10        25.33345
549.53        25.46993
549.97        25.48145
550.41        25.84959
550.84        25.80495
551.28        25.92867
551.72        25.98775
552.15        26.20625
552.59        26.25934
553.03         26.4106
553.46        26.56322
553.90         26.7107
554.34        26.84395
554.77        26.99247
555.21        27.15087
555.65        27.23829
556.08        27.27629
556.52        27.39677
556.96        27.58461
557.39        27.75193
557.83        27.88449
558.27          27.967
558.70        28.02657
559.14        28.14106
559.57        28.29146
560.01        28.43623
560.45        28.54366
560.88        28.48573
561.32        28.44274
561.75        28.43233
562.19        28.51495
562.63        28.58446
563.06        28.63878
563.50        28.76085
563.93        28.91192
564.37        29.01824
564.80        29.06201
565.24        29.07295
565.68        29.08182
566.11        29.15612
566.55        29.30727
566.98        29.46824
567.42         29.6461
567.85         29.7958
568.29        29.90824
568.72        30.08368
569.16        30.38046
569.60        30.20787
570.03        30.49912
570.47         30.6645
570.90        30.86651
571.34        30.77251
571.77        31.03534
572.21        31.07824
572.64        31.09681
573.08        31.21846
573.51        31.50311
573.95        31.33797
574.38         31.9055
574.82        31.68738
