SpectraSmart Spectrum 2.9.0.0
--------- Device Information -----------
Spectrum Name :  反射率_0
Saving Time :  2024/04/30 01:17:37
Spectro-Module Model Name : SE2030-DUVN
Spectro-Module Serial Number : OS361AC55029948
Wavelength Start : 200
Wavelength End : 1025
Wavelength Unit : Wavelength(nm)
Spectrum Unit : Reflectance(%)
-----------Spectrum Setting ------------
Integration Time : 20ms
Average : 10
Boxcar : 0
Background removal :  enabled
linearity correction :  enabled
SC :  disabled
Intensity correction :  disabled
DWT denoise :  enabled
savitzky-golay :  disabled
FFT :  disabled
Running average :  disabled
Kalman :  disabled
High pass :  disabled
---------------BEGIN--------------------
Wavelength(nm)             Reflectance(%)
200.29               0
200.75        48.40132
201.21         35.2415
201.67        19.33771
202.13        8.401257
202.58        6.048481
203.04        11.42325
203.50         23.7124
203.96        39.95747
204.42        56.73486
204.88         72.7291
205.34        83.28045
205.80        83.21523
206.26        75.07359
206.72        63.99939
207.18        53.17163
207.64        43.66132
208.10        34.86768
208.55        25.64331
209.01        17.85371
209.47        16.97172
209.93        23.27122
210.39        33.41627
210.85        42.46981
211.31        46.64327
211.77        45.94665
212.23        40.47067
212.69         31.5698
213.14        27.71582
213.60        32.60624
214.06        41.62938
214.52        49.02224
214.98        51.01671
215.44        48.41306
215.90        43.03563
216.36        37.02809
216.81        34.44786
217.27        37.61446
217.73        46.15624
218.19         60.1412
218.65        74.09751
219.11        81.32732
219.57        81.85923
220.02        78.60606
220.48        74.86003
220.94        70.53207
221.40         64.3591
221.86         55.7181
222.32        47.34944
222.77        42.76532
223.23        41.99887
223.69        42.92375
224.15        43.88055
224.61        44.62104
225.06        45.43131
225.52        46.47538
225.98        47.40395
226.44        47.99087
226.90        48.24334
227.36         48.2507
227.81        48.15083
228.27        48.03785
228.73        47.83623
229.19        47.84394
229.65        48.50232
230.10        49.67382
230.56        51.13005
231.02        52.27355
231.48         52.6692
231.93         52.3187
232.39        51.39417
232.85        50.40982
233.31        50.39508
233.77        51.59547
234.22        53.89699
234.68        56.16455
235.14        56.35685
235.60          54.159
236.05        50.40918
236.51        46.93814
236.97        46.08758
237.43        48.46977
237.88        54.06002
238.34         62.1386
238.80        69.56614
239.26        73.46223
239.71        74.09433
240.17        72.46793
240.63        70.86825
241.08        70.14113
241.54        69.21386
242.00        68.47103
242.46        69.74659
242.91        74.49902
243.37        81.99521
243.83        89.00056
244.28        92.61189
244.74        92.74302
245.20        89.32708
245.66        83.56524
246.11         79.1787
246.57        78.26299
247.03         80.4879
247.48        83.68796
247.94        82.72116
248.40        78.02549
248.85        72.68022
249.31        69.49409
249.77        69.07678
250.22        71.42422
250.68        77.00114
251.14        86.26137
251.59        93.45708
252.05        92.83297
252.51        88.11308
252.96        84.02674
253.42        83.34576
253.88        85.05358
254.33        88.06402
254.79        91.11063
255.25        91.02239
255.70        87.78796
256.16         84.2221
256.62        81.56965
257.07        80.39684
257.53        80.82463
257.99         82.0617
258.44        83.16643
258.90        83.66447
259.35        83.01538
259.81        82.09653
260.27         81.2067
260.72        80.64567
261.18        80.61021
261.63        80.52338
262.09         80.2064
262.55        78.98499
263.00          76.906
263.46        74.65476
263.91        72.44711
264.37        70.94684
264.83        70.02941
265.28         69.3866
265.74        68.98067
266.19        68.46627
266.65        67.85555
267.11        67.19539
267.56        66.42612
268.02        65.48421
268.47        64.32537
268.93        62.97174
269.38        61.54562
269.84         60.4021
270.30        59.62025
270.75        59.10222
271.21        58.67104
271.66        57.98065
272.12        56.96588
272.57        55.68012
273.03        54.29132
273.48        52.97047
273.94        51.86495
274.39        50.86825
274.85        49.97717
275.31        49.05742
275.76        48.06044
276.22        47.08964
276.67        46.15744
277.13        45.41748
277.58        44.81139
278.04        44.33604
278.49        43.84349
278.95         43.2653
279.40         42.5269
279.86        41.75611
280.31        40.95383
280.77        40.27624
281.22        39.70429
281.68        39.24028
282.13        38.85854
282.59        38.60817
283.04        38.43348
283.50        38.33038
283.95        38.18097
284.41        37.84359
284.86        37.29078
285.32        36.63757
285.77         35.9604
286.22         35.4622
286.68         35.1945
287.13        35.04899
287.59        35.01568
288.04        35.00384
288.50        34.99728
288.95        34.97919
289.41        34.92619
289.86        34.73935
290.32        34.45109
290.77        34.09552
291.22        33.75733
291.68        33.56911
292.13         33.5621
292.59        33.72991
293.04        34.08904
293.50        34.70241
293.95        35.54288
294.40         36.5933
294.86        37.70443
295.31        38.65359
295.77        39.38498
296.22        39.93965
296.68        40.46367
297.13        41.17135
297.58        42.11542
298.04        43.18659
298.49        44.26288
298.95        45.16547
299.40        45.83673
299.85        46.35245
300.31        46.77261
300.76        47.11244
301.21        47.43634
301.67        47.75578
302.12        48.09306
302.58        48.62909
303.03        49.35176
303.48        50.12672
303.94        50.85509
304.39        51.86414
304.84         52.2651
305.30         52.7766
305.75         53.1649
306.20         53.5459
306.66        53.94997
307.11        54.32185
307.57        54.64996
308.02        54.81683
308.47        54.83896
308.93         54.7609
309.38        54.64702
309.83        54.65882
310.29        54.82759
310.74        55.09936
311.19        55.35049
311.65        55.37815
312.10        55.13956
312.55        54.71338
313.00        54.26905
313.46        54.07005
313.91        54.15551
314.36        54.43838
314.82        54.75462
315.27        54.86521
315.72        54.68943
316.18         54.3145
316.63        53.82753
317.08        53.37737
317.53        53.02779
317.99        52.75163
318.44        52.52479
318.89        52.32035
319.35        52.12287
319.80         51.9387
320.25        51.80105
320.70        51.75524
321.16        51.77832
321.61        51.86698
322.06        51.89475
322.51        51.67714
322.97        51.18327
323.42        50.48304
323.87        49.73676
324.32        49.20446
324.78        48.93549
325.23        48.88351
325.68        48.90733
326.13        48.76778
326.59        48.39021
327.04        47.87226
327.49         47.3133
327.94        46.89345
328.39        46.65283
328.85        46.49519
329.30        46.38291
329.75        46.17848
330.20        45.84541
330.66        45.44532
331.11        45.00066
331.56        44.49894
332.01        43.96476
332.46        43.39511
332.92        42.88692
333.37        42.67317
333.82        42.77517
334.27        43.12569
334.72        43.54326
335.17        43.71559
335.63        43.54173
336.08        43.12683
336.53        42.56783
336.98        42.07004
337.43        41.72047
337.88        41.45938
338.34        41.29718
338.79        41.27046
339.24        41.35484
339.69        41.55662
340.14        41.76982
340.59        41.80421
341.05        41.62354
341.50         41.2763
341.95        40.88181
342.40         40.6492
342.85        40.62181
343.30        40.71703
343.75        40.84848
344.20         40.8778
344.66        40.77144
345.11         40.5854
345.56        40.31997
346.01        39.96819
346.46        39.56563
346.91        39.12218
347.36        38.75703
347.81        38.65095
348.26        38.81866
348.72        39.19487
349.17        39.62263
349.62         39.8204
350.07        39.71061
350.52        39.38026
350.97        38.95555
351.42        38.63122
351.87        38.47052
352.32         38.4212
352.77        38.44659
353.22         38.4903
353.67        38.52373
354.13        38.55749
354.58         38.5988
355.03        38.65247
355.48        38.70449
355.93        38.73459
356.38         38.6883
356.83        38.49265
357.28        38.14761
357.73        37.69157
358.18        37.20797
358.63        36.82539
359.08        36.57859
359.53         36.4338
359.98         36.3436
360.43        36.22679
360.88        36.05645
361.33         35.8587
361.78        35.64412
362.23        35.42745
362.68        35.21784
363.13        35.00799
363.58        34.80503
364.03         34.6245
364.48        34.46819
364.93        34.33052
365.38        34.20663
365.83        34.08893
366.28        33.96899
366.73         33.8418
367.18        33.69487
367.63        33.50879
368.08        33.28152
368.53        33.02556
368.98         32.7503
369.43        32.47034
369.88        32.20084
370.33        31.94649
370.78        31.73113
371.23        31.59156
371.68        31.52755
372.13        31.51626
372.58        31.52158
373.03        31.48614
373.48        31.38369
373.93        31.22141
374.38        30.99237
374.83        30.69453
375.28        30.34891
375.72        29.96576
376.17        29.61028
376.62        29.31796
377.07        29.09725
377.52        28.93266
377.97        28.82673
378.42        28.78115
378.87        28.78261
379.32        28.82243
379.77        28.84817
380.22        28.78297
380.67        28.61397
381.11         28.3609
381.56        28.08343
382.01        27.88545
382.46         27.7995
382.91        27.80052
383.36        27.83747
383.81        27.83063
384.26        27.75633
384.71        27.63084
385.15        27.48645
385.60        27.40437
386.05        27.38218
386.50        27.39267
386.95        27.37434
387.40        27.23611
387.85        26.97752
388.29        26.63363
388.74        26.31673
389.19        26.09712
389.64        25.98911
390.09         25.9524
390.54         25.9708
390.98        26.01248
391.43        26.06373
391.88        26.12648
392.33          26.145
392.78        26.06662
393.23        25.89778
393.67        25.60187
394.12        25.28143
394.57        25.25372
395.02        25.17022
395.47        25.28451
395.91        25.42046
396.36        25.45011
396.81        25.34801
397.26        25.16542
397.71        24.95354
398.15        24.77697
398.60        24.68684
399.05        24.60069
399.50        24.51568
399.95        24.53833
400.39        24.53407
400.84        24.49983
401.29        24.38457
401.74        24.24744
402.18        24.09753
402.63        23.88336
403.08        23.68063
403.53        23.62217
403.97         23.7203
404.42        23.92983
404.87        24.15154
405.32        24.22433
405.76        24.10403
406.21        23.85052
406.66        23.54699
407.11        23.32742
407.55        23.23654
408.00        23.23218
408.45        23.26553
408.90        23.24528
409.34        23.14642
409.79         23.0046
410.24        22.88253
410.68        22.86772
411.13         22.9756
411.58        23.17042
412.03        23.37516
412.47        23.46634
412.92        23.39688
413.37        23.21526
413.81         22.9907
414.26        22.85982
414.71        22.83727
415.15        22.89247
415.60        22.96154
416.05        22.96101
416.49        22.87044
416.94        22.72533
417.39         22.5676
417.83        22.45595
418.28        22.41138
418.73        22.40428
419.17        22.42475
419.62        22.46194
420.07        22.50152
420.51        22.54425
420.96        22.56368
421.41        22.50623
421.85        22.36406
422.30        22.17917
422.74        21.98721
423.19        21.87685
423.64         21.8546
424.08        21.90599
424.53        21.98748
424.98        22.05555
425.42         22.0954
425.87        22.10522
426.31        22.08243
426.76        22.05757
427.21        21.96322
427.65        21.82945
428.10        21.68089
428.54          21.531
428.99        21.40772
429.44        21.45372
429.88        21.57338
430.33        21.33695
430.77        20.89039
431.22        20.94591
431.66        21.45941
432.11        21.72579
432.56        21.65218
433.00        21.64188
433.45        21.67996
433.89        21.42092
434.34        21.02495
434.78        21.00681
435.23        21.28877
435.67         21.3261
436.12        21.09985
436.57        20.91405
437.01        20.82845
437.46        20.80907
437.90         20.8661
438.35        20.99999
438.79        21.15165
439.24        21.19234
439.68        21.12901
440.13        21.08187
440.57        21.03976
441.02        20.99204
441.46        20.95267
441.91         20.7778
442.35        20.54782
442.80         20.8228
443.24        21.40767
443.69        21.28141
444.13        20.55734
444.58        20.27669
445.02        20.45386
445.47        20.53964
445.91        20.49221
446.36        20.51383
446.80        20.58729
447.24        20.66664
447.69        20.73297
448.13        20.75432
448.58        20.72863
449.02        20.66453
449.47        20.60069
449.91        20.58405
450.36        20.62837
450.80        20.71885
451.25        20.81516
451.69        20.84661
452.13        20.79742
452.58        20.69657
453.02        20.58549
453.47        20.52761
453.91        20.53166
454.36        20.63387
454.80        20.69034
455.24        20.71064
455.69        20.65498
456.13        20.54624
456.58        20.43072
457.02        20.35862
457.46        20.34973
457.91        20.38553
458.35        20.43877
458.79        20.48109
459.24        20.51404
459.68        20.55532
460.13        20.61468
460.57        20.61479
461.01        20.71203
461.46         20.6964
461.90         20.6443
462.34        20.79947
462.79        21.06871
463.23        21.00443
463.68        20.65999
464.12        20.49941
464.56        20.54813
465.01         20.5849
465.45        20.57383
465.89        20.55212
466.34        20.54992
466.78        20.65219
467.22        20.88094
467.67        20.93469
468.11        20.81366
468.55        20.62804
468.99        20.45263
469.44        20.35191
469.88        20.34999
470.32         20.4378
470.77        20.55461
471.21        20.61467
471.65        20.59004
472.10         20.5173
472.54        20.44515
472.98        20.46692
473.42        20.59722
473.87        20.79696
474.31         21.0024
474.75        21.12519
475.20        21.14877
475.64        21.09656
476.08        21.01192
476.52        20.95624
476.97        20.95032
477.41        20.97354
477.85        21.01895
478.29        21.07302
478.74         21.1335
479.18          21.196
479.62        21.26298
480.06        21.33331
480.50        21.40818
480.95        21.38978
481.39        21.62982
481.83        21.45562
482.27        21.76715
482.72        21.77663
483.16        21.96766
483.60        22.07796
484.04        22.17051
484.48         22.2829
484.93        22.43744
485.37        22.51585
485.81        22.49431
486.25         22.7713
486.69        22.58641
487.14        22.65917
487.58        22.97171
488.02        23.05177
488.46        23.68656
488.90        23.80715
489.34        23.14381
489.79        23.19653
490.23        23.48595
490.67        23.85912
491.11         24.0973
491.55        24.08889
491.99        23.92158
492.43        24.00173
492.88        24.35472
493.32        24.69196
493.76        24.94433
494.20        25.17951
494.64        25.38349
495.08        25.52156
495.52        25.61003
495.96        25.72458
496.41        25.88393
496.85        25.98903
497.29        26.03336
497.73        26.30733
498.17        26.45966
498.61        26.50121
499.05        26.38412
499.49        26.36704
499.93        26.49502
500.37        26.73298
500.82        27.02234
501.26        27.22426
501.70        27.31266
502.14        27.36753
502.58        27.42895
503.02        27.52634
503.46        27.67449
503.90        27.86222
504.34        28.06191
504.78        28.22745
505.22        28.34304
505.66        28.41704
506.10        28.45575
506.54        28.50316
506.98        28.57328
507.42        28.59532
507.86        28.54766
508.30        28.72087
508.74        28.59148
509.18        28.59087
509.62        28.58091
510.06        28.60002
510.50        28.65147
510.94        28.73497
511.38        28.83582
511.82        28.91445
512.26        28.96099
512.70        28.98168
513.14        28.99804
513.58        29.04453
514.02        29.12782
514.46         29.2375
514.90        29.34228
515.34        29.39275
515.78        29.37827
516.22        29.31293
516.66         29.2383
517.10        29.21918
517.54        29.26766
517.98        29.36257
518.42        29.45672
518.86        29.47354
519.30        29.39756
519.74        29.25846
520.18        29.10327
520.62        29.00186
521.06        28.97575
521.50        29.00721
521.93        29.07229
522.37        29.12215
522.81        29.14252
523.25         29.1413
523.69        29.13779
524.13        29.15492
524.57         29.1927
525.01        29.25043
525.45         29.2948
525.89        29.20746
526.32        29.08726
526.76        28.87811
527.20        28.66185
527.64        28.51124
528.08        28.44487
528.52        28.44121
528.96        28.46249
529.40        28.44958
529.83         28.3844
530.27        28.28953
530.71        28.18773
531.15         28.1179
531.59        28.08852
532.03        28.08209
532.46        28.07815
532.90        28.05668
533.34        28.01078
533.78        27.95548
534.22        27.89665
534.66        27.84166
535.09        27.79169
535.53        27.74679
535.97        27.71832
536.41        27.73262
536.85        27.78902
537.28        27.87881
537.72        27.96141
538.16        27.97295
538.60        27.90471
539.04        27.78314
539.47        27.65219
539.91        27.60458
540.35         27.6536
540.79        27.78027
541.22        27.94945
541.66         28.1086
542.10        28.23652
542.54        28.34797
542.97        28.46023
543.41         28.6048
543.85        28.78487
544.29        28.99177
544.72        29.18525
545.16        29.32518
545.60        29.40325
546.04        29.42353
546.47        29.44187
546.91        29.59133
547.35        29.86772
547.79        30.14319
548.22        30.35978
548.66        30.59354
549.10        30.83791
549.53        30.94557
549.97        30.89831
550.41        31.30493
550.84        31.23954
551.28        31.39677
551.72        31.48093
552.15        31.74307
552.59        31.78344
553.03        31.92626
553.46        32.06164
553.90        32.19283
554.34        32.31263
554.77         32.4555
555.21         32.6076
555.65        32.66228
556.08        32.64573
556.52        32.71962
556.96        32.88182
557.39        33.04874
557.83        33.20581
558.27         33.3331
558.70        33.43732
559.14         33.5589
559.57        33.67281
560.01         33.7696
560.45        33.83436
560.88         33.7229
561.32        33.64948
561.75        33.65719
562.19        33.79971
562.63        33.85751
563.06        33.80959
563.50        34.01247
563.93        34.02559
564.37        34.14333
564.80        34.22628
565.24        34.30193
565.68        34.37282
566.11        34.47596
566.55        34.61771
566.98          34.731
567.42        34.84838
567.85        34.95288
568.29        35.04815
568.72        35.24175
569.16        35.58195
569.60        35.38912
570.03        35.75434
570.47        35.91387
570.90        36.04254
571.34        36.14684
571.77        36.33587
572.21        36.51297
572.64        36.67255
573.08        36.76279
573.51        36.82446
573.95        36.90805
574.38        36.94973
574.82        37.15524
