SpectraSmart Spectrum 2.9.0.0
--------- Device Information -----------
Spectrum Name :  反射率_0
Saving Time :  2024/04/30 01:15:03
Spectro-Module Model Name : SE2030-DUVN
Spectro-Module Serial Number : OS361AC55029948
Wavelength Start : 200
Wavelength End : 1025
Wavelength Unit : Wavelength(nm)
Spectrum Unit : Reflectance(%)
-----------Spectrum Setting ------------
Integration Time : 20ms
Average : 10
Boxcar : 0
Background removal :  enabled
linearity correction :  enabled
SC :  disabled
Intensity correction :  disabled
DWT denoise :  enabled
savitzky-golay :  disabled
FFT :  disabled
Running average :  disabled
Kalman :  disabled
High pass :  disabled
---------------BEGIN--------------------
Wavelength(nm)             Reflectance(%)
200.29               0
200.75        29.66977
201.21        16.54348
201.67       0.2213097
202.13         -10.949
202.58       -13.26812
203.04       -8.033109
203.50        2.752508
203.96        14.27063
204.42        22.98911
204.88         29.2519
205.34        32.19583
205.80        31.17467
206.26        27.78748
206.72        23.74395
207.18        19.49317
207.64        14.86799
208.10        9.699534
208.55         3.51402
209.01       -1.556933
209.47      -0.3172219
209.93        7.056888
210.39        17.21272
210.85        25.49992
211.31        28.27737
211.77        25.46885
212.23        16.94545
212.69         4.04567
213.14       -2.963436
213.60        1.603743
214.06        12.20717
214.52         22.0595
214.98        26.87963
215.44        27.40693
215.90        25.59303
216.36         23.0257
216.81        22.41036
217.27        25.46066
217.73        31.84847
218.19        41.39226
218.65        50.12211
219.11         53.8165
219.57        52.95046
220.02        50.28474
220.48        48.56675
220.94        47.68058
221.40        46.77577
221.86         44.7418
222.32        40.25854
222.77        34.87477
223.23        31.14074
223.69        28.91479
224.15        27.42695
224.61        26.27154
225.06        25.13103
225.52        25.09856
225.98        27.61182
226.44        31.93505
226.90         36.5819
227.36         39.9677
227.81        41.25745
228.27        40.82533
228.73        38.94352
229.19        36.75254
229.65        36.52736
230.10        38.50359
230.56        41.52895
231.02        43.92716
231.48         44.2375
231.93        42.52134
232.39        39.36791
232.85        35.96514
233.31        34.59082
233.77        35.89702
234.22        39.32116
234.68         43.1979
235.14        44.43138
235.60        42.28555
236.05        37.97984
236.51        33.47145
236.97        31.18436
237.43        31.70207
237.88         34.5756
238.34        39.40699
238.80         44.5374
239.26         48.1133
239.71        50.31463
240.17        50.78693
240.63        49.64093
241.08        46.89272
241.54        41.14295
242.00        32.05724
242.46        24.75504
242.91        26.25863
243.37        36.68777
243.83        49.90614
244.28        59.01347
244.74        63.27212
245.20        64.34783
245.66        61.81341
246.11        55.29156
246.57        45.62436
247.03        32.20007
247.48        19.43582
247.94        17.15435
248.40        24.96207
248.85        36.23946
249.31        45.45823
249.77        49.67854
250.22        49.64171
250.68        46.03675
251.14        38.25539
251.59        30.74905
252.05        29.47935
252.51        31.92496
252.96        34.76669
253.42          36.925
253.88        38.58072
254.33        40.13971
254.79        42.17825
255.25        44.21531
255.70        45.61268
256.16        46.68097
256.62        47.12255
257.07          46.776
257.53        46.13126
257.99        45.15199
258.44        44.27979
258.90        44.67548
259.35        45.74585
259.81        47.07291
260.27        47.89566
260.72        47.61278
261.18        46.53574
261.63        44.87748
262.09        43.13263
262.55        41.66627
263.00        40.56275
263.46        39.82475
263.91        39.21095
264.37        38.66182
264.83         38.0745
265.28        37.42012
265.74        36.90228
266.19        36.62182
266.65        36.61469
267.11        36.76582
267.56        36.81947
268.02        36.40971
268.47        35.47352
268.93         34.1432
269.38        32.68682
269.84        31.68827
270.30        31.28412
270.75        31.29883
271.21        31.44443
271.66        31.27913
272.12        30.69949
272.57        29.83674
273.03        28.87386
273.48        28.02009
273.94        27.40563
274.39        26.92092
274.85        26.54701
275.31        26.20862
275.76        25.85813
276.22        25.53382
276.67        25.21437
277.13        24.93421
277.58        24.65189
278.04        24.38548
278.49        24.05249
278.95        23.61607
279.40         23.0516
279.86         22.4534
280.31        21.87228
280.77         21.4834
281.22        21.28114
281.68        21.22907
282.13        21.25528
282.59        21.29319
283.04        21.29215
283.50         21.2501
283.95        21.13418
284.41        20.89908
284.86        20.54555
285.32         20.1372
285.77        19.67726
286.22        19.22857
286.68        18.82986
287.13        18.44372
287.59        18.16155
288.04        18.07048
288.50         18.1748
288.95        18.40924
289.41        18.63991
289.86        18.63825
290.32        18.39007
290.77         17.9751
291.22        17.52572
291.68        17.25568
292.13        17.21855
292.59        17.35464
293.04         17.6505
293.50        18.10242
293.95        18.67991
294.40        19.39023
294.86         20.0997
295.31        20.61028
295.77         20.8844
296.22        20.96606
296.68         21.0344
297.13        21.35986
297.58        22.00417
298.04        22.84845
298.49        23.72924
298.95        24.37828
299.40        24.73227
299.85        24.89001
300.31        24.95276
300.76         25.0265
301.21        25.17759
301.67         25.3602
302.12        25.56752
302.58        25.93021
303.03        26.43662
303.48        26.91695
303.94        27.23848
304.39        27.95741
304.84        27.77645
305.30        27.77021
305.75        27.67376
306.20        27.73465
306.66        27.98961
307.11           28.36
307.57        28.74342
308.02        28.92381
308.47        28.87297
308.93        28.66862
309.38        28.39615
309.83        28.23157
310.29        28.21771
310.74        28.29729
311.19        28.38597
311.65        28.34952
312.10        28.15928
312.55        27.86814
313.00        27.56474
313.46        27.38136
313.91        27.33364
314.36         27.3719
314.82         27.4184
315.27        27.37127
315.72        27.18934
316.18        26.91778
316.63        26.57597
317.08        26.20516
317.53        25.83598
317.99         25.4696
318.44        25.13408
318.89        24.87664
319.35        24.70411
319.80        24.60402
320.25        24.55449
320.70        24.51486
321.16        24.45438
321.61        24.38572
322.06        24.27889
322.51        24.10024
322.97        23.84772
323.42        23.53507
323.87        23.19974
324.32        22.90725
324.78        22.66712
325.23        22.47565
325.68        22.30408
326.13        22.10405
326.59        21.86248
327.04        21.61259
327.49        21.36768
327.94        21.15583
328.39         20.9802
328.85        20.81179
329.30        20.66679
329.75        20.54566
330.20         20.4458
330.66        20.37121
331.11         20.2788
331.56        20.08069
332.01        19.76343
332.46        19.34124
332.92        18.91181
333.37        18.66803
333.82        18.65281
334.27        18.82045
334.72        19.02523
335.17        19.01756
335.63        18.73381
336.08        18.25147
336.53        17.71395
336.98        17.37742
337.43        17.31584
337.88         17.4453
338.34        17.64819
338.79        17.76016
339.24        17.72102
339.69        17.59345
340.14        17.41796
340.59        17.25956
341.05        17.14824
341.50        17.04927
341.95        16.97711
342.40        16.96678
342.85        17.01196
343.30        17.10174
343.75        17.17192
344.20        17.11636
344.66        16.92569
345.11        16.62854
345.56        16.29562
346.01        16.04058
346.46        15.90211
346.91         15.8499
347.36        15.85554
347.81        15.87479
348.26        15.88575
348.72        15.89663
349.17        15.89731
349.62        15.87361
350.07        15.82278
350.52        15.74821
350.97        15.64962
351.42        15.52907
351.87        15.39762
352.32        15.26578
352.77        15.16427
353.22        15.13971
353.67        15.19776
354.13        15.31538
354.58        15.46079
355.03        15.58491
355.48        15.66221
355.93         15.6975
356.38        15.67777
356.83        15.58722
357.28        15.43345
357.73        15.22955
358.18        15.00996
358.63        14.83026
359.08        14.70655
359.53        14.62495
359.98        14.57722
360.43        14.54495
360.88         14.5165
361.33        14.49773
361.78         14.4651
362.23        14.38094
362.68        14.24354
363.13         14.0653
363.58        13.88589
364.03         13.7713
364.48        13.73381
364.93        13.74807
365.38        13.78278
365.83        13.78671
366.28        13.74186
366.73        13.66585
367.18        13.55762
367.63        13.41491
368.08        13.24633
368.53        13.05484
368.98         12.8733
369.43        12.75589
369.88        12.71458
370.33        12.73627
370.78         12.7853
371.23            12.8
371.68        12.75928
372.13        12.67366
372.58        12.56367
373.03        12.46606
373.48        12.38811
373.93        12.31406
374.38        12.22445
374.83        12.09099
375.28        11.91538
375.72        11.71735
376.17         11.5309
376.62        11.37323
377.07        11.25066
377.52        11.15269
377.97        11.09239
378.42        11.09077
378.87        11.14445
379.32        11.24433
379.77        11.34137
380.22        11.36522
380.67        11.30112
381.11        11.15901
381.56        10.99936
382.01         10.9211
382.46        10.94755
382.91        11.05504
383.36        11.16421
383.81        11.15259
384.26        11.00278
384.71        10.75685
385.15        10.51046
385.60        10.43445
386.05        10.54658
386.50         10.7822
386.95        11.03314
387.40        11.13104
387.85        11.04187
388.29        10.82659
388.74        10.57759
389.19        10.37791
389.64        10.25538
390.09        10.17686
390.54        10.15144
390.98        10.19494
391.43        10.29826
391.88        10.45319
392.33        10.60065
392.78        10.66629
393.23        10.64157
393.67         10.5209
394.12        10.37129
394.57        10.35996
395.02        10.35303
395.47        10.44568
395.91        10.54269
396.36        10.55011
396.81        10.45312
397.26        10.28851
397.71        10.11711
398.15        10.01979
398.60        10.02669
399.05        10.08382
399.50        10.14658
399.95        10.19632
400.39         10.1673
400.84        10.07926
401.29        9.953244
401.74         9.88862
402.18        9.906189
402.63        9.950924
403.08        10.01309
403.53        10.08788
403.97        10.16345
404.42        10.24345
404.87         10.2887
405.32        10.23518
405.76        10.07607
406.21        9.838444
406.66        9.598339
407.11        9.476709
407.55        9.503046
408.00        9.645979
408.45         9.82553
408.90        9.893669
409.34        9.809014
409.79         9.61772
410.24        9.414321
410.68        9.342003
411.13          9.4322
411.58        9.636596
412.03        9.863641
412.47        9.960207
412.92        9.876406
413.37        9.673722
413.81        9.435428
414.26        9.301387
414.71        9.293481
415.15        9.372186
415.60        9.475772
416.05        9.519125
416.49        9.475075
416.94        9.378052
417.39        9.259853
417.83        9.164909
418.28        9.114573
418.73         9.08995
419.17        9.086844
419.62        9.100422
420.07        9.124723
420.51        9.160345
420.96        9.198694
421.41        9.220396
421.85        9.217387
422.30        9.202312
422.74        9.174806
423.19        9.152699
423.64        9.136305
424.08        9.127149
424.53        9.117918
424.98        9.118206
425.42        9.128265
425.87        9.134969
426.31        9.129954
426.76        9.115778
427.21         9.06007
427.65        8.987644
428.10        8.896204
428.54        8.766603
428.99        8.619273
429.44         8.51953
429.88        8.473416
430.33        8.386041
430.77        8.313456
431.22        8.504453
431.66         8.89411
432.11        9.079721
432.56        8.988913
433.00        8.841681
433.45        8.677086
433.89        8.383251
434.34        8.101577
434.78        8.125288
435.23         8.37729
435.67        8.474235
436.12        8.382642
436.57        8.310046
437.01        8.296962
437.46        8.321843
437.90        8.391265
438.35        8.498843
438.79        8.602036
439.24        8.620517
439.68        8.554303
440.13        8.461715
440.57        8.362576
441.02        8.297624
441.46        8.282263
441.91         8.24611
442.35           8.196
442.80        8.320719
443.24         8.53552
443.69        8.443098
444.13        8.108183
444.58        7.971482
445.02        8.041492
445.47        8.093301
445.91        8.094621
446.36        8.104128
446.80        8.111397
447.24        8.110924
447.69        8.104148
448.13        8.095577
448.58        8.088069
449.02        8.078134
449.47        8.083023
449.91        8.126478
450.36        8.208258
450.80        8.319048
451.25        8.421101
451.69        8.456302
452.13        8.412061
452.58        8.312219
453.02        8.194128
453.47        8.119975
453.91        8.103947
454.36        8.151937
454.80        8.198647
455.24        8.231146
455.69        8.227713
456.13        8.202191
456.58        8.172948
457.02         8.15837
457.46        8.165748
457.91        8.182122
458.35        8.200094
458.79        8.210956
459.24        8.218678
459.68        8.232039
460.13        8.250981
460.57        8.231899
461.01        8.240797
461.46        8.195817
461.90        8.150987
462.34        8.231853
462.79        8.406188
463.23         8.48568
463.68        8.454221
464.12        8.449529
464.56            8.47
465.01        8.437496
465.45        8.365124
465.89        8.309711
466.34        8.292233
466.78        8.337038
467.22        8.429484
467.67        8.408605
468.11        8.268827
468.55        8.073925
468.99        7.892863
469.44        7.807833
469.88        7.838763
470.32        7.964519
470.77        8.122663
471.21        8.223938
471.65        8.235847
472.10         8.18945
472.54        8.123742
472.98        8.113008
473.42         8.17274
473.87        8.272905
474.31        8.375521
474.75        8.422852
475.20        8.406319
475.64        8.347496
476.08        8.276952
476.52        8.237955
476.97        8.242924
477.41        8.273556
477.85        8.323818
478.29        8.382708
478.74        8.444441
479.18        8.509668
479.62        8.559755
480.06        8.587025
480.50        8.594394
480.95        8.506429
481.39        8.482821
481.83        8.494697
482.27         8.59657
482.72        8.697495
483.16         8.87465
483.60        8.962152
484.04        8.974219
484.48        8.936994
484.93        8.908772
485.37         8.97105
485.81        9.045309
486.25        9.316948
486.69        8.748657
487.14        8.981874
487.58        9.670707
488.02        9.580173
488.46        9.642016
488.90        9.759266
489.34        9.309452
489.79        9.318069
490.23        9.478136
490.67        9.692689
491.11        9.867947
491.55        9.887965
491.99        9.806555
492.43        9.873473
492.88         10.0989
493.32        10.29536
493.76        10.43026
494.20        10.56657
494.64        10.70135
495.08        10.81163
495.52        10.89278
495.96        10.97052
496.41        11.05349
496.85        11.07246
497.29        11.05862
497.73        11.25852
498.17        11.49848
498.61        11.59872
499.05        11.52625
499.49        11.53279
499.93        11.63844
500.37        11.73917
500.82         11.8233
501.26        11.90207
501.70         11.9725
502.14        12.05013
502.58        12.13896
503.02        12.23041
503.46        12.32382
503.90        12.42109
504.34        12.51972
504.78        12.61334
505.22        12.69811
505.66        12.77305
506.10        12.82729
506.54        12.85976
506.98        12.87465
507.42        12.84952
507.86        12.79525
508.30        12.87366
508.74        12.85755
509.18        12.92978
509.62        13.01036
510.06        13.08879
510.50        13.15773
510.94        13.22359
511.38        13.28757
511.82        13.34484
512.26        13.39396
512.70        13.43142
513.14        13.46113
513.58        13.49143
514.02        13.52469
514.46        13.56137
514.90        13.59321
515.34        13.60567
515.78        13.59771
516.22        13.57467
516.66        13.55307
517.10        13.55915
517.54         13.5948
517.98        13.64646
518.42        13.69428
518.86        13.70612
519.30        13.67433
519.74        13.61432
520.18        13.53268
520.62         13.4381
521.06        13.34085
521.50        13.24207
521.93         13.1674
522.37        13.15436
522.81        13.20776
523.25        13.31115
523.69        13.42718
524.13        13.49836
524.57        13.50717
525.01        13.46488
525.45        13.38754
525.89        13.30586
526.32        13.23065
526.76        13.15765
527.20        13.08279
527.64         13.0002
528.08        12.91088
528.52        12.82392
528.96        12.74718
529.40        12.68932
529.83        12.65205
530.27        12.63224
530.71         12.6235
531.15        12.61901
531.59        12.61212
532.03        12.59861
532.46        12.57488
532.90        12.53956
533.34        12.49368
533.78        12.44482
534.22        12.38761
534.66        12.31308
535.09        12.22406
535.53        12.12906
535.97        12.05847
536.41        12.06443
536.85        12.15074
537.28        12.29598
537.72        12.44699
538.16        12.52315
538.60        12.50583
539.04        12.42446
539.47        12.31265
539.91        12.23701
540.35        12.21491
540.79        12.23266
541.22        12.28704
541.66        12.37486
542.10        12.48758
542.54        12.62684
542.97        12.78016
543.41        12.92403
543.85        13.05273
544.29        13.17171
544.72        13.27681
545.16        13.37659
545.60        13.47368
546.04        13.56092
546.47        13.65641
546.91        13.80998
547.35         14.0142
547.79        14.21221
548.22        14.37815
548.66        14.54939
549.10        14.72552
549.53        14.83477
549.97        14.86756
550.41        15.11446
550.84         15.1284
551.28        15.24609
551.72        15.32763
552.15         15.5008
552.59        15.57049
553.03        15.69299
553.46        15.81102
553.90        15.92009
554.34         16.0154
554.77        16.11507
555.21        16.21583
555.65        16.26696
556.08        16.28317
556.52        16.34762
556.96        16.45852
557.39        16.57404
557.83        16.68853
558.27        16.79012
558.70        16.88857
559.14        17.01906
559.57        17.16466
560.01        17.29791
560.45         17.4024
560.88        17.40579
561.32        17.41798
561.75         17.4479
562.19        17.52422
562.63        17.56749
563.06        17.57694
563.50         17.6119
563.93        17.66701
564.37        17.72399
564.80        17.77845
565.24        17.84033
565.68        17.91417
566.11        18.01815
566.55        18.15309
566.98         18.2842
567.42        18.42264
567.85        18.55354
568.29         18.6772
568.72        18.83876
569.16        19.07761
569.60         19.0382
570.03        19.31672
570.47        19.43879
570.90        19.55568
571.34        19.71671
571.77        19.81516
572.21        19.93239
572.64        20.02538
573.08        20.12425
573.51        20.27577
573.95        20.30456
574.38        20.67443
574.82        20.70467
