SpectraSmart Spectrum 2.9.0.0
--------- Device Information -----------
Spectrum Name :  反射率_0
Saving Time :  2024/04/30 00:58:54
Spectro-Module Model Name : SE2030-DUVN
Spectro-Module Serial Number : OS361AC55029948
Wavelength Start : 200
Wavelength End : 1025
Wavelength Unit : Wavelength(nm)
Spectrum Unit : Reflectance(%)
-----------Spectrum Setting ------------
Integration Time : 20ms
Average : 10
Boxcar : 0
Background removal :  enabled
linearity correction :  enabled
SC :  disabled
Intensity correction :  disabled
DWT denoise :  enabled
savitzky-golay :  disabled
FFT :  disabled
Running average :  disabled
Kalman :  disabled
High pass :  disabled
---------------BEGIN--------------------
Wavelength(nm)             Reflectance(%)
200.29               0
200.75        62.97673
201.21        55.07254
201.67        45.88498
202.13        37.41492
202.58         30.8542
203.04        25.85642
203.50        24.19729
203.96        29.53425
204.42        42.04924
204.88        59.59958
205.34        75.02106
205.80        78.30903
206.26        70.91363
206.72        59.71878
207.18        49.03655
207.64        40.95931
208.10         34.8581
208.55         29.0157
209.01        24.65653
209.47        25.50642
209.93        31.28885
210.39        39.76753
210.85        46.75337
211.31        48.77438
211.77         45.6685
212.23        36.95188
212.69        24.47651
213.14        19.64523
213.60        27.46223
214.06        41.28319
214.52        52.85796
214.98        57.03618
215.44        54.95173
215.90        48.88317
216.36        41.62292
216.81        38.44186
217.27        42.20963
217.73        52.66245
218.19          69.142
218.65         83.4826
219.11        88.10343
219.57        84.72861
220.02        78.78129
220.48        75.06168
220.94        73.29299
221.40        72.11577
221.86        69.58666
222.32        63.10906
222.77        54.73967
223.23        48.41152
223.69        44.99487
224.15        44.16782
224.61        45.27431
225.06        47.96616
225.52        52.01456
225.98        55.69709
226.44        57.81258
226.90        58.66983
227.36        58.96318
227.81        59.44881
228.27        60.32542
228.73        61.28056
229.19        62.05982
229.65        62.11261
230.10         61.4049
230.56        60.61594
231.02        59.79993
231.48        58.93914
231.93        57.94834
232.39        56.80182
232.85         55.8838
233.31        56.03291
233.77        57.40566
234.22        59.92572
234.68        62.43107
235.14         62.8496
235.60         60.7921
236.05        56.98527
236.51         53.2284
236.97        51.81395
237.43        53.28391
237.88        57.56497
238.34        63.71326
238.80        68.60364
239.26        69.79976
239.71        67.94355
240.17        64.44453
240.63        61.58952
241.08        59.96687
241.54        58.64978
242.00        57.78257
242.46         58.2823
242.91        61.04728
243.37        65.77484
243.83        70.58702
244.28        73.77195
244.74        75.26804
245.20        75.09429
245.66        73.69617
246.11        72.52539
246.57        72.58044
247.03        74.07332
247.48         76.1516
247.94        76.31513
248.40        74.66077
248.85        72.03776
249.31        70.88062
249.77        72.20365
250.22        76.23896
250.68        83.88472
251.14        93.87726
251.59        95.21089
252.05        83.93752
252.51        70.22484
252.96        60.73124
253.42        56.79502
253.88         56.2508
254.33        57.56068
254.79        59.95282
255.25        61.11686
255.70        60.45673
256.16        59.52695
256.62        58.70269
257.07        58.13726
257.53        58.12487
257.99        58.25986
258.44        58.35672
258.90        58.82354
259.35        59.14064
259.81        59.50265
260.27        59.63232
260.72        59.34507
261.18        58.88054
261.63         58.0739
262.09        57.15964
262.55        56.10344
263.00        54.92929
263.46        53.89231
263.91        52.84417
264.37        51.90005
264.83        50.98719
265.28        50.05921
265.74        49.34404
266.19        48.94689
266.65        48.92761
267.11         49.1423
267.56        49.37594
268.02        49.35123
268.47        48.96604
268.93        48.29329
269.38        47.40644
269.84        46.55995
270.30        45.82683
270.75        45.16383
271.21        44.49736
271.66        43.66069
272.12        42.64957
272.57        41.52163
273.03        40.45844
273.48         39.6426
273.94        39.17339
274.39        38.91776
274.85        38.78947
275.31        38.58057
275.76        38.21484
276.22        37.78214
276.67        37.28354
277.13        36.83807
277.58         36.4124
278.04        36.01452
278.49        35.57331
278.95        35.10368
279.40        34.56122
279.86        34.04438
280.31        33.51791
280.77        33.05531
281.22        32.62922
281.68        32.25897
282.13        31.95439
282.59        31.79725
283.04         31.7416
283.50        31.74546
283.95        31.68094
284.41        31.38236
284.86        30.81801
285.32         30.1118
285.77         29.3304
286.22        28.64213
286.68        28.11256
287.13        27.67136
287.59         27.3677
288.04        27.21103
288.50         27.2003
288.95         27.2881
289.41        27.40316
289.86          27.391
290.32        27.24575
290.77        27.00153
291.22         26.7165
291.68        26.48886
292.13        26.34405
292.59        26.27485
293.04        26.31689
293.50        26.55337
293.95         26.9718
294.40         27.5509
294.86         28.1575
295.31        28.59477
295.77        28.81689
296.22        28.87308
296.68         28.8967
297.13        29.07735
297.58        29.47314
298.04        29.99868
298.49        30.56716
298.95        31.03731
299.40        31.36716
299.85        31.61092
300.31        31.81361
300.76        31.98406
301.21        32.16504
301.67        32.35206
302.12        32.54004
302.58        32.86647
303.03        33.32385
303.48         33.7445
303.94        34.04938
304.39        34.80184
304.84        34.82499
305.30        35.06684
305.75        35.19243
306.20        35.28765
306.66        35.37405
307.11        35.43427
307.57        35.48075
308.02         35.4536
308.47        35.36609
308.93        35.24507
309.38        35.12225
309.83        35.09304
310.29        35.17126
310.74        35.32375
311.19        35.46662
311.65        35.46418
312.10        35.28688
312.55        34.97667
313.00        34.64434
313.46        34.46384
313.91        34.45842
314.36        34.57692
314.82         34.7037
315.27        34.67167
315.72        34.43343
316.18        34.06182
316.63        33.64009
317.08        33.30999
317.53        33.11938
317.99        33.02816
318.44        33.00127
318.89        32.98874
319.35         32.9649
319.80        32.94429
320.25        32.92519
320.70        32.90146
321.16        32.85985
321.61        32.80913
322.06        32.72971
322.51        32.60976
322.97        32.44991
323.42        32.25912
323.87        32.06742
324.32        31.92603
324.78        31.83584
325.23        31.80311
325.68        31.77208
326.13        31.65173
326.59        31.41968
327.04        31.11705
327.49        30.81443
327.94        30.64109
328.39        30.62126
328.85        30.69928
329.30        30.81335
329.75        30.80293
330.20        30.62608
330.66         30.3367
331.11        30.00229
331.56        29.70506
332.01        29.48253
332.46        29.30591
332.92        29.19073
333.37        29.19964
333.82        29.32028
334.27        29.53868
334.72        29.76652
335.17        29.85271
335.63        29.75331
336.08        29.51307
336.53        29.20095
336.98        28.96046
337.43        28.84455
337.88         28.8214
338.34        28.85142
338.79        28.88972
339.24        28.90889
339.69        28.92762
340.14        28.95494
340.59        29.00116
341.05        29.06371
341.50        29.12332
341.95        29.15428
342.40        29.12989
342.85        29.04608
343.30        28.91372
343.75        28.75275
344.20        28.59709
344.66        28.47217
345.11         28.3693
345.56         28.2918
346.01        28.23576
346.46        28.20492
346.91        28.20649
347.36        28.24241
347.81        28.31642
348.26        28.42075
348.72        28.53445
349.17        28.65117
349.62        28.75924
350.07        28.84508
350.52         28.9117
350.97         28.9231
351.42        28.82643
351.87        28.62734
352.32        28.35138
352.77        28.08368
353.22        27.96113
353.67        28.01085
354.13        28.18587
354.58        28.39922
355.03        28.50889
355.48        28.47001
355.93        28.32274
356.38        28.10815
356.83        27.88983
357.28        27.69447
357.73         27.5077
358.18        27.32834
358.63        27.15827
359.08        26.99771
359.53        26.84975
359.98        26.72636
360.43        26.63979
360.88        26.58615
361.33         26.5584
361.78        26.51617
362.23        26.39831
362.68        26.19703
363.13        25.93286
363.58        25.66172
364.03        25.47313
364.48        25.38631
364.93         25.3719
365.38        25.38188
365.83        25.33832
366.28        25.21933
366.73        25.05124
367.18        24.85884
367.63        24.68013
368.08        24.52814
368.53        24.38876
368.98        24.26148
369.43        24.14661
369.88          24.044
370.33        23.96148
370.78        23.88752
371.23        23.80037
371.68        23.69494
372.13        23.56908
372.58        23.44591
373.03         23.3666
373.48        23.33011
373.93        23.31455
374.38        23.27341
374.83        23.13247
375.28        22.88554
375.72        22.56793
376.17        22.24213
376.62        21.95167
377.07        21.71362
377.52         21.5067
377.97        21.36134
378.42        21.32764
378.87        21.40077
379.32        21.56132
379.77        21.71329
380.22        21.71373
380.67        21.53648
381.11        21.21567
381.56        20.85916
382.01        20.64911
382.46        20.63488
382.91        20.76876
383.36         20.9386
383.81        20.97208
384.26        20.83234
384.71        20.56952
385.15        20.29033
385.60        20.18731
386.05        20.27975
386.50         20.4966
386.95        20.70393
387.40        20.69772
387.85        20.44911
388.29        20.03695
388.74        19.61411
389.19         19.3214
389.64        19.19164
390.09        19.16553
390.54        19.21059
390.98        19.27077
391.43        19.32374
391.88        19.38783
392.33        19.42196
392.78         19.3847
393.23        19.28028
393.67        19.07283
394.12        18.84892
394.57        18.86326
395.02        18.85621
395.47         19.0137
395.91        19.17692
396.36        19.20195
396.81        19.06466
397.26        18.82315
397.71        18.56113
398.15        18.39164
398.60        18.36511
399.05        18.39809
399.50        18.45108
399.95        18.55127
400.39        18.58642
400.84        18.57027
401.29        18.48882
401.74         18.4296
402.18        18.40641
402.63        18.35554
403.08        18.30678
403.53        18.32422
403.97        18.40845
404.42        18.54119
404.87        18.65423
405.32        18.63587
405.76        18.46398
406.21        18.18611
406.66         17.8892
407.11        17.71005
407.55        17.68955
408.00         17.7912
408.45        17.94495
408.90        18.01901
409.34        17.97403
409.79        17.84779
410.24         17.7267
410.68        17.74202
411.13        17.91672
411.58        18.20034
412.03        18.48474
412.47         18.5911
412.92        18.46502
413.37        18.18365
413.81        17.85217
414.26        17.65053
414.71        17.60861
415.15        17.67977
415.60         17.8018
416.05        17.88933
416.49        17.91179
416.94        17.90461
417.39        17.87764
417.83        17.83911
418.28         17.8021
418.73        17.75051
419.17        17.71429
419.62        17.74833
420.07        17.85492
420.51        18.01498
420.96        18.17174
421.41        18.22472
421.85        18.15206
422.30        18.00658
422.74        17.83954
423.19        17.75617
423.64        17.77076
424.08        17.86058
424.53        17.97767
424.98        18.06792
425.42        18.11199
425.87          18.115
426.31        18.08414
426.76         18.0579
427.21        17.98669
427.65        17.89582
428.10        17.79839
428.54        17.69123
428.99        17.59862
429.44        17.64401
429.88        17.76533
430.33        17.63451
430.77        17.36526
431.22        17.53167
431.66         18.0864
432.11        18.39038
432.56        18.34665
433.00        18.35897
433.45        18.40827
433.89        18.06702
434.34        17.54922
434.78        17.55286
435.23        17.98446
435.67        18.12571
436.12        17.94274
436.57        17.84498
437.01        17.88303
437.46        17.95388
437.90        18.05878
438.35        18.21326
438.79         18.3705
439.24        18.42809
439.68        18.39644
440.13        18.37663
440.57        18.35484
441.02        18.31814
441.46        18.27786
441.91        18.11006
442.35        17.89585
442.80        18.13638
443.24         18.6638
443.69        18.58628
444.13        17.98244
444.58        17.73445
445.02        17.85185
445.47        17.86434
445.91        17.76423
446.36        17.77091
446.80        17.87763
447.24        18.03118
447.69        18.18491
448.13        18.26465
448.58        18.25665
449.02        18.18143
449.47        18.09714
449.91        18.08394
450.36        18.16158
450.80        18.30223
451.25        18.44721
451.69        18.49986
452.13        18.43863
452.58        18.30403
453.02        18.15118
453.47        18.06412
453.91        18.06029
454.36        18.16445
454.80        18.24257
455.24        18.29116
455.69        18.26958
456.13        18.19906
456.58        18.12262
457.02        18.08745
457.46        18.10939
457.91        18.16802
458.35        18.22994
458.79        18.25692
459.24        18.25119
459.68        18.23594
460.13        18.23552
460.57        18.20374
461.01        18.28695
461.46         18.2961
461.90         18.2897
462.34        18.46755
462.79        18.74195
463.23        18.71531
463.68        18.44086
464.12        18.34426
464.56         18.4454
465.01        18.53577
465.45        18.56401
465.89         18.5391
466.34        18.48702
466.78         18.4963
467.22          18.603
467.67        18.56875
468.11        18.40997
468.55        18.22077
468.99        18.06716
469.44        18.00301
469.88        18.04442
470.32        18.18221
470.77        18.35208
471.21        18.46176
471.65        18.47813
472.10        18.43333
472.54        18.36994
472.98        18.37462
473.42        18.46342
473.87        18.60227
474.31        18.74136
474.75         18.8112
475.20        18.80228
475.64        18.73834
476.08        18.65523
476.52        18.60171
476.97        18.59417
477.41        18.61225
477.85        18.65773
478.29          18.732
478.74        18.83295
479.18        18.94687
479.62        19.04112
480.06         19.1095
480.50        19.15802
480.95        19.02105
481.39        19.02472
481.83        19.03955
482.27        19.17523
482.72        19.24363
483.16        19.47857
483.60        19.60836
484.04        19.68851
484.48        19.75182
484.93        19.81746
485.37        19.87041
485.81         19.8448
486.25        19.97463
486.69         19.3736
487.14         19.5849
487.58        20.38651
488.02        20.40063
488.46        20.47766
488.90        20.93305
489.34        20.32392
489.79         20.4171
490.23        20.64625
490.67        20.85613
491.11        20.96829
491.55        20.97442
491.99        20.94085
492.43        21.03848
492.88        21.27543
493.32         21.5085
493.76        21.69896
494.20        21.88734
494.64        22.06889
495.08        22.22109
495.52        22.33516
495.96        22.45169
496.41        22.58216
496.85        22.60666
497.29        22.55566
497.73        22.82878
498.17        23.08812
498.61        23.11021
499.05         22.8632
499.49          22.783
499.93        22.91611
500.37        23.11386
500.82        23.32187
501.26        23.47251
501.70        23.54353
502.14          23.587
502.58        23.64123
503.02        23.73742
503.46        23.88728
503.90         24.0828
504.34        24.28298
504.78        24.41883
505.22         24.4726
505.66        24.45944
506.10        24.41739
506.54         24.4355
506.98        24.53682
507.42        24.64851
507.86        24.71173
508.30        24.91191
508.74        24.78156
509.18        24.71562
509.62        24.63883
510.06        24.65592
510.50        24.78348
510.94        24.99301
511.38        25.23021
511.82        25.39186
512.26        25.44838
512.70        25.43023
513.14         25.3762
513.58        25.34695
514.02        25.36305
514.46        25.40603
514.90        25.46256
515.34        25.51299
515.78         25.5491
516.22        25.57826
516.66        25.60607
517.10        25.63829
517.54        25.67338
517.98        25.70422
518.42        25.71784
518.86        25.69596
519.30        25.63796
519.74        25.55577
520.18         25.4658
520.62         25.3909
521.06        25.34137
521.50        25.31522
521.93        25.31597
522.37        25.33929
522.81         25.3826
523.25        25.43994
523.69        25.50109
524.13        25.55224
524.57        25.58499
525.01        25.59616
525.45        25.57893
525.89        25.52594
526.32        25.43687
526.76        25.32702
527.20        25.20678
527.64        25.09287
528.08        24.99348
528.52        24.90764
528.96        24.84365
529.40        24.81227
529.83        24.81005
530.27        24.83425
530.71        24.86147
531.15          24.858
531.59        24.81452
532.03        24.73772
532.46        24.64315
532.90         24.5659
533.34        24.51496
533.78        24.48647
534.22        24.46624
534.66        24.43176
535.09        24.37729
535.53        24.31518
535.97        24.26401
536.41        24.26806
536.85        24.33152
537.28        24.42004
537.72        24.49029
538.16        24.56003
538.60         24.4854
539.04        24.40058
539.47        24.29343
539.91        24.23166
540.35        24.22626
540.79        24.26665
541.22        24.35129
541.66        24.47767
542.10        24.63439
542.54        24.82022
542.97        25.01259
543.41        25.17913
543.85        25.31088
544.29        25.41962
544.72          25.506
545.16        25.59188
545.60        25.68446
546.04        25.76986
546.47        25.86981
546.91        26.05781
547.35        26.31784
547.79        26.55079
548.22         26.7264
548.66        26.94195
549.10        27.19862
549.53        27.35518
549.97        27.37571
550.41        27.76921
550.84        27.70768
551.28        27.81854
551.72        27.86012
552.15        28.08515
552.59        28.14727
553.03        28.32404
553.46        28.50166
553.90        28.65769
554.34        28.77956
554.77        28.90532
555.21        29.03714
555.65        29.10209
556.08        29.12763
556.52        29.24958
556.96        29.45075
557.39        29.63509
557.83        29.78634
558.27        29.89132
558.70         29.9717
559.14        30.09942
559.57        30.25244
560.01        30.38588
560.45        30.48258
560.88         30.4349
561.32        30.43595
561.75        30.48975
562.19        30.63639
562.63        30.72805
563.06        30.75629
563.50        30.82127
563.93         30.9115
564.37        30.99686
564.80        31.06808
565.24        31.13917
565.68         31.2181
566.11        31.33907
566.55        31.50296
566.98        31.65001
567.42        31.79955
567.85        31.92166
568.29        32.01721
568.72        32.18422
569.16         32.4758
569.60        32.28782
570.03         32.6227
570.47        32.74405
570.90        32.92693
571.34        32.95612
571.77        33.18631
572.21         33.3172
572.64        33.42714
573.08         33.5435
573.51        33.71157
573.95        33.64996
574.38        34.04161
574.82        33.89732
