SpectraSmart Spectrum 2.9.0.0
--------- Device Information -----------
Spectrum Name :  反射率_0
Saving Time :  2024/04/30 00:40:48
Spectro-Module Model Name : SE2030-DUVN
Spectro-Module Serial Number : OS361AC55029948
Wavelength Start : 200
Wavelength End : 1025
Wavelength Unit : Wavelength(nm)
Spectrum Unit : Reflectance(%)
-----------Spectrum Setting ------------
Integration Time : 20ms
Average : 10
Boxcar : 0
Background removal :  enabled
linearity correction :  enabled
SC :  disabled
Intensity correction :  disabled
DWT denoise :  enabled
savitzky-golay :  disabled
FFT :  disabled
Running average :  disabled
Kalman :  disabled
High pass :  disabled
---------------BEGIN--------------------
Wavelength(nm)             Reflectance(%)
200.29               0
200.75        44.07767
201.21        42.03229
201.67        39.36446
202.13        38.35641
202.58        39.91829
203.04        43.98243
203.50        49.71172
203.96         55.5378
204.42        60.14504
204.88        63.08593
205.34        64.23557
205.80        63.99349
206.26        62.88661
206.72        61.36481
207.18        59.36131
207.64        56.43356
208.10        52.49757
208.55        47.58691
209.01        42.45701
209.47        40.04629
209.93        41.13507
210.39        44.40823
210.85        47.62161
211.31        48.88274
211.77        48.07747
212.23        45.26891
212.69        41.63797
213.14        42.27592
213.60         48.0051
214.06        55.58038
214.52         61.4147
214.98        63.63659
215.44        63.03476
215.90        60.59777
216.36        57.97022
216.81        58.27287
217.27        63.28762
217.73        73.43066
218.19        88.02176
218.65        99.67868
219.11         102.258
219.57        97.53461
220.02        91.18938
220.48        88.26842
220.94        88.39727
221.40        90.51547
221.86        92.49548
222.32        89.23659
222.77        81.13017
223.23        73.58603
223.69        68.82521
224.15        67.36079
224.61        68.61203
225.06        72.10691
225.52        77.61749
225.98        83.15904
226.44        86.93761
226.90        88.95841
227.36         90.2924
227.81         92.2126
228.27        95.12631
228.73        98.62251
229.19        101.4731
229.65        101.1632
230.10        97.67208
230.56        93.24207
231.02        89.35294
231.48        87.15997
231.93        86.41362
232.39        86.61193
232.85        87.49133
233.31        88.74962
233.77        90.12341
234.22        91.88516
234.68        93.15796
235.14        92.54888
235.60        89.92506
236.05        85.70995
236.51        81.62988
236.97         79.8256
237.43        80.72915
237.88        84.45579
238.34         89.6639
238.80        92.77122
239.26        91.44707
239.71        86.66953
240.17        80.72865
240.63        76.78171
241.08        75.55045
241.54         76.3666
242.00        79.26736
242.46        81.98225
242.91        81.84521
243.37         78.9445
243.83        75.31239
244.28        72.70917
244.74        70.84598
245.20        68.76364
245.66        66.31721
246.11         63.7033
246.57        61.44623
247.03        60.27313
247.48        59.54332
247.94          57.669
248.40        55.39775
248.85        53.20226
249.31        53.01867
249.77        56.08999
250.22        63.02502
250.68        75.62938
251.14        93.76432
251.59         103.177
252.05         94.6023
252.51        79.76036
252.96        68.54443
253.42        64.23118
253.88        64.66478
254.33        67.82008
254.79        72.70515
255.25        76.13988
255.70        76.71512
256.16        76.24902
256.62        75.57487
257.07         75.1993
257.53        75.51056
257.99        75.99469
258.44        75.93819
258.90        75.23042
259.35        73.69491
259.81        72.22757
260.27        71.13609
260.72         70.7077
261.18         71.0254
261.63        71.47467
262.09        71.87904
262.55        71.60204
263.00        70.58489
263.46        69.40053
263.91        68.08587
264.37        67.07441
264.83        66.30141
265.28        65.59126
265.74        65.11405
266.19        64.84534
266.65        64.83455
267.11        64.98672
267.56        65.10854
268.02        64.96552
268.47        64.46677
268.93        63.69366
269.38          62.734
269.84        61.86786
270.30         61.1769
270.75        60.59242
271.21        60.05853
271.66        59.41285
272.12        58.63448
272.57        57.72902
273.03        56.79519
273.48        55.87665
273.94        55.06808
274.39        54.28319
274.85        53.53691
275.31        52.71187
275.76        51.77562
276.22        50.84573
276.67        49.92305
277.13        49.16084
277.58        48.50829
278.04        47.97205
278.49        47.46353
278.95        47.00877
279.40         46.5186
279.86         46.0752
280.31        45.55656
280.77        44.94727
281.22        44.20148
281.68        43.40229
282.13        42.62155
282.59        42.05766
283.04        41.68242
283.50        41.44067
283.95         41.1824
284.41         40.7275
284.86        40.02442
285.32        39.20797
285.77        38.32756
286.22        37.54204
286.68        36.90904
287.13        36.34663
287.59        35.89297
288.04        35.53392
288.50        35.27835
288.95        35.08349
289.41         34.9131
289.86         34.6477
290.32        34.28973
290.77        33.85318
291.22        33.37806
291.68        32.93494
292.13        32.54057
292.59          32.207
293.04        31.96747
293.50        31.90395
293.95        32.00699
294.40         32.2654
294.86        32.56411
295.31        32.73907
295.77        32.74963
296.22        32.62245
296.68        32.48722
297.13        32.52554
297.58        32.78147
298.04        33.17105
298.49        33.55449
298.95        33.71324
299.40         33.6026
299.85        33.30843
300.31        32.97154
300.76        32.74597
301.21        32.70126
301.67        32.78542
302.12        32.90306
302.58        33.05311
303.03        33.19754
303.48        33.21695
303.94        33.09375
304.39        33.49649
304.84        33.25575
305.30        33.31143
305.75        33.28941
306.20        33.22909
306.66        33.14017
307.11        33.02254
307.57        32.91823
308.02        32.81092
308.47        32.71005
308.93        32.61575
309.38        32.50688
309.83        32.40016
310.29        32.29429
310.74        32.18496
311.19        32.04193
311.65        31.81085
312.10        31.48928
312.55        31.10419
313.00        30.73251
313.46        30.49153
313.91        30.39302
314.36        30.40296
314.82        30.44706
315.27         30.4231
315.72        30.28818
316.18        30.07883
316.63        29.81622
317.08        29.54788
317.53        29.30014
317.99        29.06929
318.44        28.85923
318.89        28.68191
319.35        28.53895
319.80        28.42803
320.25         28.3626
320.70         28.3601
321.16        28.40337
321.61        28.49289
322.06        28.56103
322.51        28.50801
322.97        28.31362
323.42        28.01251
323.87        27.67805
324.32        27.43471
324.78        27.30648
325.23        27.27167
325.68        27.27285
326.13        27.21368
326.59          27.061
327.04        26.86103
327.49        26.64246
327.94        26.46122
328.39        26.33091
328.85        26.21496
329.30        26.11974
329.75        26.01875
330.20        25.90694
330.66        25.80109
331.11        25.69364
331.56        25.54616
332.01        25.35905
332.46        25.13645
332.92        24.93505
333.37         24.8843
333.82        24.99935
334.27        25.24203
334.72        25.50741
335.17         25.6185
335.63        25.52662
336.08        25.29408
336.53        24.99656
336.98        24.78154
337.43        24.70232
337.88        24.71236
338.34        24.78727
338.79        24.91071
339.24        25.05268
339.69        25.22461
340.14        25.37724
340.59        25.42323
341.05        25.35015
341.50        25.18013
341.95        24.97947
342.40        24.86489
342.85        24.86497
343.30        24.94188
343.75        25.05046
344.20         25.1168
344.66        25.12472
345.11        25.09319
345.56        25.02771
346.01        24.93151
346.46        24.81983
346.91        24.69389
347.36        24.58895
347.81        24.56219
348.26        24.61832
348.72        24.73386
349.17        24.86819
349.62        24.94879
350.07        24.94979
350.52        24.89275
350.97        24.79007
351.42        24.65967
351.87        24.52124
352.32        24.38267
352.77        24.26898
353.22        24.22129
353.67        24.24602
354.13        24.32059
354.58        24.43773
355.03        24.58413
355.48         24.7345
355.93          24.879
356.38        24.95304
356.83        24.86358
357.28         24.6066
357.73        24.22044
358.18        23.79832
358.63        23.48911
359.08        23.33013
359.53        23.27886
359.98        23.27885
360.43        23.23355
360.88        23.11378
361.33         22.9569
361.78        22.77495
362.23        22.58373
362.68        22.39771
363.13        22.20847
363.58        22.04295
364.03        21.94958
364.48        21.92906
364.93        21.95922
365.38        21.99931
365.83        21.98119
366.28        21.88652
366.73        21.74065
367.18        21.55213
367.63        21.33647
368.08        21.10849
368.53        20.86351
368.98        20.64699
369.43        20.53121
369.88        20.52764
370.33        20.62169
370.78          20.736
371.23        20.74032
371.68        20.60167
372.13        20.34775
372.58        20.06512
373.03        19.89834
373.48        19.87712
373.93        19.95376
374.38        20.03267
374.83        19.95849
375.28        19.70298
375.72        19.32738
376.17        18.94328
376.62        18.66842
377.07        18.53181
377.52        18.48823
377.97        18.50541
378.42        18.53163
378.87        18.54336
379.32        18.55924
379.77        18.56157
380.22        18.52317
380.67        18.43904
381.11        18.30178
381.56        18.15438
382.01        18.07021
382.46         18.0679
382.91        18.13987
383.36         18.2131
383.81        18.17336
384.26        18.00523
384.71        17.73929
385.15        17.48431
385.60        17.43662
386.05        17.60994
386.50        17.93246
386.95        18.24621
387.40        18.30595
387.85        18.07346
388.29        17.63884
388.74        17.17515
389.19        16.85952
389.64        16.73346
390.09        16.72977
390.54        16.80096
390.98        16.86716
391.43        16.89915
391.88        16.92382
392.33        16.92088
392.78        16.87342
393.23        16.78787
393.67        16.62646
394.12        16.44661
394.57        16.44459
395.02        16.39095
395.47        16.45568
395.91        16.52776
396.36        16.52768
396.81        16.44279
397.26        16.30459
397.71        16.15117
398.15        16.02995
398.60         15.9767
399.05        15.93886
399.50        15.90435
399.95        15.92652
400.39        15.91676
400.84        15.87628
401.29        15.79194
401.74        15.73741
402.18        15.72188
402.63        15.69398
403.08         15.6689
403.53        15.68296
403.97         15.7352
404.42        15.81576
404.87        15.88025
405.32         15.8572
405.76        15.73168
406.21        15.53262
406.66        15.32477
407.11        15.21218
407.55        15.22215
408.00        15.32455
408.45         15.4489
408.90        15.46572
409.34        15.34225
409.79         15.1221
410.24        14.90025
410.68        14.81733
411.13        14.90373
411.58        15.11485
412.03        15.35635
412.47        15.46894
412.92        15.39914
413.37        15.20834
413.81        14.98379
414.26        14.87974
414.71        14.91604
415.15        15.04705
415.60        15.19833
416.05         15.2663
416.49        15.21943
416.94         15.0994
417.39        14.94339
417.83        14.80443
418.28        14.70891
418.73         14.6346
419.17        14.59143
419.62        14.59669
420.07        14.64599
420.51        14.73594
420.96        14.82898
421.41        14.85561
421.85        14.80029
422.30        14.69712
422.74        14.58373
423.19        14.54352
423.64        14.58412
424.08        14.68598
424.53        14.80113
424.98        14.87241
425.42        14.88068
425.87         14.8339
426.31        14.74605
426.76        14.66237
427.21        14.54852
427.65        14.42474
428.10        14.30298
428.54        14.18214
428.99        14.08041
429.44        14.09058
429.88        14.16348
430.33        14.04079
430.77        13.81364
431.22        13.93901
431.66        14.35977
432.11        14.54779
432.56        14.42958
433.00         14.2825
433.45         14.1406
433.89        13.88811
434.34         13.6481
434.78          13.667
435.23        13.88331
435.67        13.97417
436.12        13.91267
436.57        13.87188
437.01        13.87969
437.46        13.90529
437.90        13.95064
438.35        14.01413
438.79        14.07285
439.24        14.06853
439.68        14.01413
440.13        13.98421
440.57        13.96234
441.02        13.92601
441.46        13.88034
441.91        13.74083
442.35        13.56736
442.80        13.72908
443.24        14.10164
443.69        14.02511
444.13        13.56615
444.58        13.38968
445.02        13.50268
445.47        13.55171
445.91        13.51922
446.36        13.55278
446.80        13.64126
447.24        13.74797
447.69        13.84017
448.13        13.86789
448.58        13.82503
449.02        13.73046
449.47        13.62904
449.91        13.58327
450.36        13.60991
450.80        13.68766
451.25        13.78279
451.69        13.83908
452.13        13.83915
452.58        13.80822
453.02        13.76023
453.47        13.71654
453.91        13.68267
454.36         13.6903
454.80        13.67294
455.24        13.68291
455.69        13.70257
456.13        13.73124
456.58        13.76876
457.02         13.8001
457.46        13.82459
457.91        13.84018
458.35         13.8489
458.79          13.861
459.24        13.88611
459.68        13.92759
460.13        13.97611
460.57        13.95189
461.01        13.96044
461.46        13.87199
461.90        13.76802
462.34         13.8516
462.79        14.06825
463.23        14.10373
463.68        13.96185
464.12         13.9095
464.56        13.95169
465.01        13.95308
465.45        13.90105
465.89        13.83806
466.34        13.79171
466.78        13.81415
467.22         13.9254
467.67        13.93607
468.11        13.85004
468.55        13.74131
468.99        13.65269
469.44        13.61265
469.88        13.63185
470.32        13.70611
470.77        13.79747
471.21        13.85878
471.65        13.86906
472.10        13.84674
472.54        13.81474
472.98        13.82516
473.42        13.88613
473.87        13.97715
474.31          14.062
474.75        14.08801
475.20        14.05107
475.64        13.96946
476.08        13.87784
476.52        13.82545
476.97        13.82596
477.41        13.85913
477.85        13.91759
478.29        13.98751
478.74        14.06197
479.18        14.13492
479.62        14.18388
480.06        14.20858
480.50        14.21536
480.95        14.07957
481.39         14.0459
481.83        14.02662
482.27        14.10504
482.72        14.14209
483.16         14.3018
483.60        14.37887
484.04        14.42094
484.48        14.41535
484.93         14.3955
485.37        14.46888
485.81        14.57222
486.25        14.53015
486.69        14.20874
487.14        14.23647
487.58        14.88261
488.02        14.95274
488.46        14.86714
488.90        15.18879
489.34        14.71379
489.79          14.632
490.23        14.58188
490.67        14.77847
491.11         15.1102
491.55        15.15514
491.99        14.96394
492.43         14.9865
492.88        15.23377
493.32        15.40686
493.76        15.47694
494.20        15.56853
494.64        15.68428
495.08        15.78386
495.52        15.85665
495.96         15.9292
496.41        16.00925
496.85        16.00258
497.29        15.94067
497.73        16.15459
498.17        16.38953
498.61        16.39461
499.05        16.15728
499.49        16.08237
499.93        16.20607
500.37        16.36887
500.82        16.52186
501.26        16.62557
501.70        16.66232
502.14         16.6702
502.58        16.68162
503.02        16.72724
503.46        16.81838
503.90        16.94529
504.34        17.08525
504.78        17.19882
505.22        17.27232
505.66        17.31423
506.10        17.32912
506.54        17.34445
506.98        17.37101
507.42        17.36751
507.86        17.32434
508.30        17.42322
508.74        17.34844
509.18        17.36001
509.62        17.37479
510.06        17.41729
510.50        17.48695
510.94        17.58052
511.38        17.68008
511.82        17.74704
512.26        17.77135
512.70        17.76064
513.14         17.7351
513.58        17.72753
514.02        17.74694
514.46        17.78578
514.90        17.82646
515.34        17.83982
515.78        17.82081
516.22        17.78111
516.66         17.7436
517.10        17.74313
517.54        17.78432
517.98        17.85034
518.42        17.91777
518.86        17.94956
519.30        17.93534
519.74        17.89007
520.18        17.82229
520.62        17.74381
521.06        17.66514
521.50        17.58693
521.93        17.52829
522.37        17.51507
522.81        17.55192
523.25        17.62683
523.69        17.71644
524.13        17.78437
524.57        17.81702
525.01        17.81955
525.45        17.79309
525.89        17.74301
526.32        17.67323
526.76         17.5892
527.20        17.49901
527.64        17.41648
528.08        17.34698
528.52        17.29079
528.96         17.2493
529.40         17.2217
529.83        17.20484
530.27        17.19961
530.71        17.19673
531.15        17.18408
531.59        17.15756
532.03        17.11789
532.46        17.06977
532.90        17.02734
533.34        16.99411
533.78        16.97038
534.22        16.94968
534.66        16.92109
535.09        16.88243
535.53        16.84275
535.97        16.81457
536.41        16.82278
536.85        16.86837
537.28        16.93874
537.72         17.0094
538.16        17.04513
538.60        17.03763
539.04        17.00297
539.47        16.94857
539.91        16.90359
540.35        16.87416
540.79        16.85845
541.22        16.86855
541.66        16.92686
542.10        17.03083
542.54        17.17237
542.97        17.32722
543.41        17.45614
543.85        17.55023
544.29        17.62562
544.72        17.68337
545.16        17.74125
545.60        17.80475
546.04        17.85859
546.47        17.92892
546.91        18.08548
547.35        18.31672
547.79        18.54811
548.22        18.72837
548.66         18.8792
549.10         18.9966
549.53        18.99727
549.97        18.89966
550.41        19.12363
550.84        19.11469
551.28         19.2832
551.72        19.42275
552.15        19.64794
552.59        19.69945
553.03        19.78994
553.46        19.86356
553.90        19.94102
554.34        20.02326
554.77        20.12236
555.21        20.22654
555.65        20.26383
556.08         20.2494
556.52        20.29046
556.96        20.38437
557.39        20.47717
557.83         20.5614
558.27        20.62143
558.70         20.6736
559.14        20.76919
559.57        20.89103
560.01        21.00871
560.45        21.09653
560.88        21.05616
561.32        21.02134
561.75        21.00712
562.19        21.06213
562.63        21.11401
563.06        21.16294
563.50        21.26737
563.93        21.39935
564.37        21.50524
564.80        21.56912
565.24         21.6097
565.68        21.64128
566.11        21.70265
566.55        21.80429
566.98        21.89362
567.42        21.98097
567.85        22.07095
568.29        22.16767
568.72        22.22255
569.16        22.50224
569.60        22.39167
570.03        22.64015
570.47        22.85356
570.90        23.03277
571.34         23.0325
571.77        23.22941
572.21         23.2946
572.64        23.34792
573.08        23.41328
573.51         23.5433
573.95         23.6091
574.38        23.82746
574.82        23.97364
