SpectraSmart Spectrum 2.9.0.0
--------- Device Information -----------
Spectrum Name :  反射率_0
Saving Time :  2024/04/30 00:44:14
Spectro-Module Model Name : SE2030-DUVN
Spectro-Module Serial Number : OS361AC55029948
Wavelength Start : 200
Wavelength End : 1025
Wavelength Unit : Wavelength(nm)
Spectrum Unit : Reflectance(%)
-----------Spectrum Setting ------------
Integration Time : 20ms
Average : 10
Boxcar : 0
Background removal :  enabled
linearity correction :  enabled
SC :  disabled
Intensity correction :  disabled
DWT denoise :  enabled
savitzky-golay :  disabled
FFT :  disabled
Running average :  disabled
Kalman :  disabled
High pass :  disabled
---------------BEGIN--------------------
Wavelength(nm)             Reflectance(%)
200.29               0
200.75        67.40482
201.21        54.89465
201.67        40.56342
202.13        27.82354
202.58         18.5723
203.04        12.25545
203.50        10.66399
203.96        17.05223
204.42        31.37132
204.88        51.78826
205.34         70.2867
205.80        75.47655
206.26        68.55582
206.72         56.7095
207.18          45.318
207.64        37.37553
208.10        32.19968
208.55        27.95738
209.01        24.92961
209.47        24.93038
209.93        27.76938
210.39        32.51031
210.85        36.43398
211.31        37.09614
211.77        34.22813
212.23        27.17972
212.69         17.3614
213.14        13.73342
213.60        19.95691
214.06        30.88165
214.52        39.76119
214.98        42.20549
215.44        39.18141
215.90        32.66757
216.36        25.18647
216.81        21.60052
217.27        24.68325
217.73        34.06945
218.19        49.87299
218.65        65.83677
219.11        74.37226
219.57          75.466
220.02        72.57543
220.48        69.71228
220.94        66.94122
221.40        62.84711
221.86        56.23548
222.32        47.85129
222.77        40.92545
223.23        37.27542
223.69        35.60266
224.15          34.186
224.61        32.48131
225.06        30.47236
225.52        28.99124
225.98        29.42155
226.44        31.65483
226.90        34.50865
227.36        36.71923
227.81        37.57733
228.27        37.25296
228.73        35.91074
229.19         34.3751
229.65        34.28042
230.10         35.7295
230.56        37.84599
231.02        39.31874
231.48          38.952
231.93        36.77892
232.39        33.32623
232.85        29.56395
233.31        27.40669
233.77        27.51142
234.22        29.47245
234.68        32.20225
235.14        33.60525
235.60        33.09463
236.05        31.38848
236.51        29.70664
236.97        29.65886
237.43        31.71578
237.88        35.76289
238.34        41.29931
238.80        46.32224
239.26        48.92538
239.71        49.35025
240.17        48.19827
240.63        46.86591
241.08          45.828
241.54        44.41184
242.00        42.97578
242.46        43.74454
242.91         48.7128
243.37        56.92746
243.83         65.0416
244.28        70.58706
244.74        73.68503
245.20        74.44949
245.66        73.33041
246.11        71.79633
246.57         70.7484
247.03        70.39452
247.48         69.6622
247.94        66.30804
248.40        61.75974
248.85        57.75707
249.31        56.01548
249.77        56.86751
250.22        60.36445
250.68        67.23318
251.14        77.66438
251.59        84.29591
252.05        81.09174
252.51        73.60648
252.96        66.97758
253.42        63.12965
253.88        60.71246
254.33        58.46099
254.79        56.44088
255.25        54.70539
255.70        53.42357
256.16        52.99478
256.62        52.71338
257.07        51.93166
257.53        50.92306
257.99        49.62266
258.44        48.28968
258.90        47.92573
259.35        48.11896
259.81        48.68668
260.27           48.98
260.72        48.49348
261.18        47.46528
261.63        45.94406
262.09        44.43846
262.55        43.32823
263.00        42.60892
263.46        42.25223
263.91        41.80869
264.37        40.97739
264.83         39.6982
265.28        38.08552
265.74        36.61954
266.19        35.82891
266.65          35.832
267.11        36.35248
267.56        36.93114
268.02        36.91771
268.47        36.16898
268.93        34.89873
269.38        33.42166
269.84        32.39486
270.30        31.98994
270.75        32.00216
271.21        32.13509
271.66        31.95006
272.12        31.34689
272.57        30.45815
273.03        29.51073
273.48        28.76924
273.94        28.35598
274.39        28.13242
274.85         27.9757
275.31        27.66476
275.76        27.14651
276.22         26.5215
276.67        25.89183
277.13        25.47611
277.58        25.25328
278.04        25.16321
278.49        25.02381
278.95        24.65746
279.40        24.01279
279.86        23.25213
280.31        22.46391
280.77        21.87828
281.22        21.51989
281.68         21.3354
282.13        21.29223
282.59        21.38209
283.04         21.5484
283.50        21.76723
283.95        21.92347
284.41        21.84277
284.86        21.50111
285.32        21.00283
285.77        20.42937
286.22        19.96238
286.68        19.66307
287.13        19.45313
287.59        19.36745
288.04        19.40329
288.50        19.54859
288.95        19.77624
289.41        19.99408
289.86         20.0315
290.32        19.88685
290.77        19.60767
291.22        19.31338
291.68        19.19697
292.13        19.29723
292.59        19.56822
293.04        19.96263
293.50        20.43002
293.95        20.94075
294.40        21.51463
294.86        22.09417
295.31        22.60555
295.77        23.02834
296.22         23.3629
296.68        23.68508
297.13        24.09819
297.58        24.63062
298.04        25.22548
298.49        25.80694
298.95        26.24699
299.40        26.51901
299.85        26.67012
300.31        26.77285
300.76        26.88624
301.21        27.05781
301.67        27.27046
302.12        27.48338
302.58        27.77211
303.03        28.12645
303.48        28.39364
303.94         28.5283
304.39        29.20982
304.84         29.1787
305.30        29.44355
305.75        29.62978
306.20        29.80417
306.66        29.97153
307.11        30.11772
307.57        30.24686
308.02         30.2956
308.47        30.27229
308.93        30.20398
309.38        30.11197
309.83        30.07526
310.29        30.10688
310.74         30.1779
311.19        30.23907
311.65        30.20807
312.10        30.06445
312.55        29.83621
313.00        29.57857
313.46        29.37566
313.91        29.23792
314.36        29.14511
314.82         29.0528
315.27        28.90948
315.72        28.69324
316.18        28.43411
316.63        28.15359
317.08        27.89386
317.53        27.67454
317.99        27.49279
318.44        27.33607
318.89        27.18846
319.35        27.04331
319.80         26.9003
320.25        26.78341
320.70        26.73166
321.16          26.734
321.61        26.78314
322.06        26.80521
322.51        26.69045
322.97         26.4169
323.42        26.02564
323.87        25.59496
324.32        25.25321
324.78        25.02618
325.23        24.89017
325.68        24.78957
326.13        24.63146
326.59        24.38709
327.04        24.10599
327.49        23.81518
327.94         23.5644
328.39        23.36515
328.85        23.17957
329.30        23.02328
329.75         22.8933
330.20        22.78514
330.66        22.70523
331.11        22.61185
331.56         22.4146
332.01         22.1014
332.46        21.69055
332.92        21.27489
333.37        21.04395
333.82        21.03849
334.27        21.20863
334.72        21.42825
335.17        21.48074
335.63        21.30504
336.08        20.97244
336.53        20.57552
336.98        20.28679
337.43         20.1641
337.88        20.14825
338.34        20.19332
338.79        20.25057
339.24        20.28446
339.69        20.32069
340.14        20.33061
340.59        20.26261
341.05        20.11392
341.50        19.88944
341.95        19.65176
342.40        19.51072
342.85        19.48571
343.30        19.54348
343.75        19.60789
344.20        19.55452
344.66        19.36656
345.11         19.0839
345.56        18.77517
346.01        18.54583
346.46        18.43245
346.91        18.40186
347.36        18.43039
347.81        18.48486
348.26        18.54455
348.72        18.61286
349.17        18.67141
349.62         18.6902
350.07        18.66105
350.52        18.59077
350.97        18.48672
351.42        18.36339
351.87        18.23491
352.32        18.10803
352.77        18.00842
353.22        17.97421
353.67         18.0106
354.13        18.10106
354.58        18.21919
355.03        18.32284
355.48        18.39002
355.93        18.42315
356.38         18.4118
356.83        18.34461
357.28        18.22602
357.73         18.0639
358.18        17.88253
358.63        17.72137
359.08        17.59394
359.53        17.49434
359.98        17.41782
360.43        17.35277
360.88        17.29213
361.33        17.23797
361.78        17.18229
362.23        17.11111
362.68        17.02372
363.13         16.9269
363.58        16.82596
364.03        16.73125
364.48         16.6464
364.93        16.56415
365.38        16.49855
365.83        16.47221
366.28         16.4842
366.73        16.52782
367.18         16.5604
367.63        16.51491
368.08        16.38007
368.53        16.17518
368.98        15.95889
369.43        15.82641
369.88        15.80339
370.33        15.86781
370.78        15.95973
371.23        15.98002
371.68        15.90081
372.13        15.74372
372.58        15.57234
373.03           15.49
373.48        15.51406
373.93        15.60667
374.38         15.6818
374.83         15.6025
375.28        15.34798
375.72         14.9746
376.17        14.59307
376.62        14.32703
377.07        14.20589
377.52        14.18618
377.97        14.22925
378.42        14.27041
378.87        14.28361
379.32        14.29121
379.77        14.28439
380.22        14.24974
380.67        14.18506
381.11         14.0779
381.56        13.96304
382.01        13.90022
382.46        13.90252
382.91        13.96355
383.36        14.01805
383.81         13.9637
384.26        13.78804
384.71        13.52154
385.15        13.26254
385.60        13.18713
386.05        13.31295
386.50        13.58248
386.95        13.86281
387.40        13.94667
387.85        13.79753
388.29        13.48242
388.74        13.15057
389.19         12.9605
389.64        12.94371
390.09         13.0395
390.54        13.17654
390.98        13.23627
391.43        13.19158
391.88        13.09356
392.33        12.97469
392.78        12.88826
393.23        12.84899
393.67        12.79891
394.12        12.75946
394.57        12.85008
395.02        12.87915
395.47         12.9921
395.91        13.08632
396.36        13.07123
396.81        12.93882
397.26        12.72248
397.71        12.49609
398.15        12.36326
398.60        12.35998
399.05        12.42077
399.50        12.49223
399.95         12.5514
400.39        12.51496
400.84        12.40555
401.29        12.23912
401.74        12.12133
402.18         12.0782
402.63        12.05426
403.08        12.05385
403.53         12.0937
403.97        12.16585
404.42        12.26732
404.87        12.35164
405.32        12.34174
405.76        12.22203
406.21        12.01939
406.66        11.80265
407.11        11.68359
407.55         11.6911
408.00        11.79536
408.45        11.92381
408.90        11.94302
409.34        11.82007
409.79        11.60162
410.24        11.38373
410.68        11.30951
411.13        11.40812
411.58        11.62926
412.03        11.87967
412.47        12.00159
412.92        11.94131
413.37        11.76254
413.81        11.53816
414.26        11.39648
414.71        11.35934
415.15        11.38975
415.60        11.45087
416.05        11.50066
416.49        11.51986
416.94        11.52983
417.39        11.52229
417.83        11.47721
418.28        11.40056
418.73        11.29025
419.17         11.1836
419.62        11.14348
420.07        11.17912
420.51        11.26972
420.96        11.36862
421.41         11.3955
421.85        11.33175
422.30        11.21906
422.74        11.09098
423.19        11.01503
423.64        11.00177
424.08        11.03566
424.53        11.09219
424.98        11.15258
425.42        11.20542
425.87        11.24617
426.31        11.26448
426.76        11.26354
427.21         11.2051
427.65        11.11116
428.10        10.99578
428.54        10.86579
428.99         10.7462
429.44         10.7123
429.88        10.73228
430.33        10.62137
430.77        10.44864
431.22         10.5525
431.66        10.89881
432.11        11.08401
432.56        11.04576
433.00         11.0298
433.45        11.02735
433.89        10.78402
434.34        10.43707
434.78        10.39941
435.23        10.61978
435.67        10.68439
436.12        10.57345
436.57        10.52511
437.01        10.55657
437.46        10.58635
437.90        10.61087
438.35        10.64522
438.79        10.67594
439.24         10.6616
439.68         10.6155
440.13        10.59309
440.57         10.5788
441.02        10.55565
441.46        10.52559
441.91        10.41831
442.35        10.28876
442.80        10.43558
443.24        10.76258
443.69        10.75128
444.13        10.42548
444.58        10.26846
445.02        10.28246
445.47        10.20835
445.91         10.0685
446.36        10.03004
446.80        10.09766
447.24        10.22773
447.69        10.37455
448.13        10.46785
448.58         10.4892
449.02        10.46062
449.47        10.41558
449.91        10.40156
450.36        10.43154
450.80        10.48583
451.25        10.54198
451.69        10.56717
452.13        10.54984
452.58         10.5088
453.02        10.45164
453.47        10.38876
453.91        10.32476
454.36        10.28963
454.80        10.23636
455.24        10.20799
455.69        10.19292
456.13        10.18688
456.58        10.19721
457.02        10.22315
457.46        10.26367
457.91        10.31437
458.35        10.35562
458.79        10.36109
459.24        10.33665
459.68        10.29646
460.13        10.26726
460.57        10.24127
461.01        10.30598
461.46        10.34522
461.90        10.38694
462.34        10.53146
462.79        10.72312
463.23        10.73881
463.68         10.5967
464.12        10.52662
464.56        10.54148
465.01        10.52867
465.45        10.48173
465.89        10.43878
466.34        10.41907
466.78        10.46342
467.22        10.57331
467.67        10.57814
468.11        10.47657
468.55        10.33531
468.99        10.20897
469.44        10.15439
469.88        10.18685
470.32        10.29079
470.77         10.4235
471.21          10.528
471.65        10.57855
472.10         10.5987
472.54        10.59919
472.98        10.61183
473.42        10.64478
473.87        10.68119
474.31        10.71789
474.75        10.75287
475.20        10.78703
475.64        10.82154
476.08        10.84633
476.52        10.84139
476.97        10.80719
477.41        10.74871
477.85          10.698
478.29        10.70503
478.74        10.78133
479.18        10.90417
479.62         11.0316
480.06        11.12588
480.50        11.17979
480.95        11.10581
481.39        11.10539
481.83        11.12554
482.27        11.23603
482.72        11.31756
483.16          11.494
483.60        11.58805
484.04         11.6266
484.48        11.63798
484.93        11.65958
485.37        11.72664
485.81        11.74193
486.25        11.97184
486.69        11.35427
487.14        11.58719
487.58        12.22171
488.02        12.51012
488.46        12.51001
488.90        12.84497
489.34        12.33144
489.79        12.33792
490.23        12.47928
490.67        12.70688
491.11        12.93141
491.55        12.98561
491.99        12.91687
492.43         12.9954
492.88        13.22761
493.32        13.40376
493.76        13.50618
494.20        13.64053
494.64        13.81038
495.08        13.97609
495.52        14.11719
495.96        14.24227
496.41        14.35464
496.85        14.37462
497.29        14.33974
497.73        14.56505
498.17        14.82709
498.61        14.89213
499.05          14.745
499.49        14.75018
499.93        14.93833
500.37        15.16498
500.82        15.37278
501.26        15.50664
501.70        15.54777
502.14        15.53571
502.58        15.52172
503.02        15.56871
503.46        15.69517
503.90        15.88465
504.34        16.09187
504.78         16.2384
505.22         16.3019
505.66         16.3032
506.10        16.27435
506.54         16.2856
506.98        16.35658
507.42        16.43236
507.86        16.47731
508.30        16.62237
508.74        16.55565
509.18        16.54073
509.62        16.51587
510.06        16.53122
510.50        16.59631
510.94        16.70016
511.38        16.82363
511.82        16.92662
512.26        16.99514
512.70        17.03648
513.14        17.06396
513.58        17.09904
514.02        17.14799
514.46        17.20535
514.90        17.25468
515.34        17.27107
515.78        17.25114
516.22        17.20374
516.66        17.15862
517.10        17.16071
517.54        17.21675
517.98        17.31125
518.42        17.40508
518.86        17.43496
519.30        17.38704
519.74         17.2829
520.18        17.16062
520.62        17.07842
521.06        17.05328
521.50        17.07005
521.93        17.10718
522.37        17.12369
522.81        17.10917
523.25        17.07476
523.69        17.03837
524.13        17.02606
524.57        17.04155
525.01        17.07292
525.45        17.09605
525.89        17.07522
526.32        17.00075
526.76        16.88847
527.20        16.76515
527.64         16.6718
528.08        16.61802
528.52         16.5939
528.96        16.57449
529.40        16.51985
529.83        16.42165
530.27        16.29587
530.71        16.17099
531.15         16.0932
531.59        16.07088
532.03         16.0867
532.46        16.10913
532.90        16.09353
533.34        16.03029
533.78        15.94085
534.22        15.84639
534.66        15.77779
535.09        15.74344
535.53        15.73561
535.97        15.75349
536.41        15.80206
536.85        15.87357
537.28        15.96202
537.72         16.0412
538.16        16.07253
538.60        16.04948
539.04        15.98927
539.47        15.90832
539.91        15.84936
540.35        15.82329
540.79        15.82739
541.22        15.86862
541.66        15.95938
542.10         16.0938
542.54        16.26441
542.97        16.45214
543.41        16.62646
543.85        16.77719
544.29        16.91344
544.72         17.0245
545.16        17.11028
545.60        17.17441
546.04        17.21178
546.47        17.25797
546.91        17.39658
547.35        17.62344
547.79        17.86209
548.22         18.0691
548.66        18.27358
549.10        18.47145
549.53        18.58124
549.97        18.59735
550.41        18.89488
550.84        18.91732
551.28        19.07631
551.72        19.19948
552.15        19.45172
552.59        19.58515
553.03        19.79432
553.46        19.98413
553.90        20.11366
554.34        20.17371
554.77        20.19932
555.21        20.22245
555.65        20.24067
556.08        20.28463
556.52        20.43646
556.96        20.65718
557.39        20.83673
557.83        20.95269
558.27        21.00814
558.70        21.03875
559.14        21.12687
559.57        21.26461
560.01        21.40842
560.45        21.52789
560.88        21.51778
561.32        21.51238
561.75         21.5329
562.19        21.62249
562.63        21.69433
563.06        21.74717
563.50        21.84243
563.93        21.96818
564.37        22.09635
564.80        22.21393
565.24        22.33206
565.68        22.44007
566.11        22.53662
566.55        22.62303
566.98        22.66856
567.42        22.71574
567.85        22.78917
568.29        22.89832
568.72        23.09319
569.16        23.39223
569.60          23.346
570.03        23.67337
570.47        23.81735
570.90        23.95573
571.34        24.08758
571.77        24.20422
572.21        24.24973
572.64        24.23522
573.08        24.40676
573.51        24.77163
573.95        24.68375
574.38        24.82231
574.82         24.8362
