SpectraSmart Spectrum 2.9.0.0
--------- Device Information -----------
Spectrum Name :  反射率_0
Saving Time :  2024/04/30 00:45:59
Spectro-Module Model Name : SE2030-DUVN
Spectro-Module Serial Number : OS361AC55029948
Wavelength Start : 200
Wavelength End : 1025
Wavelength Unit : Wavelength(nm)
Spectrum Unit : Reflectance(%)
-----------Spectrum Setting ------------
Integration Time : 20ms
Average : 10
Boxcar : 0
Background removal :  enabled
linearity correction :  enabled
SC :  disabled
Intensity correction :  disabled
DWT denoise :  enabled
savitzky-golay :  disabled
FFT :  disabled
Running average :  disabled
Kalman :  disabled
High pass :  disabled
---------------BEGIN--------------------
Wavelength(nm)             Reflectance(%)
200.29               0
200.75        60.18692
201.21        41.99773
201.67        22.14731
202.13        7.196392
202.58       0.3013974
203.04        1.365135
203.50        8.895658
203.96        18.32784
204.42        26.70537
204.88        34.10826
205.34        40.42873
205.80        45.63119
206.26        49.07711
206.72        50.45459
207.18        49.46967
207.64        45.75692
208.10        39.61436
208.55        31.24979
209.01         22.5661
209.47        19.11083
209.93        22.16417
210.39        29.07746
210.85        35.73724
211.31        38.82364
211.77        38.24794
212.23        34.19767
212.69        28.43411
213.14        28.64171
213.60        36.59776
214.06        47.22547
214.52        54.92582
214.98        56.41875
215.44        52.76877
215.90        45.64896
216.36        37.52702
216.81        33.22546
217.27        35.39099
217.73         43.6485
218.19        57.95742
218.65        72.11729
219.11        79.07395
219.57        79.23302
220.02        75.71358
220.48        71.89093
220.94        67.60619
221.40        61.37506
221.86        52.46568
222.32        43.57519
222.77        38.43377
223.23        37.34779
223.69        37.95035
224.15        38.24647
224.61        37.98539
225.06        37.46006
225.52        37.45992
225.98        38.92646
226.44        41.47481
226.90        44.06603
227.36        45.89925
227.81        46.62598
228.27        46.47152
228.73        45.57179
229.19        44.43064
229.65        44.07655
230.10        44.65501
230.56        45.72092
231.02         46.5143
231.48        46.35239
231.93        45.20892
232.39        43.43029
232.85        41.50426
233.31        40.44014
233.77        40.57121
234.22        41.69139
234.68        43.17682
235.14        43.88121
235.60        43.50625
236.05        42.45572
236.51        41.44233
236.97        41.35511
237.43        42.43759
237.88        44.64639
238.34        47.64453
238.80        50.55788
239.26         52.3833
239.71        53.26471
240.17        53.06765
240.63        52.03349
241.08        50.20876
241.54        46.76193
242.00        41.96339
242.46        39.80561
242.91        44.90216
243.37        56.38836
243.83        68.53493
244.28        76.32192
244.74        79.53739
245.20        78.48474
245.66        74.70822
246.11        72.33678
246.57        73.46652
247.03        77.96411
247.48        81.71272
247.94        76.54197
248.40        64.86738
248.85        52.84714
249.31        45.40564
249.77        44.10965
250.22        48.46078
250.68        59.17219
251.14        76.39308
251.59         87.5062
252.05        82.43661
252.51         70.6802
252.96         61.0505
253.42        56.75573
253.88        56.02796
254.33        56.96713
254.79        58.84796
255.25        59.70103
255.70        58.96826
256.16        58.03799
256.62         57.2935
257.07        56.85245
257.53        56.94796
257.99        57.21019
258.44        57.13734
258.90        56.78218
259.35        55.87708
259.81        54.93174
260.27        54.11013
260.72        53.57478
261.18        53.40312
261.63        53.23974
262.09         52.9436
262.55        52.04855
263.00        50.59539
263.46        49.03083
263.91        47.52217
264.37        46.51419
264.83        45.93176
265.28          45.562
265.74        45.37917
266.19        45.13034
266.65        44.81478
267.11        44.45592
267.56        44.03778
268.02        43.53287
268.47         42.9115
268.93        42.17376
269.38        41.33614
269.84        40.56107
270.30        39.87885
270.75        39.27014
271.21        38.67976
271.66        37.97161
272.12         37.1316
272.57        36.19893
273.03         35.2772
273.48        34.44616
273.94        33.79996
274.39        33.26489
274.85        32.87141
275.31        32.58628
275.76        32.35481
276.22        32.19068
276.67        31.99783
277.13        31.73452
277.58        31.34751
278.04        30.90297
278.49        30.39206
278.95        29.90164
279.40         29.4147
279.86        28.98633
280.31        28.58824
280.77        28.29577
281.22        28.07026
281.68        27.91858
282.13        27.80672
282.59        27.73901
283.04        27.67444
283.50        27.60194
283.95        27.45671
284.41        27.16019
284.86        26.70749
285.32        26.18955
285.77        25.64686
286.22        25.20369
286.68        24.90612
287.13         24.6893
287.59        24.59701
288.04        24.63412
288.50        24.79078
288.95        25.01752
289.41         25.2319
289.86        25.27115
290.32        25.13867
290.77        24.88813
291.22        24.60678
291.68        24.43595
292.13        24.41175
292.59        24.50781
293.04        24.75537
293.50        25.22708
293.95        25.90381
294.40        26.77032
294.86        27.65522
295.31        28.30072
295.77        28.65145
296.22        28.76634
296.68        28.84985
297.13        29.20807
297.58        29.91531
298.04        30.84607
298.49        31.81262
298.95        32.51849
299.40        32.89305
299.85        33.04741
300.31        33.12814
300.76        33.29556
301.21        33.62983
301.67        34.07949
302.12        34.56849
302.58        35.12854
303.03        35.72395
303.48        36.22857
303.94         36.6154
304.39        37.49113
304.84        37.74076
305.30        38.24765
305.75        38.63841
306.20        38.92376
306.66        39.11164
307.11         39.2051
307.57        39.27525
308.02        39.34229
308.47        39.43536
308.93        39.55422
309.38        39.66716
309.83        39.77542
310.29        39.87289
310.74        39.95513
311.19        40.00496
311.65        39.98624
312.10        39.89294
312.55        39.74534
313.00        39.59116
313.46        39.50436
313.91        39.49008
314.36        39.52884
314.82        39.58382
315.27        39.61731
315.72        39.59624
316.18        39.53025
316.63        39.40429
317.08        39.20731
317.53        38.95214
317.99        38.66506
318.44        38.35744
318.89        38.05355
319.35        37.76963
319.80        37.49921
320.25        37.30326
320.70        37.27561
321.16        37.40592
321.61         37.6785
322.06        37.93884
322.51        37.93929
322.97        37.62289
323.42        37.06649
323.87        36.43537
324.32        36.00307
324.78        35.83097
325.23        35.86116
325.68        35.96669
326.13        35.93222
326.59        35.68981
327.04        35.32993
327.49         34.9412
327.94         34.6766
328.39        34.57371
328.85        34.55532
329.30        34.58276
329.75        34.53817
330.20        34.38668
330.66        34.17413
331.11        33.92438
331.56        33.64325
332.01        33.34684
332.46        33.01744
332.92        32.71211
333.37        32.57758
333.82        32.62342
334.27         32.8168
334.72        33.01712
335.17        32.98188
335.63        32.65111
336.08        32.11301
336.53        31.50637
336.98        31.09101
337.43        30.94981
337.88        31.00269
338.34        31.16563
338.79        31.32376
339.24        31.41754
339.69        31.48937
340.14        31.51527
340.59        31.45168
341.05        31.30575
341.50        31.08216
341.95        30.85199
342.40        30.74459
342.85        30.78208
343.30         30.9187
343.75        31.08351
344.20        31.15832
344.66        31.11614
345.11        30.99088
345.56        30.79899
346.01        30.56469
346.46        30.31873
346.91        30.06184
347.36        29.85142
347.81        29.77524
348.26        29.83842
348.72        30.00699
349.17        30.20976
349.62        30.31628
350.07        30.28626
350.52        30.16039
350.97        29.97394
351.42        29.78201
351.87         29.6147
352.32        29.46316
352.77        29.35421
353.22        29.33368
353.67        29.40126
354.13         29.5327
354.58        29.69145
355.03        29.81455
355.48        29.87331
355.93        29.88095
356.38        29.81359
356.83        29.64042
357.28         29.3732
357.73        29.02897
358.18        28.68557
358.63        28.46666
359.08        28.39412
359.53        28.42881
359.98        28.49531
360.43        28.46808
360.88        28.31367
361.33        28.07486
361.78        27.79043
362.23         27.5217
362.68        27.29678
363.13        27.10047
363.58        26.94142
364.03        26.83495
364.48         26.7764
364.93        26.75782
365.38         26.7594
365.83        26.74556
366.28        26.70195
366.73        26.63478
367.18        26.53273
367.63         26.3827
368.08         26.1886
368.53        25.95509
368.98        25.72385
369.43        25.56161
369.88        25.48605
370.33        25.48734
370.78        25.51542
371.23        25.48523
371.68        25.37288
372.13        25.19258
372.58        25.00338
373.03        24.90249
373.48        24.90492
373.93        24.97719
374.38        25.03143
374.83        24.92643
375.28        24.64384
375.72        24.23914
376.17        23.83842
376.62        23.57662
377.07        23.48021
377.52        23.49138
377.97        23.56124
378.42        23.60969
378.87          23.602
379.32        23.56765
379.77        23.48507
380.22        23.31812
380.67        23.07327
381.11        22.75973
381.56        22.45552
382.01        22.29346
382.46         22.3046
382.91        22.45283
383.36        22.64871
383.81        22.75188
384.26        22.72555
384.71        22.60276
385.15        22.44069
385.60        22.36069
386.05        22.37373
386.50         22.4373
386.95        22.48432
387.40        22.41556
387.85        22.22145
388.29        21.93935
388.74        21.66686
389.19        21.46391
389.64        21.34543
390.09        21.27959
390.54        21.25651
390.98        21.25684
391.43        21.27543
391.88        21.31763
392.33        21.34071
392.78        21.30528
393.23        21.21175
393.67        21.01868
394.12        20.80813
394.57        20.83907
395.02        20.82028
395.47        20.96417
395.91        21.10078
396.36        21.08373
396.81        20.89392
397.26        20.59367
397.71        20.28432
398.15        20.10288
398.60        20.10292
399.05         20.1876
399.50        20.29635
399.95        20.43474
400.39        20.47367
400.84        20.43207
401.29        20.30727
401.74        20.21977
402.18        20.19221
402.63         20.1493
403.08        20.10924
403.53        20.11905
403.97        20.17728
404.42        20.27608
404.87        20.36042
405.32        20.33814
405.76        20.19116
406.21        19.95747
406.66        19.71647
407.11        19.59562
407.55        19.62966
408.00        19.78114
408.45        19.96938
408.90        20.04509
409.34        19.96518
409.79        19.77187
410.24        19.56749
410.68        19.50644
411.13        19.61931
411.58        19.85502
412.03        20.09905
412.47        20.16079
412.92        19.98526
413.37        19.65536
413.81        19.28975
414.26        19.08811
414.71        19.07919
415.15        19.20686
415.60        19.38464
416.05        19.48795
416.49        19.47682
416.94        19.39912
417.39        19.28702
417.83        19.18568
418.28        19.11893
418.73        19.05828
419.17        19.02618
419.62        19.06519
420.07        19.17133
420.51        19.33195
420.96        19.48237
421.41        19.50721
421.85         19.3868
422.30         19.1826
422.74        18.96455
423.19        18.86787
423.64        18.91112
424.08        19.06124
424.53        19.25651
424.98        19.41784
425.42        19.51363
425.87        19.55252
426.31        19.53701
426.76         19.5029
427.21         19.3974
427.65        19.24688
428.10        19.08023
428.54        18.92066
428.99        18.79937
429.44        18.84226
429.88        18.96559
430.33        18.79049
430.77        18.43697
431.22        18.52817
431.66        19.02371
432.11         19.2737
432.56         19.1888
433.00        19.18622
433.45        19.24347
433.89        18.90996
434.34        18.40016
434.78        18.44027
435.23        18.92809
435.67         19.1004
436.12         18.9176
436.57        18.81335
437.01         18.8347
437.46        18.86486
437.90         18.9091
438.35        18.98945
438.79        19.08153
439.24        19.11633
439.68        19.10982
440.13         19.1545
440.57        19.20808
441.02        19.20771
441.46        19.15318
441.91        18.93345
442.35        18.65226
442.80        18.85593
443.24        19.37376
443.69         19.2689
444.13        18.62956
444.58        18.37728
445.02        18.52095
445.47        18.57561
445.91        18.50939
446.36        18.51255
446.80        18.57306
447.24        18.64384
447.69        18.71634
448.13        18.77705
448.58        18.82144
449.02        18.85007
449.47        18.87173
449.91        18.88785
450.36        18.90397
450.80        18.92099
451.25        18.93026
451.69        18.91319
452.13        18.86806
452.58        18.80898
453.02        18.75819
453.47        18.74751
453.91        18.77735
454.36        18.89179
454.80        18.96362
455.24        19.00774
455.69        18.98883
456.13        18.91903
456.58        18.84379
457.02        18.81665
457.46        18.85249
457.91         18.9298
458.35        19.00661
458.79        19.03028
459.24        19.00247
459.68        18.95417
460.13        18.91664
460.57        18.85242
461.01        18.91632
461.46        18.90783
461.90        18.89233
462.34        19.08365
462.79        19.39063
463.23        19.40162
463.68        19.15072
464.12        19.04769
464.56        19.11165
465.01         19.1388
465.45        19.10629
465.89        19.06647
466.34        19.05187
466.78        19.13832
467.22        19.34001
467.67        19.36655
468.11        19.21851
468.55        19.00653
468.99        18.81169
469.44        18.70982
469.88        18.72694
470.32        18.84904
470.77         19.0122
471.21         19.1249
471.65         19.1544
472.10        19.13564
472.54         19.1106
472.98        19.16332
473.42        19.30657
473.87        19.50219
474.31        19.69554
474.75        19.81234
475.20        19.83989
475.64        19.80055
476.08        19.72858
476.52        19.67109
476.97        19.64627
477.41        19.63742
477.85        19.65204
478.29        19.69967
478.74        19.78374
479.18        19.89107
479.62        19.99056
480.06        20.07957
480.50        20.16208
480.95        20.05831
481.39        20.10798
481.83        20.16628
482.27        20.34794
482.72        20.45981
483.16        20.73438
483.60        20.87065
484.04        20.94663
484.48        20.93699
484.93         20.8805
485.37        20.99823
485.81        21.26061
486.25        21.11454
486.69        20.82305
487.14         21.0939
487.58        21.66133
488.02        21.77941
488.46        22.28646
488.90        22.33963
489.34        21.67538
489.79        22.05486
490.23        22.00052
490.67        22.42511
491.11        22.78258
491.55        22.75497
491.99        22.44309
492.43         22.4624
492.88        22.85847
493.32        23.22178
493.76        23.48484
494.20        23.76137
494.64        24.03616
495.08        24.26554
495.52        24.43173
495.96        24.56989
496.41        24.69491
496.85        24.67697
497.29        24.57662
497.73        24.88307
498.17        25.23087
498.61        25.33302
499.05        25.13346
499.49        25.10732
499.93        25.29678
500.37        25.52805
500.82        25.74891
501.26        25.90673
501.70        25.98471
502.14        26.03654
502.58        26.10351
503.02        26.22005
503.46        26.39844
503.90        26.62789
504.34        26.87279
504.78        27.07023
505.22         27.1996
505.66        27.27403
506.10        27.30331
506.54        27.33648
506.98        27.39216
507.42        27.40313
507.86         27.3556
508.30        27.53823
508.74        27.45131
509.18        27.50606
509.62        27.56237
510.06        27.64514
510.50        27.75145
510.94        27.87905
511.38        28.01498
511.82        28.12407
512.26        28.19649
512.70        28.23823
513.14        28.26036
513.58        28.28237
514.02        28.31145
514.46        28.34315
514.90        28.37335
515.34        28.39577
515.78        28.40876
516.22        28.41516
516.66        28.42078
517.10          28.433
517.54        28.45156
517.98        28.47219
518.42        28.48383
518.86        28.46931
519.30        28.42669
519.74        28.36435
520.18        28.29566
520.62        28.23982
521.06        28.20462
521.50        28.18838
521.93        28.19069
522.37        28.20007
522.81        28.21636
523.25        28.23965
523.69         28.2697
524.13        28.30768
524.57        28.34816
525.01        28.38075
525.45        28.39618
525.89        28.38245
526.32        28.33207
526.76        28.25962
527.20        28.15955
527.64        28.02579
528.08        27.86503
528.52        27.68474
528.96        27.51732
529.40        27.41204
529.83        27.37708
530.27        27.40302
530.71        27.44839
531.15        27.44942
531.59        27.38819
532.03        27.27801
532.46        27.15139
532.90        27.07115
533.34        27.04877
533.78         27.0687
534.22        27.08998
534.66        27.05037
535.09        26.93884
535.53         26.7859
535.97        26.64268
536.41         26.5968
536.85        26.66411
537.28        26.81084
537.72        26.97785
538.16        27.07282
538.60        27.07226
539.04        27.01124
539.47        26.91902
539.91        26.86515
540.35        26.86409
540.79        26.90269
541.22        26.97978
541.66        27.09943
542.10        27.25256
542.54        27.43857
542.97        27.64037
543.41        27.83288
543.85         28.0071
544.29        28.17385
544.72        28.31951
545.16        28.44548
545.60        28.55376
546.04        28.63148
546.47        28.71974
546.91        28.92821
547.35        29.24445
547.79        29.55149
548.22        29.78991
548.66        30.02951
549.10        30.26739
549.53        30.36103
549.97        30.30713
550.41        30.72784
550.84        30.71784
551.28        30.94828
551.72        31.11361
552.15        31.43814
552.59        31.51925
553.03        31.68677
553.46        31.83109
553.90        31.95513
554.34         32.0559
554.77        32.16681
555.21        32.29402
555.65        32.36403
556.08        32.40688
556.52          32.574
556.96        32.83286
557.39        33.05319
557.83        33.21202
558.27        33.29943
558.70        33.35455
559.14         33.4831
559.57        33.66515
560.01        33.84283
560.45        33.98109
560.88        33.93238
561.32        33.91036
561.75        33.93813
562.19        34.06849
562.63        34.14413
563.06        34.15925
563.50         34.2202
563.93        34.31742
564.37        34.42102
564.80        34.51815
565.24        34.62569
565.68        34.72966
566.11        34.83219
566.55        34.93176
566.98        34.97455
567.42        35.02376
567.85        35.10902
568.29        35.23823
568.72        35.50863
569.16        35.93906
569.60        35.75863
570.03        36.05511
570.47        36.18842
570.90        36.24791
571.34        36.21839
571.77        36.47883
572.21        36.65841
572.64        36.81902
573.08        36.98867
573.51        37.21494
573.95        37.14503
574.38        37.29197
574.82        37.53173
