SpectraSmart Spectrum 2.9.0.0
--------- Device Information -----------
Spectrum Name :  反射率_0
Saving Time :  2024/04/30 00:40:17
Spectro-Module Model Name : SE2030-DUVN
Spectro-Module Serial Number : OS361AC55029948
Wavelength Start : 200
Wavelength End : 1025
Wavelength Unit : Wavelength(nm)
Spectrum Unit : Reflectance(%)
-----------Spectrum Setting ------------
Integration Time : 20ms
Average : 10
Boxcar : 0
Background removal :  enabled
linearity correction :  enabled
SC :  disabled
Intensity correction :  disabled
DWT denoise :  enabled
savitzky-golay :  disabled
FFT :  disabled
Running average :  disabled
Kalman :  disabled
High pass :  disabled
---------------BEGIN--------------------
Wavelength(nm)             Reflectance(%)
200.29               0
200.75        45.45297
201.21         29.7629
201.67        11.28359
202.13       -2.339197
202.58       -7.520734
203.04       -5.512873
203.50        2.881549
203.96        15.12433
204.42        28.31942
204.88        41.98405
205.34        51.82841
205.80        52.34151
206.26        45.80696
206.72        37.04384
207.18        28.93962
207.64         22.9627
208.10          18.582
208.55        14.30194
209.01        11.93753
209.47        15.58978
209.93        24.28947
210.39        35.23843
210.85        43.42456
211.31        44.64524
211.77        38.63883
212.23        24.50457
212.69        4.604487
213.14       -4.697766
213.60        4.996747
214.06        24.09864
214.52        41.03465
214.98        48.61015
215.44         48.2066
215.90         43.0209
216.36        35.81586
216.81        31.59299
217.27        33.11241
217.73        39.44549
218.19        50.62962
218.65        62.33662
219.11        68.89132
219.57        70.22387
220.02        68.45322
220.48        66.19934
220.94        63.33669
221.40        58.69131
221.86         50.9069
222.32        40.89256
222.77        32.69994
223.23        28.37932
223.69        26.46914
224.15        25.05371
224.61        23.57814
225.06        22.04645
225.52         21.7571
225.98        24.50419
226.44        29.47764
226.90        34.75078
227.36        38.63641
227.81        40.34719
228.27        40.29742
228.73         38.8333
229.19         36.8743
229.65        36.30291
230.10        37.42198
230.56        39.33688
231.02        40.82085
231.48        40.76976
231.93        39.18004
232.39         36.5494
232.85        33.65334
233.31        32.01484
233.77        32.13742
234.22        33.67719
234.68        35.68977
235.14        36.42175
235.60        35.42721
236.05        33.35923
236.51        31.32173
236.97        30.68188
237.43        31.80767
237.88        34.59299
238.34        38.60624
238.80        42.36418
239.26        44.42625
239.71        44.95956
240.17        44.33468
240.63        43.59335
241.08        43.07996
241.54        42.28012
242.00        41.24489
242.46        40.97396
242.91        42.60352
243.37        45.95465
243.83        49.47739
244.28        51.53925
244.74        51.98152
245.20        51.14381
245.66         49.6079
246.11        48.90111
246.57        50.07719
247.03        52.81297
247.48        56.51526
247.94        58.80075
248.40        59.09608
248.85        58.15441
249.31        57.57846
249.77        57.90921
250.22        59.27267
250.68         61.7824
251.14        65.20102
251.59        66.31343
252.05        63.50598
252.51        59.69867
252.96        56.49222
253.42        54.31713
253.88        52.37746
254.33        50.00917
254.79        47.81934
255.25        46.68497
255.70        46.53725
256.16        47.04209
256.62        47.21366
257.07        46.24355
257.53        44.55814
257.99        42.44149
258.44        40.33101
258.90        39.46827
259.35        39.56906
259.81         40.2111
260.27        40.87514
260.72        41.20821
261.18         41.2839
261.63        41.05297
262.09        40.62984
262.55        39.90993
263.00        38.94428
263.46        37.97427
263.91        36.94359
264.37        35.97443
264.83        35.02716
265.28        34.02594
265.74        33.22424
266.19        32.81936
266.65        32.85596
267.11        33.21243
267.56        33.54028
268.02        33.32673
268.47        32.47961
268.93        31.14616
269.38        29.68302
269.84        28.82767
270.30         28.7308
270.75        29.15281
271.21        29.64479
271.66        29.54878
272.12        28.74211
272.57        27.44461
273.03        26.02964
273.48        25.00549
273.94        24.55861
274.39        24.47132
274.85         24.5479
275.31         24.4749
275.76        24.15912
276.22        23.72259
276.67        23.24628
277.13        22.90113
277.58         22.6787
278.04        22.53999
278.49        22.34613
278.95         21.9827
279.40        21.41098
279.86        20.75226
280.31        20.10432
280.77        19.70149
281.22        19.54986
281.68        19.58966
282.13        19.70064
282.59        19.74463
283.04         19.6685
283.50        19.49803
283.95        19.26291
284.41          19.009
284.86        18.74891
285.32        18.50052
285.77        18.20879
286.22        17.85175
286.68        17.44974
287.13        16.99924
287.59        16.61624
288.04        16.42626
288.50        16.45369
288.95        16.62952
289.41        16.82916
289.86        16.84255
290.32        16.65193
290.77         16.3275
291.22         15.9894
291.68        15.82651
292.13        15.88026
292.59        16.09543
293.04        16.43571
293.50         16.8668
293.95        17.35733
294.40        17.91367
294.86        18.45757
295.31        18.88256
295.77        19.16336
296.22        19.31949
296.68        19.43898
297.13        19.64595
297.58        19.98208
298.04        20.38697
298.49        20.81203
298.95        21.16363
299.40        21.41792
299.85         21.6104
300.31        21.75961
300.76        21.84743
301.21        21.90433
301.67        21.92978
302.12        21.94345
302.58        22.11181
303.03        22.44577
303.48        22.75008
303.94        22.90951
304.39        23.56524
304.84         23.3402
305.30        23.35488
305.75        23.28465
306.20        23.31454
306.66        23.46588
307.11        23.68744
307.57         23.8974
308.02         23.9173
308.47        23.73026
308.93         23.4049
309.38        23.03621
309.83        22.81096
310.29        22.77124
310.74        22.86023
311.19        22.97567
311.65        22.95435
312.10        22.76069
312.55         22.4492
313.00        22.12129
313.46          21.931
313.91        21.90072
314.36        21.97789
314.82        22.06765
315.27        22.03945
315.72        21.84948
316.18        21.55194
316.63        21.20066
317.08        20.89097
317.53         20.6587
317.99         20.4808
318.44        20.33582
318.89        20.19379
319.35        20.04118
319.80        19.88653
320.25        19.74501
320.70        19.63707
321.16        19.55532
321.61        19.49972
322.06        19.42319
322.51        19.25957
322.97        19.00175
323.42        18.68033
323.87        18.36038
324.32        18.14595
324.78        18.05391
325.23         18.0604
325.68        18.10523
326.13        18.08712
326.59        17.96985
327.04        17.79057
327.49        17.57698
327.94        17.38396
328.39        17.22543
328.85        17.06931
329.30        16.91799
329.75        16.75683
330.20        16.58512
330.66        16.42071
331.11        16.25138
331.56        16.03463
332.01        15.76674
332.46        15.45146
332.92        15.15057
333.37        14.98733
333.82        14.98323
334.27        15.10268
334.72        15.23674
335.17        15.20144
335.63        14.95254
336.08        14.54957
336.53        14.09205
336.98         13.7604
337.43        13.61575
337.88        13.60529
338.34        13.67607
338.79         13.7625
339.24        13.82594
339.69        13.89454
340.14        13.94984
340.59        13.95881
341.05        13.91667
341.50        13.81255
341.95        13.69174
342.40        13.63968
342.85        13.66799
343.30        13.75179
343.75        13.81436
344.20        13.73186
344.66        13.49375
345.11         13.1423
345.56        12.77127
346.01         12.5243
346.46        12.44592
346.91        12.49585
347.36        12.61607
347.81        12.72052
348.26        12.77705
348.72        12.80002
349.17        12.80653
349.62        12.83114
350.07        12.87613
350.52        12.92372
350.97        12.92798
351.42        12.82364
351.87        12.61318
352.32        12.33608
352.77        12.07058
353.22        11.93879
353.67        11.96995
354.13        12.11949
354.58         12.3342
355.03         12.5281
355.48        12.65992
355.93        12.74607
356.38        12.76818
356.83        12.70156
357.28        12.55475
357.73        12.33937
358.18        12.10498
358.63        11.93495
359.08        11.84942
359.53        11.82538
359.98        11.83786
360.43        11.84031
360.88        11.81472
361.33         11.7786
361.78        11.71806
362.23        11.61024
362.68         11.4606
363.13        11.27773
363.58        11.10716
364.03        11.02357
364.48        11.03926
364.93        11.12708
365.38        11.24033
365.83        11.30299
366.28        11.28814
366.73        11.21311
367.18        11.09313
367.63        10.95377
368.08        10.80933
368.53        10.65871
368.98        10.50708
369.43        10.36276
369.88        10.23491
370.33        10.13124
370.78         10.0675
371.23        10.06378
371.68        10.11674
372.13        10.20854
372.58        10.30949
373.03        10.37537
373.48        10.38698
373.93        10.34935
374.38        10.26079
374.83        10.12526
375.28        9.957464
375.72        9.764625
376.17        9.582961
376.62        9.438996
377.07        9.338859
377.52        9.273459
377.97        9.244934
378.42         9.25188
378.87        9.287399
379.32        9.351606
379.77        9.407681
380.22        9.403383
380.67        9.329727
381.11        9.191743
381.56        9.049688
382.01        9.000517
382.46        9.064918
382.91        9.219576
383.36        9.377261
383.81        9.404438
384.26        9.279622
384.71        9.042006
385.15        8.796095
385.60         8.72772
386.05        8.856277
386.50        9.113924
386.95        9.373529
387.40        9.436649
387.85        9.271415
388.29        8.958965
388.74        8.620499
389.19        8.381651
389.64        8.275864
390.09        8.252761
390.54        8.303391
390.98        8.412071
391.43        8.554868
391.88         8.73362
392.33        8.884126
392.78        8.924349
393.23        8.849582
393.67        8.659408
394.12        8.444139
394.57        8.392642
395.02        8.404726
395.47        8.545026
395.91        8.695083
396.36        8.705308
396.81        8.550628
397.26        8.289232
397.71        8.022739
398.15        7.891213
398.60         7.93205
399.05        8.072524
399.50        8.234624
399.95        8.346292
400.39        8.339229
400.84        8.244141
401.29        8.101904
401.74        8.034655
402.18        8.071545
402.63        8.154657
403.08        8.248277
403.53        8.308065
403.97        8.318642
404.42        8.298223
404.87        8.250842
405.32        8.180192
405.76        8.090737
406.21        7.983996
406.66        7.883767
407.11        7.830638
407.55         7.83541
408.00        7.891864
408.45        7.958517
408.90        7.957474
409.34        7.869924
409.79         7.71726
410.24        7.571901
410.68        7.544549
411.13        7.655527
411.58        7.871242
412.03        8.096533
412.47         8.16924
412.92         8.04439
413.37        7.786203
413.81        7.501553
414.26        7.364825
414.71        7.402944
415.15        7.564824
415.60        7.765374
416.05        7.876383
416.49        7.856048
416.94        7.750397
417.39        7.603425
417.83        7.481255
418.28         7.41366
418.73        7.374592
419.17        7.360993
419.62        7.369884
420.07        7.395453
420.51        7.441741
420.96        7.493847
421.41        7.521338
421.85        7.514965
422.30        7.488075
422.74        7.451088
423.19        7.435913
423.64        7.445588
424.08        7.476898
424.53        7.510239
424.98        7.531333
425.42        7.533872
425.87         7.51299
426.31        7.476943
426.76        7.452651
427.21        7.419564
427.65        7.391509
428.10        7.351536
428.54        7.258748
428.99        7.125595
429.44        7.013758
429.88        6.944391
430.33        6.865763
430.77        6.826993
431.22        7.022406
431.66         7.38468
432.11        7.551159
432.56        7.455043
433.00        7.288086
433.45        7.101873
433.89        6.838572
434.34        6.625376
434.78        6.687875
435.23        6.949738
435.67        7.073761
436.12        7.022598
436.57        6.974174
437.01         6.96541
437.46        6.982792
437.90        7.033327
438.35        7.109362
438.79        7.174891
439.24        7.160751
439.68        7.070916
440.13          6.9617
440.57        6.855043
441.02        6.793823
441.46        6.792304
441.91        6.784604
442.35        6.780285
442.80        6.944394
443.24        7.207066
443.69        7.229006
444.13        7.027383
444.58        6.934255
445.02        6.954136
445.47        6.910339
445.91        6.815364
446.36        6.782441
446.80        6.815834
447.24        6.887848
447.69        6.976132
448.13        7.047019
448.58        7.088952
449.02        7.114525
449.47        7.129311
449.91        7.139193
450.36        7.147361
450.80        7.147069
451.25        7.144511
451.69        7.154115
452.13        7.173182
452.58        7.203053
453.02        7.220517
453.47         7.18919
453.91        7.103778
454.36        7.002103
454.80        6.880487
455.24         6.81196
455.69        6.800547
456.13        6.828247
456.58        6.883602
457.02        6.940188
457.46        6.988457
457.91        7.032426
458.35        7.061552
458.79        7.059383
459.24        7.033024
459.68        6.989499
460.13        6.951484
460.57        6.919708
461.01        6.956062
461.46        6.979181
461.90        7.007946
462.34        7.104968
462.79        7.231162
463.23        7.239368
463.68        7.139072
464.12        7.082061
464.56        7.077173
465.01        7.049406
465.45        7.001857
465.89        6.971352
466.34        6.971717
466.78        7.027351
467.22        7.127741
467.67        7.138124
468.11        7.051129
468.55        6.916088
468.99        6.786644
469.44        6.726795
469.88        6.752217
470.32        6.848269
470.77        6.964593
471.21        7.031436
471.65        7.024542
472.10        6.971727
472.54        6.909115
472.98        6.905129
473.42        6.972126
473.87        7.080073
474.31        7.192681
474.75        7.253329
475.20        7.251794
475.64        7.208697
476.08        7.145208
476.52        7.091365
476.97        7.059201
477.41        7.035981
477.85        7.032841
478.29         7.06621
478.74        7.136155
479.18        7.236267
479.62        7.330569
480.06        7.381807
480.50         7.38412
480.95        7.278903
481.39        7.220349
481.83        7.213692
482.27        7.313453
482.72        7.433198
483.16         7.61522
483.60        7.693989
484.04        7.679851
484.48        7.564426
484.93         7.43242
485.37        7.512363
485.81         7.71489
486.25        7.905424
486.69        7.296696
487.14         7.50118
487.58        8.293942
488.02        7.922164
488.46        8.147642
488.90        8.275809
489.34        7.801742
489.79        7.845404
490.23        8.048085
490.67        8.251958
491.11        8.359292
491.55        8.330122
491.99        8.223231
492.43        8.241905
492.88        8.401386
493.32        8.550896
493.76        8.655301
494.20        8.753088
494.64        8.839012
495.08        8.895208
495.52        8.936068
495.96        9.012076
496.41        9.132119
496.85        9.227252
497.29        9.286359
497.73        9.462319
498.17        9.598741
498.61        9.562403
499.05          9.3731
499.49        9.308195
499.93        9.400948
500.37        9.548077
500.82        9.706264
501.26        9.829413
501.70        9.898335
502.14        9.941816
502.58        9.985584
503.02        10.05775
503.46        10.16624
503.90        10.29892
504.34        10.43335
504.78        10.53269
505.22        10.58676
505.66        10.60795
506.10        10.60726
506.54         10.6144
506.98        10.64035
507.42        10.65445
507.86        10.65356
508.30        10.75333
508.74        10.75627
509.18        10.82177
509.62        10.88101
510.06        10.92161
510.50        10.94054
510.94        10.94555
511.38        10.95155
511.82        10.97836
512.26        11.03067
512.70        11.09895
513.14        11.17397
513.58        11.24222
514.02        11.29832
514.46         11.3462
514.90        11.38086
515.34        11.39447
515.78        11.38746
516.22        11.36164
516.66        11.33111
517.10         11.3189
517.54        11.32897
517.98        11.35438
518.42        11.38006
518.86        11.38039
519.30        11.34965
519.74        11.29804
520.18         11.2367
520.62        11.18182
521.06        11.14033
521.50        11.10918
521.93        11.08987
522.37        11.08165
522.81        11.08364
523.25        11.09406
523.69        11.10928
524.13        11.12331
524.57        11.13234
525.01        11.13529
525.45        11.12619
525.89        11.09766
526.32        11.04827
526.76         10.9826
527.20        10.91081
527.64        10.84898
528.08        10.80107
528.52        10.76492
528.96        10.73121
529.40        10.68397
529.83        10.62045
530.27        10.54805
530.71        10.47833
531.15        10.43086
531.59        10.40847
532.03        10.40253
532.46        10.40025
532.90        10.38394
533.34        10.34967
533.78        10.30741
534.22        10.26088
534.66        10.21525
535.09        10.17287
535.53        10.13364
535.97        10.10819
536.41        10.11831
536.85         10.1629
537.28        10.23285
537.72        10.29793
538.16        10.31401
538.60        10.27384
539.04        10.19792
539.47          10.108
539.91        10.04982
540.35        10.03421
540.79        10.05209
541.22        10.10467
541.66        10.19501
542.10        10.31504
542.54        10.46165
542.97          10.615
543.41        10.74114
543.85        10.83395
544.29        10.90342
544.72        10.95687
545.16        11.01919
545.60        11.09687
546.04        11.17866
546.47        11.27366
546.91         11.4131
547.35        11.58727
547.79        11.75292
548.22        11.88883
548.66        12.02505
549.10        12.16278
549.53        12.24282
549.97        12.26236
550.41        12.46907
550.84        12.49553
551.28        12.61669
551.72        12.71245
552.15        12.88159
552.59        12.95928
553.03        13.07745
553.46         13.1883
553.90        13.28784
554.34        13.37297
554.77        13.45811
555.21        13.54421
555.65         13.5945
556.08        13.62122
556.52        13.69133
556.96        13.79809
557.39        13.89855
557.83        13.98581
558.27        14.05245
558.70        14.10949
559.14         14.1909
559.57        14.28592
560.01        14.37225
560.45        14.43822
560.88        14.42547
561.32        14.42639
561.75        14.44978
562.19        14.51985
562.63        14.57053
563.06        14.59959
563.50         14.6529
563.93        14.72571
564.37        14.80317
564.80        14.87878
565.24        14.95817
565.68        15.03685
566.11        15.11767
566.55         15.2016
566.98        15.26734
567.42        15.33567
567.85        15.41153
568.29        15.49932
568.72        15.63274
569.16         15.8314
569.60        15.82381
570.03        16.10347
570.47        16.24731
570.90        16.35111
571.34        16.56991
571.77        16.61016
572.21        16.63525
572.64        16.57673
573.08        16.76519
573.51        17.21423
573.95        17.06418
574.38        17.08958
574.82        17.31989
