SpectraSmart Spectrum 2.9.0.0
--------- Device Information -----------
Spectrum Name :  反射率_0
Saving Time :  2024/04/30 00:47:03
Spectro-Module Model Name : SE2030-DUVN
Spectro-Module Serial Number : OS361AC55029948
Wavelength Start : 200
Wavelength End : 1025
Wavelength Unit : Wavelength(nm)
Spectrum Unit : Reflectance(%)
-----------Spectrum Setting ------------
Integration Time : 20ms
Average : 10
Boxcar : 0
Background removal :  enabled
linearity correction :  enabled
SC :  disabled
Intensity correction :  disabled
DWT denoise :  enabled
savitzky-golay :  disabled
FFT :  disabled
Running average :  disabled
Kalman :  disabled
High pass :  disabled
---------------BEGIN--------------------
Wavelength(nm)             Reflectance(%)
200.29               0
200.75        52.82178
201.21         43.6289
201.67         32.0231
202.13        20.73207
202.58        11.39602
203.04        3.573233
203.50      -0.8233245
203.96        2.359171
204.42        13.72546
204.88        31.23372
205.34        48.65042
205.80        56.36152
206.26        54.17816
206.72        47.67704
207.18        39.78382
207.64        31.74353
208.10        23.37991
208.55        13.40008
209.01        4.272369
209.47        2.838375
209.93        9.693089
210.39        21.15298
210.85        31.09478
211.31        34.46125
211.77        30.96796
212.23        20.21729
212.69        4.621505
213.14       -1.505239
213.60        8.330888
214.06        25.60171
214.52        39.62953
214.98        43.59877
215.44        38.90362
215.90        28.42528
216.36        16.12888
216.81        9.622307
217.27        12.93552
217.73        25.48679
218.19        46.11982
218.65         63.5146
219.11        68.06092
219.57        63.10015
220.02        55.48929
220.48        50.72128
220.94        48.58051
221.40        47.06784
221.86        44.99321
222.32        41.19415
222.77         36.7805
223.23        34.07612
223.69        32.68606
224.15        31.73361
224.61        30.91189
225.06        29.98623
225.52        29.73817
225.98        31.23989
226.44        34.03321
226.90         37.0433
227.36        39.22625
227.81        40.00399
228.27        39.64885
228.73        38.45174
229.19        37.06826
229.65        36.84238
230.10        37.92933
230.56         39.5507
231.02        40.95588
231.48        41.56936
231.93        41.34371
232.39        40.59808
232.85        39.49073
233.31        38.38547
233.77        37.45798
234.22        36.70677
234.68        35.98827
235.14        35.09968
235.60        34.14174
236.05        33.34586
236.51        33.08344
236.97        33.76057
237.43        35.49518
237.88        38.38262
238.34        42.24427
238.80        46.27049
239.26        49.29726
239.71        51.21056
240.17        51.61345
240.63        50.62018
241.08        48.26473
241.54        43.49767
242.00        36.60853
242.46        33.08139
242.91        39.15438
243.37        53.54534
243.83        68.77667
244.28        78.03757
244.74        80.91566
245.20        78.36395
245.66        71.05326
246.11        61.66543
246.57        52.68966
247.03        43.99029
247.48        37.09219
247.94        35.02346
248.40        37.71628
248.85        42.65573
249.31        48.20509
249.77        53.96727
250.22         61.0724
250.68         71.5051
251.14        85.18709
251.59        91.70738
252.05        84.52394
252.51        72.47264
252.96        62.99319
253.42        58.36603
253.88        56.71569
254.33         56.4193
254.79        57.28057
255.25        58.21062
255.70        58.47628
256.16        58.74516
256.62        58.68485
257.07        57.95423
257.53        56.99103
257.99        55.73926
258.44        54.30727
258.90        53.59135
259.35        53.26928
259.81        53.29441
260.27        53.32759
260.72        53.13059
261.18        52.83601
261.63         52.2934
262.09          51.595
262.55         50.5585
263.00        49.22787
263.46        47.90594
263.91        46.58125
264.37        45.48798
264.83         44.5567
265.28        43.67519
265.74        42.97306
266.19        42.43997
266.65        42.10937
267.11        41.90319
267.56        41.67474
268.02        41.20605
268.47         40.4332
268.93        39.43988
269.38        38.30174
269.84          37.281
270.30         36.4647
270.75        35.80265
271.21        35.27022
271.66        34.79142
272.12         34.3216
272.57        33.84827
273.03        33.36391
273.48        32.77094
273.94        32.11964
274.39        31.41096
274.85        30.71452
275.31        30.06114
275.76        29.44633
276.22        28.87561
276.67        28.35852
277.13        27.99188
277.58         27.7276
278.04        27.57516
278.49        27.37445
278.95        26.97936
279.40        26.34521
279.86        25.60324
280.31        24.87155
280.77        24.43844
281.22        24.30885
281.68        24.40129
282.13        24.57654
282.59        24.68512
283.04        24.65932
283.50        24.54138
283.95        24.33296
284.41        24.04302
284.86        23.69197
285.32        23.33352
285.77        22.96596
286.22        22.65507
286.68        22.43084
287.13         22.2404
287.59        22.16311
288.04        22.26095
288.50        22.52295
288.95        22.87565
289.41        23.16885
289.86        23.14584
290.32        22.80179
290.77        22.23637
291.22        21.62221
291.68        21.23475
292.13        21.15302
292.59        21.31514
293.04        21.69914
293.50        22.28992
293.95        23.04443
294.40        23.96685
294.86        24.91261
295.31        25.66654
295.77        26.17392
296.22        26.46399
296.68         26.6973
297.13        27.12053
297.58        27.79542
298.04        28.62049
298.49        29.44717
298.95         30.0351
299.40        30.33789
299.85        30.45914
300.31        30.53144
300.76        30.69563
301.21        31.02068
301.67        31.45091
302.12        31.92758
302.58        32.50512
303.03        33.14737
303.48        33.71503
303.94        34.12449
304.39        34.92872
304.84        34.96485
305.30        35.18449
305.75        35.30096
306.20        35.47635
306.66        35.74185
307.11        36.05162
307.57         36.3673
308.02        36.55304
308.47        36.60214
308.93        36.55959
309.38        36.47702
309.83        36.48459
310.29        36.60454
310.74        36.78892
311.19        36.94443
311.65        36.92111
312.10        36.69278
312.55        36.32309
313.00        35.93166
313.46        35.70202
313.91        35.66264
314.36        35.75115
314.82        35.87522
315.27        35.90685
315.72        35.79068
316.18        35.57751
316.63        35.27508
317.08        34.90668
317.53        34.50331
317.99        34.07221
318.44        33.66133
318.89         33.3541
319.35        33.16618
319.80        33.07491
320.25          33.049
320.70         33.0304
321.16        32.97845
321.61        32.91584
322.06        32.80271
322.51        32.59049
322.97        32.27861
323.42        31.88838
323.87        31.47953
324.32        31.15455
324.78        30.92946
325.23         30.7937
325.68        30.69741
326.13        30.55664
326.59        30.33971
327.04        30.08333
327.49        29.80753
327.94        29.55749
328.39        29.33979
328.85         29.1192
329.30         28.8966
329.75        28.63327
330.20         28.3295
330.66        28.01125
331.11        27.69744
331.56        27.38614
332.01        27.08559
332.46         26.7909
332.92        26.53738
333.37        26.41855
333.82        26.43495
334.27         26.5547
334.72        26.68175
335.17        26.65707
335.63        26.43543
336.08        26.07033
336.53        25.63176
336.98        25.26002
337.43        25.01143
337.88        24.85431
338.34        24.76714
338.79          24.732
339.24        24.72375
339.69        24.75446
340.14        24.79906
340.59        24.81143
341.05        24.77787
341.50        24.69482
341.95        24.58092
342.40        24.48047
342.85        24.40129
343.30        24.32704
343.75        24.23278
344.20        24.07999
344.66        23.87599
345.11        23.63956
345.56        23.39935
346.01        23.19402
346.46        23.04271
346.91        22.93409
347.36        22.87722
347.81        22.88581
348.26        22.94774
348.72        23.04708
349.17        23.13508
349.62        23.13223
350.07        23.01955
350.52        22.82366
350.97         22.5857
351.42        22.36789
351.87        22.19665
352.32        22.06648
352.77        21.97968
353.22        21.93646
353.67        21.93238
354.13        21.96193
354.58        22.02094
355.03        22.10307
355.48         22.1895
355.93        22.26268
356.38        22.28525
356.83         22.2062
357.28        22.02312
357.73        21.76403
358.18         21.4645
358.63        21.18199
359.08        20.93955
359.53        20.72184
359.98        20.54785
360.43        20.44312
360.88        20.40141
361.33        20.41675
361.78        20.42347
362.23        20.31431
362.68          20.075
363.13        19.74271
363.58            19.4
364.03        19.18141
364.48        19.11766
364.93        19.16059
365.38        19.25467
365.83        19.30933
366.28        19.29129
366.73        19.22993
367.18        19.12488
367.63        18.97481
368.08        18.78979
368.53        18.56685
368.98        18.34731
369.43        18.20264
369.88        18.14821
370.33         18.1695
370.78        18.21649
371.23        18.20142
371.68        18.10031
372.13        17.93495
372.58        17.74744
373.03         17.6088
373.48        17.53304
373.93        17.48955
374.38        17.44309
374.83        17.33907
375.28        17.16834
375.72        16.95774
376.17        16.74039
376.62        16.52442
377.07        16.31918
377.52        16.11553
377.97        15.95224
378.42        15.89462
378.87        15.94899
379.32        16.09543
379.77        16.25104
380.22        16.29251
380.67         16.1946
381.11        15.98268
381.56         15.7468
382.01        15.63736
382.46        15.68736
382.91        15.84947
383.36        16.01489
383.81        16.01867
384.26        15.83176
384.71         15.5128
385.15        15.16835
385.60        14.98705
386.05        14.99814
386.50        15.13743
386.95        15.30856
387.40        15.36189
387.85        15.26541
388.29        15.06944
388.74         14.8596
389.19         14.6988
389.64        14.60675
390.09        14.55098
390.54        14.53346
390.98        14.55893
391.43        14.62269
391.88        14.72349
392.33        14.81304
392.78        14.83645
393.23        14.79001
393.67        14.65261
394.12        14.49659
394.57        14.52409
395.02        14.53768
395.47        14.67941
395.91        14.81903
396.36        14.83285
396.81        14.70154
397.26        14.47266
397.71        14.23062
398.15        14.09062
398.60        14.09385
399.05        14.16568
399.50        14.24638
399.95        14.31368
400.39        14.27434
400.84        14.15307
401.29        13.97225
401.74        13.85897
402.18        13.84176
402.63        13.85289
403.08        13.88643
403.53        13.94554
403.97        14.01854
404.42        14.10901
404.87        14.17195
405.32        14.13303
405.76        13.98144
406.21        13.74586
406.66         13.5084
407.11        13.40061
407.55        13.45592
408.00        13.64143
408.45        13.86586
408.90        13.96059
409.34        13.87914
409.79        13.66991
410.24        13.45248
410.68        13.40884
411.13        13.57594
411.58        13.89538
412.03         14.2348
412.47        14.36961
412.92        14.23472
413.37        13.91997
413.81        13.56168
414.26        13.38147
414.71        13.41562
415.15        13.59855
415.60        13.83186
416.05        13.96809
416.49        13.96029
416.94        13.86571
417.39        13.72775
417.83        13.60957
418.28        13.54089
418.73        13.48803
419.17        13.46717
419.62        13.50953
420.07        13.60901
420.51        13.75831
420.96        13.89563
421.41        13.91309
421.85        13.79362
422.30        13.58971
422.74        13.37321
423.19        13.27327
423.64        13.31047
424.08        13.45528
424.53        13.64345
424.98        13.78539
425.42        13.84793
425.87         13.8436
426.31        13.79899
426.76        13.78014
427.21        13.75666
427.65        13.73526
428.10        13.69794
428.54        13.59932
428.99        13.45396
429.44         13.3732
429.88        13.34669
430.33        13.18435
430.77         12.9815
431.22        13.14971
431.66        13.61919
432.11        13.84382
432.56        13.73575
433.00        13.61647
433.45        13.51913
433.89        13.21544
434.34        12.88519
434.78         13.0041
435.23        13.45873
435.67         13.6423
436.12        13.50677
436.57         13.3839
437.01        13.33664
437.46        13.33038
437.90        13.38088
438.35        13.48327
438.79         13.5946
439.24        13.62523
439.68        13.57941
440.13        13.54276
440.57        13.50328
441.02        13.44732
441.46        13.38622
441.91        13.23083
442.35        13.05411
442.80        13.24084
443.24        13.66929
443.69        13.67677
444.13        13.29605
444.58        13.14628
445.02        13.22914
445.47        13.20937
445.91         13.0897
446.36        13.04711
446.80        13.08466
447.24        13.15939
447.69        13.25043
448.13        13.32588
448.58        13.37447
449.02        13.40351
449.47        13.42624
449.91        13.45473
450.36        13.49292
450.80        13.53424
451.25        13.56154
451.69        13.54809
452.13        13.48999
452.58         13.4059
453.02        13.31973
453.47         13.2673
453.91        13.25501
454.36        13.31226
454.80        13.35262
455.24        13.39055
455.69        13.39854
456.13        13.38041
456.58        13.36021
457.02        13.36186
457.46        13.39342
457.91        13.44572
458.35        13.48827
458.79        13.48176
459.24        13.43171
459.68        13.35891
460.13        13.30592
460.57        13.27609
461.01        13.38138
461.46        13.46754
461.90        13.54766
462.34        13.72006
462.79        13.90725
463.23         13.8314
463.68        13.55163
464.12        13.41365
464.56        13.44292
465.01        13.47674
465.45        13.48203
465.89        13.47184
466.34        13.46184
466.78        13.51661
467.22        13.64284
467.67        13.62863
468.11        13.47743
468.55        13.26933
468.99        13.08143
469.44        12.99955
469.88        13.04569
470.32        13.19932
470.77        13.39022
471.21        13.51544
471.65        13.53816
472.10        13.49473
472.54        13.42699
472.98        13.41669
473.42         13.4818
473.87        13.59013
474.31        13.70295
474.75        13.76513
475.20        13.76869
475.64        13.73347
476.08        13.68602
476.52        13.66186
476.97        13.67213
477.41        13.69932
477.85        13.74518
478.29        13.81147
478.74        13.89639
479.18        13.99231
479.62        14.06973
480.06        14.11576
480.50        14.13545
480.95        14.00997
481.39        13.99269
481.83        14.01116
482.27        14.14761
482.72        14.25504
483.16        14.48818
483.60        14.60286
484.04        14.62727
484.48        14.64832
484.93        14.69533
485.37        14.67313
485.81        14.54866
486.25        14.86073
486.69        14.33605
487.14        14.65863
487.58        15.35905
488.02        15.45029
488.46        15.70771
488.90        15.98535
489.34        15.31547
489.79        15.35498
490.23        15.68163
490.67        15.96762
491.11        16.10901
491.55        16.10265
491.99        16.02532
492.43        16.11874
492.88        16.39511
493.32        16.65269
493.76         16.8448
494.20        17.03011
494.64        17.20335
495.08        17.33913
495.52         17.4327
495.96        17.52954
496.41        17.64468
496.85        17.66401
497.29        17.63092
497.73        17.92979
498.17        18.28176
498.61        18.40396
499.05        18.25339
499.49        18.24316
499.93        18.40765
500.37        18.57677
500.82        18.72609
501.26        18.86234
501.70        18.97624
502.14        19.09319
502.58        19.21925
503.02        19.34015
503.46        19.45674
503.90        19.57576
504.34        19.69326
504.78        19.79975
505.22        19.89242
505.66        19.97021
506.10        20.03097
506.54          20.095
506.98        20.16968
507.42        20.21158
507.86        20.20678
508.30        20.36196
508.74        20.30623
509.18        20.34096
509.62        20.37199
510.06        20.43513
510.50         20.5312
510.94        20.65546
511.38        20.78189
511.82        20.85612
512.26        20.86704
512.70         20.8307
513.14        20.78079
513.58        20.76988
514.02        20.81253
514.46        20.89485
514.90        20.99179
515.34        21.06227
515.78        21.09267
516.22        21.09201
516.66        21.08159
517.10        21.09448
517.54        21.13586
517.98        21.19327
518.42        21.23604
518.86        21.21669
519.30        21.12935
519.74        20.99575
520.18        20.85699
520.62        20.77339
521.06        20.76168
521.50        20.80677
521.93         20.8822
522.37        20.93666
522.81         20.9544
523.25        20.94356
523.69        20.92244
524.13         20.9205
524.57        20.94099
525.01        20.97036
525.45        20.97891
525.89        20.92204
526.32         20.7929
526.76        20.61888
527.20         20.4391
527.64        20.31228
528.08        20.25194
528.52        20.23931
528.96         20.2501
529.40         20.2445
529.83        20.20784
530.27        20.15511
530.71        20.08853
531.15        20.01424
531.59        19.93616
532.03        19.84904
532.46         19.7611
532.90        19.69407
533.34        19.65048
533.78        19.62946
534.22        19.61395
534.66        19.57495
535.09        19.50668
535.53        19.42435
535.97        19.34935
536.41        19.32232
536.85        19.34964
537.28        19.41429
537.72        19.48934
538.16        19.53508
538.60        19.54036
539.04        19.52202
539.47        19.48515
539.91        19.45687
540.35        19.44242
540.79        19.44134
541.22        19.46581
541.66        19.53908
542.10        19.66028
542.54        19.82253
542.97        20.00565
543.41        20.17795
543.85        20.32978
544.29        20.47274
544.72        20.60164
545.16        20.72559
545.60        20.84742
546.04        20.95498
546.47        21.07169
546.91        21.26823
547.35        21.53282
547.79         21.7811
548.22         21.9787
548.66        22.19131
549.10        22.42029
549.53        22.55666
549.97        22.58449
550.41        22.94432
550.84        22.95679
551.28        23.13196
551.72        23.25944
552.15        23.53512
552.59        23.66221
553.03        23.87556
553.46        24.07837
553.90        24.25071
554.34        24.38262
554.77        24.50533
555.21        24.62498
555.65        24.68649
556.08        24.71561
556.52        24.82879
556.96        25.00903
557.39        25.16854
557.83        25.29117
558.27        25.37508
558.70        25.44711
559.14        25.55738
559.57        25.68299
560.01        25.87518
560.45        25.94954
560.88        25.92716
561.32         25.9249
561.75        25.96326
562.19        26.07813
562.63        26.14439
563.06         26.1592
563.50        26.20577
563.93        26.28505
564.37        26.38633
564.80        26.50095
565.24        26.63552
565.68        26.77175
566.11        26.89925
566.55        27.01415
566.98         27.0808
567.42        27.14683
567.85        27.23443
568.29        27.35317
568.72        27.57281
569.16        27.91246
569.60        27.82817
570.03        28.17649
570.47        28.35242
570.90        28.39505
571.34        28.63877
571.77        28.70547
572.21        28.79614
572.64        28.94277
573.08        29.04575
573.51        29.15266
573.95        29.38621
574.38        29.60277
574.82         29.5579
