SpectraSmart Spectrum 2.9.0.0
--------- Device Information -----------
Spectrum Name :  反射率_0
Saving Time :  2024/04/30 00:41:22
Spectro-Module Model Name : SE2030-DUVN
Spectro-Module Serial Number : OS361AC55029948
Wavelength Start : 200
Wavelength End : 1025
Wavelength Unit : Wavelength(nm)
Spectrum Unit : Reflectance(%)
-----------Spectrum Setting ------------
Integration Time : 20ms
Average : 10
Boxcar : 0
Background removal :  enabled
linearity correction :  enabled
SC :  disabled
Intensity correction :  disabled
DWT denoise :  enabled
savitzky-golay :  disabled
FFT :  disabled
Running average :  disabled
Kalman :  disabled
High pass :  disabled
---------------BEGIN--------------------
Wavelength(nm)             Reflectance(%)
200.29               0
200.75        66.88248
201.21        56.28609
201.67        45.27674
202.13        34.62807
202.58        25.30226
203.04        17.42135
203.50        14.25579
203.96        22.26516
204.42        42.30663
204.88        70.49026
205.34        95.79241
205.80        103.0828
206.26        93.77602
206.72        77.79968
207.18        62.07563
207.64        49.99574
208.10        40.87072
208.55         32.7319
209.01        26.55485
209.47        26.17859
209.93        31.60007
210.39        40.27751
210.85        48.67178
211.31        54.47912
211.77        58.09219
212.23        60.09126
212.69        60.83256
213.14        61.59948
213.60        62.04305
214.06          62.465
214.52        62.05099
214.98         59.9436
215.44         56.4459
215.90        51.93414
216.36        48.62053
216.81         50.8508
217.27        61.12718
217.73        80.83768
218.19        108.0444
218.65        127.5717
219.11        128.4446
219.57        115.4357
220.02        100.9899
220.48        94.81937
220.94        96.22263
221.40        103.3553
221.86        112.3014
222.32        111.2765
222.77        98.68546
223.23        84.50809
223.69         74.7806
224.15        71.87437
224.61        74.48027
225.06        81.08751
225.52        89.84388
225.98        95.32972
226.44         95.5969
226.90        93.19221
227.36        90.79394
227.81        90.42707
228.27         92.2678
228.73        95.36963
229.19         98.7957
229.65        100.4265
230.10        99.65705
230.56        98.11581
231.02        96.48173
231.48         95.3416
231.93        94.60916
232.39        93.97993
232.85         93.7166
233.31        94.50972
233.77        96.39729
234.22        99.46139
234.68        102.1531
235.14         101.819
235.60        98.05106
236.05        91.77724
236.51        85.64518
236.97        82.96858
237.43         84.4489
237.88        90.05027
238.34        98.03881
238.80        103.2022
239.26        102.0733
239.71        96.04871
240.17        88.26918
240.63        83.04908
241.08        81.48633
241.54        82.65924
242.00        87.23555
242.46        94.01257
242.91        100.0659
243.37        104.0141
243.83        105.7517
244.28        106.6083
244.74        107.0392
245.20        105.6551
245.66        102.7503
246.11        100.0611
246.57        98.33685
247.03        98.22758
247.48        97.55067
247.94        91.87665
248.40        83.45015
248.85        75.70929
249.31        71.24829
249.77        70.23608
250.22        72.21059
250.68        77.14303
251.14        85.54771
251.59        92.43024
252.05        92.27921
252.51        88.55012
252.96        84.33172
253.42        81.26186
253.88         78.6833
254.33         75.9172
254.79        74.12026
255.25        74.86138
255.70        77.35726
256.16        80.52385
256.62        83.13628
257.07        84.55576
257.53        85.46437
257.99        85.92818
258.44        85.61309
258.90        84.88416
259.35        83.53612
259.81        82.29552
260.27        81.26553
260.72        80.57135
261.18        80.42197
261.63        80.31044
262.09        80.25655
262.55        79.80201
263.00         78.8746
263.46        77.95933
263.91        76.96214
264.37        76.24457
264.83        75.69909
265.28        75.16045
265.74         74.8145
266.19        74.62006
266.65        74.63429
267.11        74.75396
267.56        74.76361
268.02        74.42001
268.47        73.62832
268.93        72.47922
269.38        71.12392
269.84        69.95437
270.30        69.08911
270.75         68.4388
271.21        67.86884
271.66        67.07645
272.12        66.02477
272.57        64.76163
273.03        63.48611
273.48        62.38885
273.94        61.60248
274.39        60.97606
274.85        60.42936
275.31        59.70494
275.76        58.72822
276.22         57.6463
276.67        56.53649
277.13        55.68241
277.58        55.03891
278.04        54.59222
278.49        54.11331
278.95        53.44613
279.40         52.4987
279.86         51.4524
280.31        50.39225
280.77        49.62193
281.22         49.1185
281.68        48.82283
282.13        48.58637
282.59        48.31855
283.04        47.92208
283.50        47.45523
283.95        46.85418
284.41        46.08321
284.86        45.14765
285.32        44.15028
285.77        43.15231
286.22        42.34332
286.68        41.77398
287.13        41.35167
287.59        41.07112
288.04        40.83478
288.50        40.62785
288.95        40.41201
289.41        40.17529
289.86        39.83067
290.32         39.3959
290.77        38.87841
291.22         38.3077
291.68        37.73829
292.13        37.19536
292.59        36.71606
293.04        36.36998
293.50        36.29481
293.95        36.48082
294.40        36.88955
294.86        37.36753
295.31        37.68865
295.77        37.78967
296.22        37.71305
296.68        37.58187
297.13        37.57075
297.58        37.73214
298.04        37.98207
298.49        38.22961
298.95        38.33706
299.40         38.2699
299.85        38.09597
300.31        37.88697
300.76        37.68239
301.21        37.53502
301.67        37.43357
302.12        37.35921
302.58        37.42792
303.03        37.62115
303.48        37.79167
303.94        37.85402
304.39        38.31834
304.84        38.07659
305.30        38.03336
305.75        37.89824
306.20        37.80371
306.66        37.77629
307.11        37.77236
307.57        37.77291
308.02        37.66656
308.47        37.45265
308.93        37.17481
309.38        36.86587
309.83        36.62772
310.29        36.48597
310.74        36.40759
311.19        36.34126
311.65        36.20034
312.10        35.96234
312.55        35.65906
313.00        35.35775
313.46        35.15988
313.91        35.07285
314.36        35.06422
314.82        35.06066
315.27        34.96798
315.72        34.75053
316.18        34.44664
316.63        34.09792
317.08        33.78168
317.53        33.52919
317.99         33.3309
318.44        33.16138
318.89        32.98464
319.35        32.79106
319.80        32.59121
320.25        32.42921
320.70        32.37236
321.16        32.41742
321.61        32.55601
322.06        32.69022
322.51        32.67077
322.97         32.4627
323.42        32.11041
323.87         31.7262
324.32        31.49626
324.78        31.45414
325.23        31.56295
325.68        31.70118
326.13        31.66546
326.59        31.39846
327.04         30.9794
327.49         30.5248
327.94        30.23557
328.39         30.1602
328.85        30.22026
329.30        30.33759
329.75        30.32485
330.20        30.13282
330.66        29.83558
331.11        29.50189
331.56        29.21207
332.01        29.00368
332.46        28.83576
332.92        28.74558
333.37        28.83606
333.82        29.09575
334.27        29.49875
334.72        29.88913
335.17        30.00288
335.63        29.77538
336.08        29.28679
336.53        28.70032
336.98        28.32285
337.43         28.2494
337.88        28.39356
338.34        28.64187
338.79        28.82745
339.24        28.88632
339.69        28.88645
340.14        28.84639
340.59        28.79069
341.05        28.74095
341.50        28.67107
341.95        28.62245
342.40         28.6792
342.85        28.84408
343.30          29.085
343.75        29.31395
344.20        29.38727
344.66        29.28179
345.11        29.03909
345.56        28.73025
346.01        28.46781
346.46        28.30077
346.91        28.20736
347.36        28.18239
347.81        28.21706
348.26        28.29479
348.72        28.40638
349.17        28.53505
349.62          28.643
350.07         28.7102
350.52        28.74377
350.97        28.71495
351.42        28.58536
351.87        28.36756
352.32        28.08575
352.77        27.82901
353.22        27.74084
353.67        27.84684
354.13        28.09307
354.58        28.38796
355.03        28.58167
355.48        28.62063
355.93        28.54215
356.38        28.36969
356.83        28.14269
357.28        27.88837
357.73        27.60362
358.18        27.31619
358.63         27.0734
359.08        26.88692
359.53        26.74747
359.98         26.6477
360.43        26.56747
360.88        26.49228
361.33        26.42511
361.78        26.33393
362.23        26.16889
362.68        25.92979
363.13        25.63877
363.58        25.34851
364.03        25.14519
364.48        25.04709
364.93        25.02031
365.38        25.03649
365.83        25.04797
366.28        25.03103
366.73        25.00015
367.18        24.92485
367.63        24.75809
368.08        24.50007
368.53        24.16321
368.98        23.82163
369.43        23.59792
369.88        23.52315
370.33        23.57261
370.78        23.66531
371.23         23.6629
371.68         23.5281
372.13        23.29369
372.58         23.0423
373.03        22.90916
373.48         22.9192
373.93        23.02139
374.38        23.11717
374.83        23.04989
375.28         22.7912
375.72        22.40186
376.17        21.99801
376.62        21.70031
377.07        21.53909
377.52        21.46836
377.97         21.4604
378.42        21.46955
378.87        21.47495
379.32        21.49817
379.77        21.51142
380.22        21.47102
380.67        21.37075
381.11        21.20622
381.56        21.04075
382.01        20.98276
382.46        21.05121
382.91         21.2182
383.36        21.37516
383.81        21.35632
384.26         21.1345
384.71        20.75818
385.15        20.35772
385.60        20.16515
386.05         20.2109
386.50        20.42066
386.95        20.64361
387.40        20.64292
387.85        20.38388
388.29        19.95791
388.74        19.53014
389.19        19.26014
389.64        19.18134
390.09        19.21896
390.54        19.33225
390.98        19.45283
391.43        19.54804
391.88        19.63891
392.33        19.67041
392.78        19.58162
393.23        19.38306
393.67        19.05314
394.12        18.71034
394.57        18.65299
395.02         18.6331
395.47         18.8207
395.91         19.0397
396.36        19.11187
396.81        18.99978
397.26        18.77185
397.71        18.51221
398.15        18.33535
398.60        18.29509
399.05        18.30498
399.50         18.3373
399.95        18.43838
400.39        18.49773
400.84        18.52265
401.29        18.48125
401.74        18.42842
402.18        18.36868
402.63        18.24954
403.08        18.11742
403.53        18.06022
403.97        18.08903
404.42        18.18441
404.87        18.27641
405.32        18.24945
405.76        18.07983
406.21        17.81382
406.66        17.54389
407.11        17.41584
407.55        17.46626
408.00        17.64933
408.45        17.86982
408.90         17.9546
409.34        17.85546
409.79        17.62698
410.24         17.3814
410.68        17.28731
411.13        17.38115
411.58        17.60551
412.03        17.85645
412.47        17.95988
412.92        17.85854
413.37        17.62696
413.81         17.3522
414.26        17.18652
414.71        17.15287
415.15        17.20729
415.60        17.29695
416.05        17.35642
416.49        17.35997
416.94        17.33527
417.39        17.28529
417.83        17.20721
418.28        17.11293
418.73        16.99628
419.17        16.89112
419.62        16.85547
420.07        16.89704
420.51        16.99759
420.96        17.11215
421.41        17.15948
421.85        17.11592
422.30        17.02066
422.74        16.90493
423.19        16.84366
423.64        16.84425
424.08        16.89343
424.53        16.94758
424.98        16.96241
425.42         16.9275
425.87        16.84736
426.31        16.74773
426.76        16.69292
427.21        16.63998
427.65        16.60445
428.10        16.56887
428.54        16.48091
428.99        16.35304
429.44        16.31494
429.88         16.3352
430.33        16.15452
430.77        15.88812
431.22        16.04618
431.66        16.56709
432.11        16.84248
432.56        16.77669
433.00        16.72279
433.45        16.67996
433.89        16.35377
434.34        15.91846
434.78        15.86388
435.23        16.12158
435.67        16.18437
436.12        16.02944
436.57        15.94553
437.01        15.96538
437.46        16.01058
437.90         16.0786
438.35        16.17933
438.79        16.27944
439.24         16.3005
439.68        16.25473
440.13         16.2288
440.57        16.20487
441.02        16.16171
441.46        16.10734
441.91        15.93939
442.35        15.73354
442.80        15.92894
443.24        16.38002
443.69        16.31373
444.13        15.79199
444.58        15.56782
445.02        15.64734
445.47         15.6297
445.91        15.51182
446.36        15.48796
446.80        15.55406
447.24         15.6621
447.69        15.77631
448.13        15.83991
448.58        15.84125
449.02        15.79852
449.47        15.74801
449.91        15.73701
450.36        15.77944
450.80        15.85658
451.25        15.94111
451.69        15.98795
452.13        15.98342
452.58        15.94925
453.02        15.90036
453.47        15.85841
453.91        15.82726
454.36        15.84573
454.80        15.82793
455.24        15.82006
455.69        15.80006
456.13        15.77088
456.58        15.74851
457.02         15.7411
457.46        15.75319
457.91        15.77718
458.35        15.79767
458.79        15.79946
459.24        15.78948
459.68        15.78182
460.13        15.78553
460.57        15.74218
461.01        15.77599
461.46        15.72873
461.90        15.67086
462.34        15.80235
462.79        16.05208
463.23        16.06949
463.68         15.8732
464.12         15.7885
464.56        15.82774
465.01        15.83169
465.45         15.7787
465.89        15.70644
466.34        15.64437
466.78         15.6553
467.22        15.77059
467.67        15.78966
468.11        15.71883
468.55        15.63504
468.99        15.57125
469.44        15.53701
469.88        15.53924
470.32        15.57921
470.77        15.62875
471.21        15.65704
471.65        15.64937
472.10        15.62287
472.54         15.5934
472.98        15.60223
473.42         15.6553
473.87        15.73478
474.31        15.81471
474.75        15.85924
475.20         15.8646
475.64        15.84002
476.08        15.80023
476.52        15.76439
476.97        15.74066
477.41         15.7188
477.85        15.71198
478.29        15.73973
478.74        15.80604
479.18         15.8948
479.62        15.97007
480.06        16.01446
480.50        16.02893
480.95         15.8775
481.39        15.84202
481.83        15.82925
482.27        15.93594
482.72        16.00492
483.16        16.20947
483.60        16.30482
484.04        16.34488
484.48        16.29812
484.93        16.21151
485.37        16.31206
485.81        16.56163
486.25        16.49413
486.69         16.0739
487.14        16.30089
487.58         16.9623
488.02        16.55776
488.46        16.93666
488.90        16.97795
489.34        16.68878
489.79        16.62047
490.23        16.61936
490.67        16.77489
491.11        16.98116
491.55         16.9359
491.99        16.70641
492.43        16.70742
492.88        16.95744
493.32        17.19932
493.76        17.37856
494.20        17.54876
494.64         17.6979
495.08        17.80525
495.52        17.86564
495.96        17.92034
496.41        17.98431
496.85        17.94425
497.29        17.84052
497.73        18.05377
498.17        18.29943
498.61        18.29726
499.05        18.02604
499.49        17.92269
499.93        18.02617
500.37        18.16639
500.82        18.29817
501.26        18.39177
501.70        18.43176
502.14        18.45346
502.58        18.49332
503.02        18.58657
503.46        18.74151
503.90        18.94537
504.34        19.15554
504.78        19.29976
505.22        19.35776
505.66        19.34717
506.10         19.2958
506.54        19.27218
506.98        19.29752
507.42        19.31417
507.86        19.29608
508.30        19.41946
508.74        19.32493
509.18        19.31384
509.62        19.29729
510.06        19.30689
510.50        19.34716
510.94        19.41316
511.38        19.49749
511.82        19.57897
512.26        19.64855
512.70        19.70632
513.14        19.75498
513.58        19.80008
514.02        19.84282
514.46        19.88171
514.90         19.9059
515.34        19.89984
515.78        19.86307
516.22        19.80147
516.66        19.73992
517.10        19.71628
517.54        19.73588
517.98        19.78596
518.42         19.8345
518.86        19.82903
519.30        19.75888
519.74        19.64423
520.18        19.51529
520.62        19.41687
521.06         19.3651
521.50        19.35151
521.93        19.36691
522.37        19.38949
522.81        19.41249
523.25        19.43701
523.69        19.47097
524.13        19.52656
524.57        19.60098
525.01        19.68482
525.45        19.74802
525.89        19.74554
526.32        19.66815
526.76        19.53675
527.20        19.39118
527.64        19.29405
528.08        19.25919
528.52        19.26892
528.96        19.29199
529.40        19.27643
529.83        19.20956
530.27        19.11484
530.71        19.01245
531.15        18.93576
531.59        18.89401
532.03         18.8715
532.46          18.863
532.90        18.86764
533.34         18.8791
533.78        18.90218
534.22        18.91711
534.66        18.89216
535.09        18.82355
535.53        18.72526
535.97        18.63238
536.41        18.60871
536.85        18.66434
537.28         18.7765
537.72        18.89895
538.16        18.95968
538.60        18.94229
539.04        18.87639
539.47        18.78665
539.91        18.72967
540.35        18.71719
540.79        18.73606
541.22        18.78872
541.66        18.88327
542.10        19.01135
542.54        19.17065
542.97        19.33469
543.41        19.46135
543.85         19.5426
544.29        19.59426
544.72        19.62752
545.16        19.67778
545.60        19.75324
546.04        19.83373
546.47        19.93069
546.91        20.09245
547.35        20.30197
547.79        20.48733
548.22        20.61498
548.66        20.74324
549.10        20.87402
549.53        20.90431
549.97        20.83541
550.41        21.09987
550.84        21.07718
551.28        21.23012
551.72        21.34253
552.15        21.55715
552.59        21.59552
553.03        21.68608
553.46         21.7639
553.90        21.84713
554.34        21.93472
554.77        22.04112
555.21        22.15651
555.65        22.20622
556.08        22.20679
556.52        22.27418
556.96         22.3966
557.39        22.50138
557.83        22.57923
558.27         22.6175
558.70         22.6489
559.14        22.75394
559.57        22.91672
560.01        23.09293
560.45        23.23739
560.88        23.21665
561.32        23.17239
561.75        23.13091
562.19        23.15129
562.63         23.1636
563.06         23.1738
563.50        23.24274
563.93        23.34852
564.37         23.4459
564.80        23.51892
565.24        23.58721
565.68        23.64976
566.11        23.71957
566.55        23.80062
566.98        23.85422
567.42        23.91723
567.85        24.00297
568.29        24.11783
568.72        24.32034
569.16        24.62536
569.60        24.56747
570.03        24.90445
570.47        25.03973
570.90        25.09785
571.34        25.33093
571.77        25.36031
572.21        25.44925
572.64        25.48805
573.08        25.61148
573.51        25.86208
573.95        25.82921
574.38        26.16468
574.82        26.20969
