SpectraSmart Spectrum 2.9.0.0
--------- Device Information -----------
Spectrum Name :  反射率_0
Saving Time :  2024/04/30 01:16:15
Spectro-Module Model Name : SE2030-DUVN
Spectro-Module Serial Number : OS361AC55029948
Wavelength Start : 200
Wavelength End : 1025
Wavelength Unit : Wavelength(nm)
Spectrum Unit : Reflectance(%)
-----------Spectrum Setting ------------
Integration Time : 20ms
Average : 10
Boxcar : 0
Background removal :  enabled
linearity correction :  enabled
SC :  disabled
Intensity correction :  disabled
DWT denoise :  enabled
savitzky-golay :  disabled
FFT :  disabled
Running average :  disabled
Kalman :  disabled
High pass :  disabled
---------------BEGIN--------------------
Wavelength(nm)             Reflectance(%)
200.29               0
200.75        39.38598
201.21        28.06458
201.67        14.12683
202.13        2.380591
202.58        -4.80295
203.04        -7.86019
203.50       -6.561491
203.96      -0.7993928
204.42        8.442573
204.88        20.38151
205.34        31.95485
205.80         38.2104
206.26        38.95604
206.72        37.04216
207.18        33.61408
207.64        29.19048
208.10        23.85523
208.55        16.82308
209.01        10.56918
209.47        11.18908
209.93        18.74715
210.39        29.76511
210.85        38.57935
211.31        40.39784
211.77        34.84499
212.23         21.2939
212.69        2.073941
213.14       -6.999601
213.60        2.282542
214.06        20.71809
214.52         36.9832
214.98        44.01265
215.44        43.19597
215.90        37.63109
216.36        30.48067
216.81        27.56951
217.27        32.04607
217.73        43.31927
218.19        60.80261
218.65        76.22824
219.11        81.76107
219.57        79.36273
220.02        73.98512
220.48        70.11785
220.94        67.56348
221.40        64.54166
221.86        60.35229
222.32        55.66592
222.77        52.04962
223.23        50.74336
223.69        50.01041
224.15        48.05082
224.61        44.66218
225.06        39.93317
225.52        35.56535
225.98        35.22394
226.44        39.12628
226.90        44.67303
227.36        49.40812
227.81        51.91699
228.27        52.60592
228.73        52.03303
229.19        51.03397
229.65        51.14235
230.10        52.46117
230.56        54.21178
231.02        55.42774
231.48        55.30618
231.93        53.85966
232.39        51.55515
232.85        48.97569
233.31        47.31342
233.77        46.99645
234.22        47.78153
234.68         49.0483
235.14        49.66074
235.60        49.30951
236.05        48.41911
236.51        47.60814
236.97        47.61635
237.43        48.65491
237.88        50.68007
238.34        53.40327
238.80        56.25211
239.26        58.34165
239.71        59.66936
240.17        59.85032
240.63        58.81974
241.08        56.47087
241.54        51.73396
242.00        44.31224
242.46        37.90515
242.91        38.07566
243.37        45.23043
243.83        54.43147
244.28         59.6672
244.74        59.94811
245.20        56.28815
245.66        49.70344
246.11        43.26331
246.57        39.37138
247.03        37.27531
247.48        36.89396
247.94        37.59207
248.40        38.79131
248.85        40.19275
249.31        42.14645
249.77        44.99006
250.22        49.30849
250.68        56.15812
251.14        65.36462
251.59        69.59628
252.05        64.51361
252.51        56.48561
252.96        50.36059
253.42        47.61234
253.88        47.08539
254.33        47.72031
254.79        49.72857
255.25        52.31014
255.70        54.36408
256.16        56.11575
256.62        57.29457
257.07        57.80301
257.53        58.16787
257.99         58.2964
258.44         58.0658
258.90        57.98843
259.35        57.71693
259.81        57.49012
260.27        57.20215
260.72        56.80548
261.18        56.45755
261.63        55.92703
262.09        55.26341
262.55        54.20526
263.00        52.80706
263.46        51.44611
263.91         50.1315
264.37        49.14939
264.83         48.4177
265.28         47.7728
265.74        47.36041
266.19        47.17215
266.65        47.22201
267.11        47.42939
267.56        47.53373
268.02        47.17374
268.47        46.27707
268.93        44.96155
269.38        43.49804
269.84        42.48545
270.30        42.06285
270.75        42.04942
271.21        42.14878
271.66        41.88449
272.12        41.16225
272.57        40.12096
273.03        38.97992
273.48        37.99418
273.94        37.31043
274.39        36.78469
274.85         36.3872
275.31        35.99755
275.76        35.55681
276.22        35.14281
276.67        34.71278
277.13        34.30233
277.58        33.86301
278.04        33.41702
278.49        32.93009
278.95        32.46436
279.40        31.98135
279.86        31.55274
280.31         31.1039
280.77        30.64557
281.22        30.15207
281.68        29.67583
282.13        29.27508
282.59        29.08992
283.04        29.08843
283.50        29.19758
283.95        29.27745
284.41        29.13744
284.86        28.72955
285.32        28.17857
285.77        27.52138
286.22        26.88108
286.68        26.32199
287.13        25.78658
287.59        25.37288
288.04        25.17319
288.50        25.19658
288.95        25.36767
289.41        25.56226
289.86          25.548
290.32        25.30609
290.77        24.90956
291.22        24.45294
291.68        24.09091
292.13        23.87479
292.59        23.77938
293.04        23.84806
293.50        24.17198
293.95        24.72994
294.40        25.49055
294.86        26.28082
295.31         26.8396
295.77        27.10178
296.22        27.12721
296.68        27.07589
297.13        27.18727
297.58        27.53346
298.04        28.01483
298.49        28.53089
298.95         28.9163
299.40        29.12817
299.85        29.23756
300.31        29.30069
300.76        29.34357
301.21        29.41117
301.67        29.48569
302.12        29.56845
302.58        29.80437
303.03        30.18871
303.48        30.55365
303.94        30.78501
304.39        31.43103
304.84         31.2556
305.30        31.26972
305.75        31.19854
306.20        31.24636
306.66        31.44282
307.11        31.72525
307.57        31.99879
308.02         32.0531
308.47        31.87025
308.93        31.52485
309.38        31.13256
309.83        30.92005
310.29        30.93456
310.74        31.10214
311.19        31.28422
311.65        31.26043
312.10        30.98546
312.55        30.54085
313.00         30.0715
313.46        29.79915
313.91        29.76203
314.36        29.88389
314.82        30.04561
315.27        30.07804
315.72        29.92039
316.18        29.64001
316.63        29.28352
317.08        28.93428
317.53        28.63291
317.99        28.36133
318.44         28.1268
318.89        27.94818
319.35        27.82247
319.80        27.74624
320.25        27.70773
320.70        27.68106
321.16        27.64141
321.61        27.60115
322.06        27.52363
322.51        27.36519
322.97        27.12256
323.42        26.81357
323.87        26.49205
324.32         26.2487
324.78        26.09605
325.23        26.02476
325.68        25.97642
326.13        25.85258
326.59        25.62481
327.04        25.33686
327.49        25.03654
327.94        24.81282
328.39        24.68286
328.85        24.59955
329.30        24.54176
329.75        24.43519
330.20        24.26287
330.66        24.06299
331.11        23.84097
331.56         23.5804
332.01        23.29225
332.46        22.96865
332.92         22.6953
333.37         22.6481
333.82        22.84681
334.27        23.24192
334.72        23.65401
335.17        23.77997
335.63        23.54127
336.08        23.02874
336.53        22.41153
336.98        21.99992
337.43        21.89337
337.88        22.00251
338.34        22.21772
338.79        22.38164
339.24        22.43088
339.69        22.42739
340.14        22.38908
340.59        22.33937
341.05        22.29294
341.50        22.21875
341.95        22.14164
342.40        22.11964
342.85        22.15417
343.30        22.22812
343.75        22.27529
344.20        22.18636
344.66        21.95451
345.11        21.61771
345.56        21.25379
346.01        20.98269
346.46        20.84814
346.91         20.8215
347.36        20.87482
347.81        20.96482
348.26        21.06714
348.72        21.18246
349.17         21.2994
349.62         21.3983
350.07        21.46502
350.52        21.49526
350.97        21.47068
351.42        21.37016
351.87        21.20479
352.32        20.99691
352.77        20.80057
353.22        20.70016
353.67        20.71603
354.13        20.81986
354.58        20.97728
355.03        21.12924
355.48        21.24602
355.93        21.33785
356.38        21.38186
356.83        21.34762
357.28        21.23679
357.73        21.05516
358.18        20.85155
358.63        20.70798
359.08        20.64015
359.53        20.62509
359.98        20.61565
360.43        20.53255
360.88        20.35907
361.33        20.12808
361.78        19.87485
362.23        19.65231
362.68        19.48223
363.13        19.35256
363.58        19.26003
364.03        19.19934
364.48        19.16152
364.93        19.14177
365.38         19.1321
365.83        19.11926
366.28        19.09421
366.73        19.05565
367.18        18.98565
367.63        18.85972
368.08        18.67969
368.53        18.45835
368.98        18.23618
369.43        18.07731
369.88        18.00028
370.33        17.99174
370.78        18.01776
371.23        18.02002
371.68        17.97687
372.13        17.89544
372.58         17.7983
373.03         17.7243
373.48        17.67819
373.93        17.64409
374.38        17.58331
374.83        17.43694
375.28        17.20554
375.72        16.92001
376.17         16.6538
376.62        16.47446
377.07        16.39583
377.52        16.38821
377.97        16.43213
378.42        16.49387
378.87        16.55188
379.32        16.61288
379.77        16.64564
380.22        16.60571
380.67        16.48898
381.11        16.30161
381.56        16.10106
382.01        15.98362
382.46        15.97433
382.91        16.05279
383.36        16.15044
383.81        16.15911
384.26        16.05782
384.71        15.87682
385.15        15.68565
385.60        15.61903
386.05        15.68561
386.50        15.83361
386.95        15.97332
387.40        15.96739
387.85        15.79601
388.29        15.51343
388.74        15.21613
389.19          14.979
389.64        14.82578
390.09        14.72346
390.54        14.68102
390.98        14.71241
391.43        14.80791
391.88         14.9555
392.33        15.08614
392.78        15.11671
393.23        15.04029
393.67        14.84797
394.12        14.62119
394.57         14.5762
395.02        14.51982
395.47        14.58772
395.91         14.6659
396.36        14.65865
396.81        14.54923
397.26        14.37856
397.71        14.19227
398.15         14.0469
398.60        13.97827
399.05        13.93372
399.50         13.8988
399.95        13.91481
400.39        13.90236
400.84        13.86589
401.29        13.79203
401.74        13.74153
402.18        13.72217
402.63        13.68807
403.08        13.66029
403.53        13.68351
403.97        13.75749
404.42         13.8683
404.87        13.96173
405.32        13.95054
405.76        13.81634
406.21        13.59294
406.66        13.35376
407.11        13.21553
407.55        13.20951
408.00        13.30387
408.45        13.42481
408.90        13.43762
409.34        13.30765
409.79        13.07972
410.24        12.85242
410.68        12.77131
411.13         12.8669
411.58        13.09298
412.03        13.34587
412.47         13.4509
412.92        13.35344
413.37        13.12099
413.81        12.85731
414.26        12.73763
414.71        12.78721
415.15        12.95516
415.60        13.15371
416.05        13.25483
416.49        13.21895
416.94        13.09237
417.39        12.92628
417.83        12.79744
418.28        12.73537
418.73        12.70751
419.17        12.70214
419.62        12.70369
420.07        12.70226
420.51        12.70805
420.96        12.70638
421.41        12.66417
421.85        12.57748
422.30         12.4696
422.74        12.36516
423.19        12.32383
423.64        12.34859
424.08        12.42693
424.53         12.5217
424.98        12.59126
425.42        12.61948
425.87        12.60725
426.31        12.55863
426.76        12.50273
427.21        12.40674
427.65        12.29084
428.10        12.16912
428.54        12.04534
428.99        11.94096
429.44        11.93764
429.88        11.99312
430.33        11.88869
430.77        11.69871
431.22        11.80604
431.66        12.17164
432.11        12.34723
432.56        12.26657
433.00        12.20347
433.45        12.15781
433.89        11.86992
434.34        11.49471
434.78        11.48122
435.23        11.75882
435.67        11.84517
436.12        11.71276
436.57        11.63375
437.01        11.63853
437.46         11.6567
437.90        11.69045
438.35        11.74935
438.79        11.81213
439.24        11.82481
439.68        11.79696
440.13        11.79069
440.57        11.78771
441.02        11.76556
441.46        11.72749
441.91        11.59916
442.35        11.43994
442.80        11.57947
443.24        11.90986
443.69        11.85493
444.13        11.46077
444.58        11.28468
445.02         11.3301
445.47        11.30515
445.91        11.20016
446.36        11.14658
446.80        11.14297
447.24        11.16055
447.69        11.19326
448.13        11.23254
448.58        11.27294
449.02        11.31463
449.47        11.35921
449.91        11.40288
450.36        11.44393
450.80        11.47953
451.25        11.50079
451.69        11.49533
452.13        11.46057
452.58        11.40834
453.02         11.3492
453.47        11.29944
453.91        11.26299
454.36        11.27213
454.80        11.26579
455.24        11.27445
455.69        11.27985
456.13        11.27875
456.58        11.28518
457.02        11.30954
457.46        11.35342
457.91        11.40956
458.35        11.45042
458.79        11.43876
459.24         11.3811
459.68        11.29876
460.13        11.23056
460.57        11.18274
461.01        11.25389
461.46         11.3131
461.90        11.38156
462.34        11.55593
462.79        11.77071
463.23        11.78286
463.68        11.61839
464.12        11.53848
464.56         11.5598
465.01        11.55709
465.45        11.51585
465.89        11.46745
466.34        11.43255
466.78        11.45893
467.22         11.5609
467.67        11.57414
468.11         11.4998
468.55        11.40011
468.99        11.31419
469.44        11.27243
469.88        11.28476
470.32        11.34581
470.77        11.42184
471.21        11.47168
471.65        11.47732
472.10        11.45826
472.54        11.43238
472.98        11.44209
473.42        11.49465
473.87        11.57094
474.31        11.64894
474.75        11.69656
475.20        11.70994
475.64        11.69899
476.08        11.67481
476.52        11.65125
476.97        11.63567
477.41         11.6206
477.85        11.62077
478.29        11.65844
478.74        11.73674
479.18        11.84044
479.62        11.93503
480.06        11.99724
480.50        12.02392
480.95         11.9143
481.39        11.88484
481.83        11.87651
482.27        11.96895
482.72        12.04604
483.16        12.22916
483.60        12.33146
484.04         12.3895
484.48        12.34667
484.93        12.27544
485.37        12.45496
485.81         12.7546
486.25        12.81971
486.69        12.27208
487.14        12.38486
487.58        12.77574
488.02        12.94033
488.46        12.94182
488.90        13.00136
489.34        12.71232
489.79        12.72142
490.23        12.87279
490.67        13.10988
491.11        13.33622
491.55        13.31996
491.99        13.12999
492.43        13.13864
492.88        13.36639
493.32         13.5718
493.76        13.71353
494.20        13.86241
494.64         14.0109
495.08        14.13274
495.52        14.22056
495.96         14.3024
496.41        14.38667
496.85        14.38441
497.29        14.32526
497.73        14.51112
498.17        14.71563
498.61        14.71695
499.05        14.50526
499.49        14.44374
499.93         14.5664
500.37         14.7305
500.82        14.89645
501.26        15.03609
501.70        15.13093
502.14        15.20794
502.58        15.28562
503.02        15.37515
503.46        15.48271
503.90        15.60672
504.34        15.72782
504.78        15.81306
505.22        15.85577
505.66        15.86413
506.10        15.86002
506.54        15.89636
506.98        15.98509
507.42         16.0778
507.86        16.13713
508.30        16.28569
508.74        16.21709
509.18        16.18935
509.62          16.144
510.06        16.13598
510.50        16.17623
510.94        16.25163
511.38        16.34748
511.82        16.43035
512.26         16.4882
512.70        16.53058
513.14        16.55924
513.58         16.5763
514.02        16.58637
514.46        16.58929
514.90         16.5927
515.34        16.61119
515.78         16.6474
516.22        16.69532
516.66         16.7506
517.10        16.80573
517.54        16.85415
517.98        16.89451
518.42         16.9153
518.86        16.89886
519.30        16.84506
519.74        16.76365
520.18        16.67203
520.62        16.59593
521.06        16.54591
521.50        16.51957
521.93        16.51707
522.37        16.53158
522.81        16.55862
523.25        16.59339
523.69         16.6303
524.13         16.6617
524.57        16.68167
525.01        16.68845
525.45         16.6694
525.89        16.60754
526.32        16.50296
526.76        16.36978
527.20        16.23409
527.64        16.13533
528.08        16.08307
528.52        16.06841
528.96        16.07249
529.40        16.06331
529.83        16.03024
530.27        15.98316
530.71        15.93223
531.15        15.89598
531.59        15.87781
532.03        15.86921
532.46        15.85719
532.90         15.8278
533.34        15.77879
533.78         15.7206
534.22        15.66469
534.66        15.62641
535.09         15.6095
535.53        15.61429
535.97        15.63663
536.41         15.6753
536.85          15.724
537.28         15.7766
537.72        15.82479
538.16        15.85919
538.60        15.87652
539.04        15.88449
539.47        15.87116
539.91        15.83557
540.35        15.78053
540.79        15.71696
541.22        15.68033
541.66        15.72911
542.10        15.86887
542.54        16.07747
542.97        16.31201
543.41        16.50495
543.85        16.63691
544.29        16.72951
544.72        16.78966
545.16         16.8439
545.60        16.90243
546.04        16.95053
546.47        17.01012
546.91        17.14382
547.35        17.34269
547.79        17.53918
548.22        17.70084
548.66        17.87014
549.10         18.0456
549.53        18.14132
549.97        18.14563
550.41        18.41506
550.84        18.40435
551.28        18.51907
551.72        18.59437
552.15        18.79318
552.59        18.87896
553.03        19.04131
553.46        19.19075
553.90        19.29095
554.34        19.33387
554.77        19.35159
555.21        19.37649
555.65        19.40832
556.08        19.47402
556.52        19.64942
556.96        19.88745
557.39         20.0685
557.83        20.16788
558.27        20.19128
558.70        20.18323
559.14        20.23993
559.57        20.35904
560.01         20.4956
560.45        20.61043
560.88        20.58735
561.32        20.55169
561.75        20.52731
562.19        20.56886
562.63        20.61447
563.06        20.66674
563.50        20.77853
563.93        20.91776
564.37        21.02528
564.80        21.08511
565.24        21.12037
565.68         21.1498
566.11         21.2164
566.55        21.32886
566.98        21.44081
567.42        21.56484
567.85        21.68141
568.29        21.78957
568.72        21.95124
569.16        22.19004
569.60        22.11584
570.03        22.42198
570.47        22.52466
570.90        22.58863
571.34        22.84243
571.77        22.86649
572.21        22.97301
572.64         23.0455
573.08        23.18159
573.51        23.41625
573.95         23.4969
574.38        23.88481
574.82        23.86451
