SpectraSmart Spectrum 2.9.0.0
--------- Device Information -----------
Spectrum Name :  反射率_0
Saving Time :  2024/04/30 00:41:35
Spectro-Module Model Name : SE2030-DUVN
Spectro-Module Serial Number : OS361AC55029948
Wavelength Start : 200
Wavelength End : 1025
Wavelength Unit : Wavelength(nm)
Spectrum Unit : Reflectance(%)
-----------Spectrum Setting ------------
Integration Time : 20ms
Average : 10
Boxcar : 0
Background removal :  enabled
linearity correction :  enabled
SC :  disabled
Intensity correction :  disabled
DWT denoise :  enabled
savitzky-golay :  disabled
FFT :  disabled
Running average :  disabled
Kalman :  disabled
High pass :  disabled
---------------BEGIN--------------------
Wavelength(nm)             Reflectance(%)
200.29               0
200.75        54.71206
201.21        35.98803
201.67        15.56156
202.13        2.600557
202.58        1.368297
203.04        11.12802
203.50        29.37866
203.96        48.98652
204.42        64.72408
204.88        76.13272
205.34        81.28786
205.80         79.5147
206.26        73.33644
206.72        65.28594
207.18        57.17543
207.64        49.36629
208.10        41.41018
208.55        32.79308
209.01        25.03303
209.47        22.91972
209.93        27.06306
210.39        34.67014
210.85        41.80865
211.31        45.46242
211.77        45.71452
212.23         43.0598
212.69        38.58757
213.14         37.7416
213.60        42.25599
214.06        49.00747
214.52        54.83433
214.98        58.23884
215.44        59.88451
215.90        60.64487
216.36        61.75531
216.81        65.33774
217.27        72.65366
217.73        84.44785
218.19        99.42924
218.65        109.0164
219.11        107.7153
219.57        98.89972
220.02        89.83216
220.48        86.09969
220.94        87.02607
221.40        91.41715
221.86        97.34184
222.32        98.26107
222.77         92.4949
223.23        85.66261
223.69        80.49958
224.15        77.93099
224.61        77.47613
225.06        78.47843
225.52        81.02312
225.98        84.50905
226.44        87.77629
226.90        90.28638
227.36         92.3283
227.81        94.52788
228.27        97.26267
228.73        100.3006
229.19        102.6702
229.65        102.3179
230.10         99.3218
230.56        95.70716
231.02        92.58377
231.48        90.84883
231.93         90.2905
232.39        90.42873
232.85        91.41042
233.31         93.6396
233.77        96.92944
234.22        101.3658
234.68        105.0849
235.14        104.8951
235.60        100.3348
236.05        92.57284
236.51        84.73969
236.97        80.75288
237.43        81.43557
237.88        86.56371
238.34        94.59245
238.80        100.6301
239.26        101.1248
239.71        97.22007
240.17        91.23669
240.63        86.55596
241.08        83.99863
241.54        82.17434
242.00        80.91965
242.46        80.15504
242.91        80.42132
243.37         82.2391
243.83        85.44234
244.28        89.46613
244.74        94.11305
245.20        99.01067
245.66        103.2671
246.11        104.9257
246.57        102.8407
247.03        98.15518
247.48        90.45334
247.94        80.78848
248.40         72.8979
248.85        67.38155
249.31         65.6346
249.77         67.7015
250.22        73.72848
250.68        85.68767
251.14        103.3484
251.59        112.4871
252.05        103.8873
252.51        88.75227
252.96        77.50747
253.42         73.9986
253.88        75.82657
254.33        80.85361
254.79        86.88602
255.25        88.68464
255.70        85.66228
256.16        81.62666
256.62        78.59122
257.07        77.64896
257.53         78.8968
257.99        81.32736
258.44        83.69841
258.90        85.07567
259.35        84.85401
259.81        84.13104
260.27        83.48988
260.72         83.5078
261.18         84.3388
261.63        85.21431
262.09        85.75228
262.55        84.98007
263.00        82.94723
263.46        80.55953
263.91        78.16447
264.37        76.60531
264.83        75.79099
265.28        75.35572
265.74        75.28555
266.19         75.2458
266.65        75.21873
267.11        75.21206
267.56        75.08144
268.02        74.67219
268.47        73.91665
268.93        72.85852
269.38        71.63461
269.84        70.63009
270.30        69.93756
270.75        69.44733
271.21        69.01694
271.66        68.33229
272.12        67.35146
272.57        66.13178
273.03        64.82604
273.48        63.55452
273.94        62.47164
274.39        61.47759
274.85        60.61818
275.31        59.80447
275.76        58.97144
276.22        58.18922
276.67         57.4174
277.13        56.77226
277.58        56.16659
278.04         55.6424
278.49        55.01929
278.95        54.21403
279.40        53.16125
279.86         52.0266
280.31        50.89674
280.77        50.08049
281.22        49.55941
281.68        49.28512
282.13        49.10783
282.59        48.93264
283.04        48.65254
283.50        48.30994
283.95         47.8325
284.41        47.17794
284.86        46.33538
285.32        45.39985
285.77         44.4071
286.22        43.51428
286.68        42.77998
287.13        42.14117
287.59        41.63322
288.04        41.21695
288.50        40.90453
288.95        40.64983
289.41        40.44434
289.86        40.20233
290.32        39.92887
290.77        39.61696
291.22         39.2634
291.68        38.87093
292.13        38.43961
292.59        38.00919
293.04        37.65146
293.50        37.51524
293.95        37.60439
294.40        37.89265
294.86        38.24326
295.31        38.45546
295.77        38.48023
296.22         38.3581
296.68        38.23218
297.13        38.30171
297.58        38.61234
298.04        39.06487
298.49          39.509
298.95        39.71851
299.40        39.63985
299.85        39.36407
300.31        39.02178
300.76        38.74491
301.21        38.60897
301.67        38.57732
302.12        38.58477
302.58        38.67703
303.03        38.82112
303.48         38.8989
303.94        38.86866
304.39        39.29264
304.84        39.09092
305.30        39.12923
305.75        39.07778
306.20        39.00341
306.66         38.9214
307.11        38.81382
307.57        38.70092
308.02        38.52515
308.47         38.2996
308.93        38.05006
309.38        37.78739
309.83         37.5812
310.29          37.446
310.74         37.3565
311.19        37.27344
311.65        37.12732
312.10        36.89893
312.55         36.6149
313.00        36.32563
313.46        36.10801
313.91        35.96716
314.36        35.88036
314.82        35.80432
315.27        35.69199
315.72        35.51765
316.18         35.3061
316.63        35.06287
317.08        34.80706
317.53        34.55568
317.99        34.31479
318.44        34.09151
318.89        33.90329
319.35        33.75106
319.80        33.62391
320.25        33.53392
320.70        33.49902
321.16        33.50078
321.61        33.54679
322.06        33.56097
322.51        33.42988
322.97        33.13729
323.42        32.72733
323.87        32.30197
324.32         32.0297
324.78        31.93914
325.23        31.99419
325.68        32.10309
326.13        32.10962
326.59         31.9606
327.04        31.72147
327.49        31.43623
327.94        31.19078
328.39        31.01056
328.85        30.84392
329.30        30.71236
329.75        30.60779
330.20        30.52518
330.66        30.47874
331.11        30.42649
331.56        30.26801
332.01        29.99222
332.46        29.61933
332.92        29.24776
333.37        29.09085
333.82        29.18597
334.27        29.47089
334.72        29.80509
335.17         29.9501
335.63        29.83265
336.08        29.53556
336.53        29.14468
336.98         28.8264
337.43        28.64849
337.88        28.56512
338.34         28.5593
338.79        28.62625
339.24        28.74088
339.69        28.91402
340.14        29.10375
340.59        29.23141
341.05        29.27523
341.50        29.24133
341.95        29.16319
342.40        29.11158
342.85        29.10236
343.30        29.10933
343.75        29.10496
344.20        29.04608
344.66        28.93587
345.11        28.79712
345.56        28.64536
346.01        28.49652
346.46        28.36872
346.91        28.25833
347.36        28.20067
347.81        28.25144
348.26        28.40507
348.72        28.62947
349.17        28.85344
349.62        28.95216
350.07        28.89396
350.52        28.72565
350.97         28.4951
351.42        28.27626
351.87        28.10352
352.32        27.96029
352.77        27.87898
353.22        27.91032
353.67        28.04946
354.13        28.27334
354.58        28.50585
355.03         28.6221
355.48        28.58722
355.93        28.43303
356.38        28.20716
356.83        27.98849
357.28        27.80666
357.73        27.64456
358.18        27.49948
358.63        27.36756
359.08        27.24388
359.53        27.13127
359.98        27.02821
360.43        26.92693
360.88        26.82111
361.33        26.70963
361.78        26.57349
362.23        26.38555
362.68        26.14828
363.13        25.87796
363.58        25.61289
364.03        25.41194
364.48        25.28937
364.93        25.22691
365.38        25.20088
365.83        25.17134
366.28        25.12158
366.73        25.05984
367.18        24.98002
367.63        24.87496
368.08        24.74244
368.53        24.57627
368.98        24.39387
369.43        24.22568
369.88        24.08286
370.33        23.97065
370.78        23.86028
371.23        23.70225
371.68        23.48998
372.13        23.23314
372.58        22.99726
373.03        22.88733
373.48        22.91292
373.93        23.03299
374.38        23.14027
374.83           23.06
375.28        22.76392
375.72        22.32071
376.17        21.85867
376.62        21.51767
377.07        21.33707
377.52        21.26789
377.97        21.29096
378.42        21.37443
378.87        21.48733
379.32           21.63
379.77        21.75263
380.22        21.78124
380.67        21.70149
381.11        21.52521
381.56         21.2998
382.01        21.11095
382.46        20.99258
382.91        20.93513
383.36        20.90728
383.81        20.85722
384.26         20.7704
384.71        20.65368
385.15         20.5438
385.60        20.52365
386.05        20.58437
386.50        20.69463
386.95        20.76156
387.40        20.64474
387.85         20.3397
388.29        19.90647
388.74        19.48989
389.19        19.22185
389.64        19.12904
390.09        19.15507
390.54        19.26201
390.98        19.38085
391.43        19.47973
391.88        19.57236
392.33        19.61373
392.78        19.56016
393.23        19.42004
393.67        19.16512
394.12        18.88798
394.57        18.85027
395.02        18.79766
395.47        18.91626
395.91        19.06132
396.36        19.11055
396.81         19.0382
397.26        18.88841
397.71        18.71612
398.15        18.59369
398.60        18.56303
399.05        18.55239
399.50        18.53783
399.95        18.56964
400.39        18.54141
400.84        18.45979
401.29        18.31197
401.74        18.18826
402.18        18.10643
402.63        18.01173
403.08        17.93078
403.53         17.9164
403.97        17.96928
404.42        18.07512
404.87        18.17896
405.32        18.19095
405.76        18.08829
406.21        17.90272
406.66        17.70096
407.11        17.59187
407.55         17.6059
408.00        17.71153
408.45        17.83756
408.90        17.85384
409.34         17.7278
409.79        17.50189
410.24        17.27894
410.68        17.21099
411.13        17.32818
411.58        17.58219
412.03        17.85859
412.47        17.96425
412.92        17.83944
413.37        17.55941
413.81         17.2388
414.26        17.07327
414.71        17.08996
415.15         17.2319
415.60        17.40664
416.05        17.48004
416.49        17.41285
416.94        17.25944
417.39         17.0677
417.83        16.90631
418.28        16.80723
418.73        16.73989
419.17        16.71611
419.62        16.75859
420.07        16.85784
420.51        17.00459
420.96        17.14401
421.41        17.17847
421.85        17.08814
422.30        16.92136
422.74        16.73084
423.19         16.6244
423.64        16.61717
424.08        16.68611
424.53        16.78538
424.98        16.86214
425.42        16.89801
425.87        16.90022
426.31        16.87173
426.76        16.84336
427.21        16.76595
427.65        16.65823
428.10        16.54017
428.54        16.42417
428.99        16.33148
429.44        16.36906
429.88        16.45971
430.33        16.27106
430.77        15.91597
431.22        15.93992
431.66        16.31084
432.11        16.49899
432.56        16.43867
433.00        16.41024
433.45        16.41374
433.89        16.25739
434.34        16.03588
434.78        16.02101
435.23        16.16072
435.67         16.1461
436.12        15.96997
436.57        15.80284
437.01        15.69695
437.46        15.66987
437.90        15.73362
438.35        15.87312
438.79        16.03916
439.24        16.12515
439.68        16.13015
440.13        16.14767
440.57        16.15521
441.02        16.12275
441.46        16.05991
441.91        15.86712
442.35        15.63031
442.80        15.80632
443.24        16.25069
443.69        16.17816
444.13        15.65771
444.58         15.4567
445.02        15.57919
445.47        15.61658
445.91        15.54096
446.36        15.51205
446.80        15.52235
447.24        15.53845
447.69        15.55506
448.13        15.56354
448.58        15.56457
449.02        15.56061
449.47        15.57161
449.91        15.61855
450.36        15.70342
450.80        15.81336
451.25        15.91721
451.69        15.96377
452.13         15.9407
452.58        15.87175
453.02        15.78101
453.47        15.70644
453.91         15.6582
454.36        15.67286
454.80        15.66535
455.24        15.67925
455.69        15.68935
456.13        15.69688
456.58        15.71138
457.02        15.73113
457.46        15.75786
457.91        15.78622
458.35        15.80183
458.79        15.79254
459.24        15.76756
459.68        15.74012
460.13        15.72565
460.57        15.67589
461.01        15.71554
461.46         15.6846
461.90        15.64291
462.34        15.77246
462.79        15.99952
463.23        15.98234
463.68        15.75219
464.12        15.65093
464.56        15.69446
465.01          15.716
465.45        15.68985
465.89        15.64881
466.34        15.61769
466.78        15.65931
467.22        15.79476
467.67        15.80485
468.11        15.69306
468.55        15.54358
468.99        15.40552
469.44        15.31339
469.88        15.28336
470.32         15.3144
470.77        15.37224
471.21        15.41432
471.65         15.4208
472.10        15.40869
472.54        15.40024
472.98         15.4464
473.42        15.55149
473.87        15.69221
474.31        15.82121
474.75        15.87117
475.20        15.83552
475.64        15.73551
476.08        15.61769
476.52         15.5503
476.97        15.55163
477.41        15.59613
477.85        15.66807
478.29         15.7392
478.74        15.80059
479.18        15.85225
479.62        15.87839
480.06        15.89137
480.50        15.90213
480.95        15.76824
481.39        15.76018
481.83        15.77029
482.27        15.88995
482.72         15.9686
483.16        16.18723
483.60        16.30192
484.04        16.36328
484.48        16.36403
484.93        16.33653
485.37        16.38869
485.81        16.50149
486.25        16.44023
486.69        16.21539
487.14        16.30879
487.58        16.64927
488.02        16.54823
488.46        16.62931
488.90        16.91275
489.34        16.34733
489.79         16.3399
490.23        16.51916
490.67        16.86733
491.11        17.22929
491.55        17.18982
491.99        16.84686
492.43        16.78868
492.88        17.04989
493.32        17.25532
493.76        17.35817
494.20        17.48768
494.64        17.63782
495.08        17.76932
495.52        17.86406
495.96        17.93971
496.41        18.00413
496.85        17.95286
497.29        17.83562
497.73        18.04584
498.17        18.30364
498.61        18.32435
499.05        18.08142
499.49         18.0061
499.93        18.13422
500.37         18.2943
500.82          18.442
501.26        18.54967
501.70        18.60051
502.14        18.62843
502.58        18.66247
503.02        18.72582
503.46        18.82838
503.90        18.96672
504.34        19.11232
504.78        19.21601
505.22         19.2643
505.66        19.26553
506.10        19.24644
506.54        19.27213
506.98        19.35791
507.42        19.44748
507.86         19.4892
508.30        19.62169
508.74        19.47673
509.18        19.36802
509.62        19.24949
510.06        19.22382
510.50        19.30932
510.94        19.48092
511.38        19.68173
511.82        19.80566
512.26        19.82427
512.70        19.76872
513.14        19.68866
513.58        19.66183
514.02        19.70871
514.46         19.8027
514.90        19.91012
515.34         19.9781
515.78        19.99068
516.22        19.96676
516.66        19.92915
517.10         19.9111
517.54        19.92095
517.98        19.94472
518.42        19.96645
518.86        19.96284
519.30        19.92801
519.74        19.87288
520.18        19.80892
520.62        19.75054
521.06        19.70558
521.50        19.67443
521.93        19.65648
522.37        19.64521
522.81        19.63996
523.25        19.63647
523.69         19.6439
524.13        19.67609
524.57        19.73036
525.01        19.80086
525.45        19.85185
525.89        19.82737
526.32        19.71806
526.76        19.54848
527.20        19.37237
527.64        19.27353
528.08        19.26819
528.52        19.33044
528.96        19.41078
529.40        19.42874
529.83        19.36366
530.27        19.24578
530.71        19.10999
531.15         19.0135
531.59        18.97226
532.03        18.96468
532.46         18.9724
532.90        18.97406
533.34        18.96026
533.78        18.94392
534.22        18.92285
534.66        18.89105
535.09        18.84867
535.53        18.80013
535.97        18.76064
536.41        18.76253
536.85        18.80836
537.28        18.88566
537.72        18.96497
538.16        19.00135
538.60        18.98535
539.04        18.93669
539.47         18.8703
539.91        18.82813
540.35        18.81782
540.79        18.83308
541.22        18.87756
541.66        18.96051
542.10        19.07551
542.54        19.21825
542.97        19.36929
543.41        19.49839
543.85        19.59786
544.29         19.6795
544.72        19.74122
545.16        19.79699
545.60         19.8517
546.04        19.89369
546.47        19.94805
546.91        20.08514
547.35        20.29443
547.79        20.49675
548.22        20.65317
548.66        20.81399
549.10        20.97743
549.53        21.04268
549.97         21.0052
550.41        21.29175
550.84        21.27446
551.28        21.42078
551.72         21.5217
552.15         21.7371
552.59        21.78846
553.03        21.90078
553.46        21.99861
553.90        22.08374
554.34        22.15345
554.77        22.23197
555.21        22.31678
555.65        22.34466
556.08        22.33649
556.52        22.40203
556.96        22.53525
557.39        22.67237
557.83        22.80155
558.27        22.90711
558.70        22.99635
559.14        23.10949
559.57        23.22531
560.01        23.31405
560.45        23.36717
560.88        23.30661
561.32        23.28524
561.75        23.31086
562.19        23.41391
562.63        23.47679
563.06          23.492
563.50        23.53655
563.93        23.60516
564.37        23.67791
564.80        23.74691
565.24        23.82301
565.68        23.89794
566.11        23.97496
566.55         24.0551
566.98        24.10439
567.42        24.16646
567.85        24.25679
568.29        24.37186
568.72        24.59969
569.16        24.95643
569.60        24.87208
570.03        25.09444
570.47        25.43537
570.90        25.29933
571.34        25.57351
571.77        25.55316
572.21        25.65207
572.64        25.73386
573.08        25.81655
573.51        25.92159
573.95        26.23911
574.38        26.31806
574.82        26.54618
