SpectraSmart Spectrum 2.9.0.0
--------- Device Information -----------
Spectrum Name :  反射率_0
Saving Time :  2024/04/30 00:43:39
Spectro-Module Model Name : SE2030-DUVN
Spectro-Module Serial Number : OS361AC55029948
Wavelength Start : 200
Wavelength End : 1025
Wavelength Unit : Wavelength(nm)
Spectrum Unit : Reflectance(%)
-----------Spectrum Setting ------------
Integration Time : 20ms
Average : 10
Boxcar : 0
Background removal :  enabled
linearity correction :  enabled
SC :  disabled
Intensity correction :  disabled
DWT denoise :  enabled
savitzky-golay :  disabled
FFT :  disabled
Running average :  disabled
Kalman :  disabled
High pass :  disabled
---------------BEGIN--------------------
Wavelength(nm)             Reflectance(%)
200.29               0
200.75        22.48008
201.21        12.34663
201.67        1.021682
202.13       -7.584806
202.58       -11.71067
203.04       -11.28312
203.50       -6.240711
203.96        2.703882
204.42        13.93958
204.88        26.39824
205.34        36.03633
205.80         37.6781
206.26        32.93602
206.72        26.06669
207.18        19.62271
207.64        14.94294
208.10        11.65973
208.55        8.565114
209.01        7.089012
209.47        10.46993
209.93        17.84173
210.39        26.96422
210.85        33.85209
211.31         35.2434
211.77        31.03464
212.23        20.59076
212.69        5.850288
213.14      -0.4423582
213.60        7.720832
214.06          22.748
214.52        35.77219
214.98         41.3182
215.44        40.52417
215.90        35.96663
216.36        29.67029
216.81        25.29441
217.27        24.98137
217.73        27.69402
218.19        34.22428
218.65        43.71802
219.11         52.2152
219.57        57.77348
220.02        59.59995
220.48        58.50684
220.94        54.61701
221.40        47.14038
221.86        35.60309
222.32        24.26877
222.77        18.36414
223.23        17.60036
223.69        18.67089
224.15        18.93753
224.61        18.15435
225.06         16.6451
225.52        16.15491
225.98        19.21127
226.44         24.9498
226.90        31.01405
227.36        35.14211
227.81        36.03365
228.27        34.16734
228.73        30.12293
229.19        25.52549
229.65        23.90088
230.10        25.90582
230.56        29.62736
231.02        32.99947
231.48        34.27191
231.93         33.4353
232.39        31.22716
232.85        28.47545
233.31        26.73568
233.77        26.54156
234.22        27.50197
234.68        28.75258
235.14        28.73871
235.60        27.15883
236.05        24.74997
236.51        22.59882
236.97        21.99233
237.43        23.27369
237.88        26.32125
238.34        30.89037
238.80        35.68515
239.26         39.1737
239.71        41.31806
240.17         41.9991
240.63        41.83898
241.08        41.14617
241.54        39.19159
242.00         36.2552
242.46        35.49566
242.91        40.20602
243.37        49.65124
243.83        59.22273
244.28        64.83994
244.74        66.33147
245.20         63.9431
245.66        59.18243
246.11        56.13313
246.57        56.98677
247.03          61.345
247.48        65.76639
247.94        62.88929
248.40        54.23971
248.85        45.11552
249.31          39.349
249.77        38.10831
250.22        40.97725
250.68        48.08317
251.14        60.19426
251.59        70.32973
252.05        70.45177
252.51        65.11815
252.96        59.20304
253.42        54.77263
253.88        50.93123
254.33        46.51609
254.79        42.48456
255.25        40.75299
255.70         41.3877
256.16        43.37624
256.62        45.17653
257.07        45.72962
257.53        45.49512
257.99        44.77517
258.44        43.90909
258.90        43.91679
259.35         44.4099
259.81        45.12928
260.27         45.6108
260.72        45.53961
261.18        45.09677
261.63        44.27124
262.09        43.32907
262.55        42.34623
263.00        41.35871
263.46        40.51034
263.91         39.6272
264.37        38.70851
264.83        37.69968
265.28        36.58996
265.74        35.64579
266.19        35.07875
266.65        34.95535
267.11        35.12858
267.56        35.32898
268.02        35.16499
268.47        34.54369
268.93        33.58537
269.38        32.47692
269.84        31.65998
270.30        31.23922
270.75        31.08813
271.21        30.99796
271.66         30.6511
272.12        29.97843
272.57        29.06994
273.03        28.12227
273.48        27.36008
273.94        26.89653
274.39        26.62344
274.85        26.42768
275.31        26.09853
275.76        25.58695
276.22        24.98141
276.67        24.39405
277.13         24.0542
277.58        23.94039
278.04        23.98722
278.49        23.98358
278.95        23.70896
279.40        23.10602
279.86        22.34023
280.31        21.54464
280.77          21.014
281.22         20.7777
281.68        20.75839
282.13         20.8529
282.59        20.95355
283.04        20.99614
283.50        20.99246
283.95        20.92067
284.41        20.74455
284.86        20.46711
285.32        20.14971
285.77        19.77521
286.22        19.38125
286.68        19.00783
287.13        18.62502
287.59        18.36825
288.04        18.39008
288.50        18.69814
288.95        19.19907
289.41        19.69273
289.86        19.85401
290.32        19.65314
290.77        19.19948
291.22        18.68627
291.68        18.42451
292.13         18.4896
292.59        18.78999
293.04         19.2596
293.50        19.82059
293.95        20.42647
294.40        21.11144
294.86        21.78018
295.31        22.29414
295.77        22.62684
296.22        22.79419
296.68        22.94172
297.13        23.28901
297.58        23.88536
298.04        24.63516
298.49        25.38918
298.95        25.90176
299.40        26.12183
299.85        26.14329
300.31        26.08966
300.76        26.09675
301.21         26.2363
301.67        26.46284
302.12        26.72751
302.58        27.09588
303.03        27.54468
303.48         27.9186
303.94        28.14721
304.39         28.8741
304.84        28.82578
305.30        29.02502
305.75          29.118
306.20        29.20958
306.66        29.31815
307.11        29.42456
307.57        29.52361
308.02        29.53803
308.47        29.47116
308.93        29.35283
309.38        29.21759
309.83        29.16158
310.29        29.20071
310.74        29.30533
311.19         29.3977
311.65        29.35183
312.10        29.14511
312.55        28.81986
313.00        28.48314
313.46        28.30148
313.91        28.29532
314.36        28.41007
314.82        28.53562
315.27         28.5141
315.72        28.29458
316.18        27.94102
316.63        27.51459
317.08        27.12349
317.53        26.81243
317.99        26.55799
318.44        26.35029
318.89         26.1777
319.35        26.02852
319.80        25.90674
320.25        25.80977
320.70        25.72822
321.16        25.64307
321.61        25.56017
322.06        25.44227
322.51        25.24438
322.97        24.96509
323.42        24.62936
323.87        24.28915
324.32        24.02905
324.78        23.86168
325.23        23.77449
325.68        23.72358
326.13        23.63575
326.59        23.48266
327.04        23.29517
327.49        23.08671
327.94        22.89038
328.39        22.71166
328.85        22.52187
329.30        22.33034
329.75          22.125
330.20         21.9091
330.66        21.69856
331.11        21.48907
331.56        21.24705
332.01        20.97262
332.46        20.67203
332.92        20.39789
333.37        20.26373
333.82         20.2849
334.27        20.42603
334.72        20.59186
335.17        20.62311
335.63        20.47437
336.08        20.19496
336.53        19.85096
336.98        19.57202
337.43          19.406
337.88        19.31603
338.34        19.27674
338.79        19.26729
339.24         19.2648
339.69        19.28779
340.14        19.31231
340.59        19.29405
341.05        19.22528
341.50        19.10456
341.95        18.97457
342.40        18.91374
342.85        18.93321
343.30        19.00703
343.75        19.06746
344.20          19.007
344.66         18.8161
345.11        18.52904
345.56        18.22163
346.01         18.0107
346.46        17.93143
346.91        17.94666
347.36        18.01433
347.81        18.07239
348.26        18.09473
348.72        18.09312
349.17        18.06668
349.62        18.01696
350.07        17.94772
350.52        17.86036
350.97        17.75259
351.42        17.62146
351.87        17.47868
352.32        17.34031
352.77        17.23998
353.22        17.22825
353.67        17.30976
354.13        17.45426
354.58        17.63189
355.03        17.79646
355.48        17.92024
355.93        18.00965
356.38         18.0302
356.83        17.93414
357.28        17.72849
357.73        17.43615
358.18        17.13495
358.63        16.94924
359.08        16.90347
359.53        16.95738
359.98        17.04701
360.43        17.06527
360.88        16.98056
361.33        16.83066
361.78        16.63601
362.23        16.42743
362.68        16.22891
363.13        16.03794
363.58        15.88201
364.03        15.80721
364.48        15.81584
364.93        15.88543
365.38        15.98936
365.83        16.08081
366.28        16.13656
366.73         16.1664
367.18        16.14017
367.63        16.01542
368.08        15.79601
368.53        15.49687
368.98        15.19639
369.43        15.02305
369.88        15.00683
370.33        15.11668
370.78         15.2691
371.23        15.32086
371.68        15.23153
372.13        15.03861
372.58        14.81028
373.03        14.65889
373.48        14.61163
373.93        14.62764
374.38        14.64971
374.83        14.58861
375.28        14.42594
375.72        14.19813
376.17        13.96621
376.62        13.78236
377.07        13.66169
377.52         13.5822
377.97        13.53677
378.42        13.51599
378.87         13.5121
379.32        13.52976
379.77        13.54798
380.22        13.53529
380.67        13.48291
381.11        13.38769
381.56        13.28203
382.01         13.2185
382.46          13.211
382.91        13.25461
383.36        13.29382
383.81        13.24275
384.26        13.09187
384.71        12.86558
385.15        12.65328
385.60        12.61737
386.05        12.76872
386.50        13.05004
386.95        13.33125
387.40        13.40868
387.85         13.2506
388.29        12.93129
388.74        12.59228
389.19        12.38207
389.64        12.33386
390.09        12.38736
390.54        12.50346
390.98        12.61495
391.43        12.69296
391.88        12.76205
392.33        12.79107
392.78        12.74668
393.23        12.63506
393.67        12.43211
394.12        12.21911
394.57        12.19644
395.02        12.20274
395.47         12.3547
395.91        12.51515
396.36        12.52873
396.81        12.37034
397.26        12.09593
397.71        11.81703
398.15        11.69036
398.60        11.75594
399.05        11.92348
399.50        12.09948
399.95        12.20585
400.39        12.15076
400.84        11.97449
401.29        11.72299
401.74        11.55246
402.18         11.5066
402.63        11.51588
403.08        11.56316
403.53         11.6314
403.97        11.70336
404.42        11.78835
404.87        11.85075
405.32        11.82922
405.76        11.71314
406.21         11.5224
406.66        11.32049
407.11        11.21251
407.55        11.22558
408.00        11.33366
408.45        11.46655
408.90        11.49417
409.34        11.38358
409.79        11.17741
410.24        10.97141
410.68        10.90915
411.13         11.0193
411.58        11.25308
412.03        11.50933
412.47        11.61707
412.92        11.52218
413.37        11.29289
413.81        11.02089
414.26        10.86099
414.71        10.83844
415.15        10.90843
415.60        11.01194
416.05        11.06843
416.49        11.04995
416.94        10.99126
417.39        10.90775
417.83         10.8177
418.28        10.73709
418.73        10.65073
419.17        10.58205
419.62        10.57104
420.07        10.62008
420.51        10.71883
420.96        10.82058
421.41        10.84425
421.85        10.77431
422.30        10.64956
422.74        10.51741
423.19        10.46734
423.64         10.5106
424.08        10.62301
424.53        10.75628
424.98        10.84813
425.42        10.87465
425.87        10.84533
426.31        10.77129
426.76        10.68964
427.21        10.57688
427.65        10.44676
428.10        10.31299
428.54        10.18076
428.99         10.0716
429.44        10.05832
429.88        10.10288
430.33        10.01764
430.77        9.864259
431.22        9.963357
431.66        10.29105
432.11        10.48062
432.56        10.47622
433.00        10.50523
433.45        10.54853
433.89        10.34116
434.34        10.00757
434.78        9.949968
435.23        10.13067
435.67        10.17245
436.12        10.06246
436.57         10.0245
437.01        10.06426
437.46        10.08631
437.90        10.08478
438.35        10.08062
438.79        10.07885
439.24        10.06748
439.68        10.06202
440.13        10.10294
440.57        10.15343
441.02        10.16039
441.46        10.11782
441.91        9.975399
442.35        9.801273
442.80        9.898522
443.24        10.17969
443.69        10.14598
444.13        9.830236
444.58        9.701466
445.02        9.760601
445.47        9.760677
445.91        9.693412
446.36        9.672852
446.80        9.697577
447.24        9.740245
447.69        9.794662
448.13        9.854445
448.58        9.913454
449.02        9.970582
449.47        10.02479
449.91        10.06928
450.36        10.10196
450.80        10.12264
451.25        10.12497
451.69        10.10082
452.13        10.04983
452.58        9.983336
453.02         9.91272
453.47        9.856125
453.91        9.816532
454.36         9.81931
454.80        9.809308
455.24        9.809371
455.69        9.802238
456.13        9.787742
456.58        9.774328
457.02        9.764664
457.46        9.762906
457.91        9.767047
458.35         9.76696
458.79        9.750106
459.24        9.723829
459.68        9.696361
460.13        9.688963
460.57        9.686216
461.01        9.767362
461.46        9.825154
461.90        9.878556
462.34        10.01137
462.79        10.17001
463.23        10.14505
463.68        9.974369
464.12        9.906282
464.56        9.955904
465.01        10.00517
465.45        10.02277
465.89        10.00923
466.34        9.977588
466.78        9.979485
467.22        10.03282
467.67        10.00587
468.11        9.907303
468.55        9.788314
468.99        9.693673
469.44        9.666039
469.88        9.715046
470.32        9.833224
470.77        9.970216
471.21        10.05613
471.65        10.06585
472.10        10.02424
472.54        9.968589
472.98        9.972323
473.42        10.04923
473.87        10.17091
474.31        10.29521
474.75         10.3578
475.20        10.34899
475.64        10.29096
476.08        10.21768
476.52        10.17798
476.97        10.18619
477.41        10.22278
477.85        10.28091
478.29        10.34798
478.74        10.41857
479.18        10.49256
479.62        10.55165
480.06        10.59335
480.50        10.62114
480.95        10.53846
481.39        10.53551
481.83        10.56133
482.27        10.68126
482.72        10.78871
483.16        10.98464
483.60        11.07607
484.04        11.08861
484.48        11.03055
484.93        10.97043
485.37        11.05535
485.81         11.2175
486.25        11.44094
486.69        10.89764
487.14        11.15517
487.58        11.93177
488.02        11.66222
488.46        11.93891
488.90        12.11232
489.34        11.68409
489.79        11.71976
490.23        11.89282
490.67        12.15538
491.11        12.38791
491.55        12.38218
491.99        12.21388
492.43         12.2531
492.88        12.52076
493.32        12.76921
493.76        12.94496
494.20        13.10597
494.64        13.24268
495.08        13.33092
495.52        13.38439
495.96        13.46531
496.41        13.58895
496.85        13.66036
497.29        13.68398
497.73        13.91345
498.17        14.12494
498.61        14.11604
499.05         13.8951
499.49        13.83901
499.93        13.98759
500.37        14.19343
500.82        14.40645
501.26         14.5813
501.70        14.69431
502.14        14.77868
502.58        14.85611
503.02        14.94259
503.46        15.04714
503.90        15.16591
504.34        15.28328
504.78        15.37362
505.22        15.43018
505.66        15.45807
506.10        15.47248
506.54        15.51431
506.98        15.59334
507.42        15.66805
507.86        15.70429
508.30        15.82472
508.74        15.73573
509.18        15.68826
509.62         15.6363
510.06         15.6496
510.50        15.74007
510.94        15.88925
511.38        16.06432
511.82        16.20121
512.26        16.27807
512.70        16.31012
513.14          16.314
513.58        16.31701
514.02        16.33035
514.46        16.34683
514.90        16.36153
515.34        16.36907
515.78        16.36809
516.22          16.361
516.66        16.35946
517.10        16.37867
517.54        16.41851
517.98        16.47338
518.42         16.5164
518.86        16.50498
519.30        16.43369
519.74        16.31873
520.18        16.19786
520.62        16.12897
521.06        16.12618
521.50        16.17347
521.93        16.24292
522.37        16.28209
522.81         16.2767
523.25        16.24023
523.69        16.19142
524.13        16.15953
524.57        16.15023
525.01        16.14984
525.45        16.14289
525.89        16.10707
526.32        16.03648
526.76        15.94744
527.20        15.85088
527.64        15.76218
528.08        15.68788
528.52        15.62457
528.96        15.57498
529.40        15.54315
529.83        15.52683
530.27        15.52596
530.71        15.52898
531.15        15.51958
531.59        15.49202
532.03         15.4471
532.46        15.39116
532.90        15.34062
533.34        15.29915
533.78        15.26578
534.22        15.23089
534.66        15.17855
535.09        15.10704
535.53        15.02902
535.97        14.96231
536.41        14.93951
536.85        14.96507
537.28        15.02532
537.72        15.09635
538.16        15.14355
538.60        15.15676
539.04        15.15018
539.47        15.12677
539.91        15.10744
540.35        15.09741
540.79        15.09758
541.22         15.1216
541.66        15.19466
542.10        15.31582
542.54         15.4746
542.97        15.65189
543.41        15.81645
543.85        15.95834
544.29        16.08894
544.72        16.19777
545.16        16.28318
545.60        16.34867
546.04        16.38955
546.47        16.44096
546.91        16.58522
547.35        16.81747
547.79        17.06115
548.22        17.27262
548.66        17.47733
549.10        17.66978
549.53        17.77258
549.97        17.77714
550.41        18.03619
550.84        18.02064
551.28        18.12976
551.72        18.20858
552.15        18.42728
552.59        18.55405
553.03         18.7674
553.46        18.97596
553.90        19.13836
554.34        19.24163
554.77        19.31906
555.21        19.38727
555.65        19.42093
556.08        19.44746
556.52        19.55416
556.96        19.72547
557.39          19.891
557.83        20.03625
558.27        20.15141
558.70        20.25301
559.14        20.39102
559.57        20.54728
560.01        20.68797
560.45        20.78722
560.88         20.7492
561.32        20.70806
561.75        20.68295
562.19        20.72248
562.63        20.75561
563.06        20.78505
563.50        20.86889
563.93        20.98966
564.37        21.10927
564.80        21.21238
565.24        21.31214
565.68        21.40413
566.11        21.49586
566.55        21.59006
566.98        21.65454
567.42        21.72154
567.85        21.80202
568.29        21.90484
568.72         22.0808
569.16        22.35121
569.60        22.32103
570.03        22.68124
570.47        22.83558
570.90        22.93687
571.34        23.20826
571.77        23.23561
572.21        23.30411
572.64        23.28515
573.08        23.42225
573.51        23.76101
573.95        23.52097
574.38        23.78621
574.82        23.90111
