SpectraSmart Spectrum 2.9.0.0
--------- Device Information -----------
Spectrum Name :  反射率_0
Saving Time :  2024/04/30 01:05:57
Spectro-Module Model Name : SE2030-DUVN
Spectro-Module Serial Number : OS361AC55029948
Wavelength Start : 200
Wavelength End : 1025
Wavelength Unit : Wavelength(nm)
Spectrum Unit : Reflectance(%)
-----------Spectrum Setting ------------
Integration Time : 20ms
Average : 10
Boxcar : 0
Background removal :  enabled
linearity correction :  enabled
SC :  disabled
Intensity correction :  disabled
DWT denoise :  enabled
savitzky-golay :  disabled
FFT :  disabled
Running average :  disabled
Kalman :  disabled
High pass :  disabled
---------------BEGIN--------------------
Wavelength(nm)             Reflectance(%)
200.29               0
200.75        65.23261
201.21        57.46983
201.67        49.54648
202.13        41.97631
202.58        35.00148
203.04        28.60832
203.50        24.63228
203.96        26.57973
204.42        35.00477
204.88        48.68396
205.34        60.21823
205.80        59.37217
206.26        48.70208
206.72        35.50595
207.18        25.16148
207.64        21.01216
208.10        22.09263
208.55        26.20899
209.01        32.63758
209.47        39.37516
209.93        44.25306
210.39        47.74986
210.85        49.05206
211.31        47.30789
211.77        42.37336
212.23        33.00968
212.69        20.51308
213.14        14.86118
213.60        20.90508
214.06         33.2033
214.52        44.48975
214.98        50.21189
215.44        51.39893
215.90        50.13721
216.36        48.34473
216.81        49.52166
217.27        55.72523
217.73        66.91153
218.19         83.1662
218.65        98.60943
219.11        106.1602
219.57        105.7781
220.02        101.6173
220.48        98.24062
220.94        95.52917
221.40        92.34599
221.86          87.116
222.32        79.04589
222.77        70.99645
223.23        65.88691
223.69        63.50529
224.15        62.93314
224.61        63.53019
225.06        65.13512
225.52        67.62682
225.98        69.88472
226.44        71.18183
226.90        71.73808
227.36        71.90073
227.81        72.04381
228.27        72.39307
228.73        72.70924
229.19        73.12309
229.65        73.76941
230.10        74.44282
230.56        75.26639
231.02        75.79115
231.48        75.67796
231.93         74.9062
232.39        73.65061
232.85        72.39251
233.31        72.15662
233.77        73.21175
234.22        75.46149
234.68        77.80293
235.14        78.31037
235.60        76.59299
236.05        73.29401
236.51        70.11919
236.97        69.23867
237.43        71.17758
237.88        75.98786
238.34        82.48975
238.80        87.14628
239.26        87.39084
239.71        84.06185
240.17        79.15666
240.63        75.66358
241.08        74.38037
241.54        74.48183
242.00        76.49062
242.46        80.44429
242.91        85.47402
243.37        90.65054
243.83        94.42611
244.28        96.18451
244.74        96.02673
245.20        92.88591
245.66        88.15019
246.11        85.91087
246.57        88.06481
247.03        94.99575
247.48        101.5913
247.94        97.09219
248.40         83.8339
248.85         69.2523
249.31        59.88908
249.77        58.11642
250.22        63.42997
250.68        76.66927
251.14         98.0945
251.59        112.1016
252.05        106.1032
252.51        91.77433
252.96        80.17638
253.42        75.57547
253.88        75.76722
254.33        78.42114
254.79        82.14437
255.25        83.54096
255.70        81.93893
256.16        79.84856
256.62        78.26009
257.07        77.65607
257.53        78.25925
257.99        79.35307
258.44        80.14936
258.90        80.37511
259.35        79.62043
259.81        78.78313
260.27        78.03246
260.72        77.54942
261.18        77.55065
261.63        77.49418
262.09        77.41661
262.55        76.92152
263.00        75.93099
263.46        74.90115
263.91        73.71203
264.37        72.65264
264.83        71.63343
265.28        70.55292
265.74        69.63248
266.19        68.90845
266.65        68.48338
267.11        68.25459
267.56        68.05621
268.02        67.69482
268.47        67.06905
268.93        66.24105
269.38         65.2715
269.84        64.38773
270.30        63.65013
270.75        63.00419
271.21        62.36806
271.66        61.54103
272.12        60.50669
272.57         59.2765
273.03        58.03555
273.48        56.96411
273.94        56.18107
274.39        55.55868
274.85        54.99473
275.31        54.20233
275.76        53.12621
276.22        51.94093
276.67        50.76611
277.13        49.92983
277.58        49.39785
278.04        49.10537
278.49        48.83551
278.95        48.43905
279.40        47.80075
279.86        47.07496
280.31        46.25112
280.77        45.47864
281.22        44.74531
281.68        44.07704
282.13        43.46316
282.59        42.98928
283.04         42.6064
283.50        42.30523
283.95        41.99011
284.41        41.56147
284.86        40.97939
285.32        40.33821
285.77        39.64532
286.22        39.00817
286.68        38.47165
287.13        37.97384
287.59        37.56343
288.04        37.23714
288.50        37.01488
288.95        36.85152
289.41        36.72778
289.86        36.54702
290.32        36.31871
290.77        36.05362
291.22        35.77458
291.68        35.52042
292.13        35.29313
292.59        35.10694
293.04        35.01053
293.50        35.11718
293.95         35.4231
294.40        35.91515
294.86        36.44792
295.31        36.80719
295.77         36.9484
296.22          36.916
296.68        36.89646
297.13        37.15921
297.58        37.75792
298.04        38.56828
298.49        39.37867
298.95        39.86578
299.40        39.95633
299.85        39.77561
300.31        39.50381
300.76        39.34858
301.21        39.40667
301.67        39.61605
302.12        39.89035
302.58        40.24532
303.03        40.63241
303.48        40.94413
303.94        41.14083
304.39        41.75705
304.84        41.75523
305.30        41.96687
305.75        42.06723
306.20        42.11394
306.66        42.12799
307.11        42.09708
307.57        42.06718
308.02        42.01331
308.47         41.9557
308.93        41.90837
309.38        41.85974
309.83        41.84438
310.29        41.86605
310.74        41.90873
311.19        41.93641
311.65         41.8864
312.10        41.74071
312.55        41.51759
313.00        41.28049
313.46        41.13103
313.91        41.07135
314.36        41.06775
314.82        41.04306
315.27        40.89447
315.72         40.5904
316.18        40.18701
316.63        39.72517
317.08        39.27874
317.53        38.88874
317.99        38.54852
318.44        38.27989
318.89        38.12059
319.35         38.0633
319.80        38.08802
320.25        38.15049
320.70         38.1765
321.16        38.12455
321.61        38.02353
322.06         37.8505
322.51        37.59351
322.97        37.26323
323.42        36.86929
323.87        36.47542
324.32        36.18675
324.78        36.01428
325.23        35.95794
325.68        35.92575
326.13        35.76085
326.59        35.42236
327.04        34.96928
327.49        34.50732
327.94        34.22546
328.39        34.16064
328.85        34.23403
329.30        34.34866
329.75        34.27955
330.20        33.96686
330.66        33.48569
331.11        32.93947
331.56        32.46193
332.01        32.10748
332.46        31.83646
332.92        31.64366
333.37        31.56028
333.82        31.56512
334.27        31.65718
334.72        31.77596
335.17        31.81216
335.63        31.73128
336.08        31.56628
336.53        31.34513
336.98        31.14814
337.43        31.00483
337.88        30.88657
338.34        30.79976
338.79        30.77423
339.24        30.79891
339.69        30.88279
340.14        30.95777
340.59        30.90524
341.05        30.71217
341.50        30.41284
341.95        30.12026
342.40         30.0232
342.85        30.14978
343.30         30.4223
343.75         30.7158
344.20         30.8304
344.66        30.72302
345.11        30.46381
345.56        30.11159
346.01        29.75775
346.46        29.45936
346.91         29.1963
347.36        29.02949
347.81        29.05287
348.26        29.25984
348.72        29.60946
349.17        29.98461
349.62        30.17518
350.07        30.12076
350.52        29.88444
350.97        29.54411
351.42        29.22318
351.87        28.97569
352.32        28.77995
352.77        28.65501
353.22        28.63182
353.67         28.7026
354.13        28.84711
354.58        29.02975
355.03        29.18572
355.48         29.2805
355.93        29.32132
356.38        29.26624
356.83        29.06051
357.28        28.71652
357.73        28.26433
358.18        27.81009
358.63        27.52108
359.08        27.43098
359.53        27.48864
359.98        27.60217
360.43        27.61837
360.88        27.49169
361.33        27.26877
361.78        26.98867
362.23        26.71426
362.68        26.47356
363.13        26.24815
363.58        26.04406
364.03        25.87495
364.48        25.73938
364.93        25.63585
365.38        25.55712
365.83        25.48425
366.28          25.411
366.73        25.34514
367.18        25.26769
367.63        25.15199
368.08        24.99555
368.53        24.79776
368.98        24.60989
369.43        24.51731
369.88        24.53183
370.33        24.62901
370.78        24.72003
371.23        24.65882
371.68        24.41516
372.13        24.03446
372.58        23.62075
373.03        23.34263
373.48        23.24044
373.93        23.25985
374.38        23.32032
374.83        23.28596
375.28        23.12485
375.72        22.89062
376.17        22.64616
376.62         22.4355
377.07        22.27644
377.52        22.13638
377.97        22.04908
378.42        22.07609
378.87        22.21063
379.32        22.42887
379.77         22.6226
380.22        22.62992
380.67        22.42454
381.11         22.0511
381.56         21.6321
382.01        21.37436
382.46         21.3351
382.91        21.45822
383.36        21.63076
383.81        21.67655
384.26        21.55667
384.71        21.32855
385.15        21.08054
385.60        20.97652
386.05        21.03304
386.50        21.18219
386.95        21.33275
387.40        21.34919
387.85        21.20549
388.29        20.95025
388.74        20.67017
389.19        20.41191
389.64        20.19689
390.09        20.00064
390.54        19.85198
390.98         19.7992
391.43        19.84841
391.88        19.97894
392.33        20.10885
392.78        20.14007
393.23        20.06079
393.67         19.8549
394.12        19.61188
394.57        19.59332
395.02        19.53274
395.47        19.61873
395.91        19.70972
396.36        19.69996
396.81        19.57378
397.26        19.38196
397.71        19.17491
398.15        19.01418
398.60        18.94344
399.05        18.89393
399.50        18.86253
399.95        18.93065
400.39        18.99183
400.84        19.04202
401.29        19.02829
401.74        18.97388
402.18        18.87575
402.63        18.69304
403.08        18.49862
403.53        18.41956
403.97        18.47402
404.42        18.62767
404.87        18.78652
405.32        18.79713
405.76        18.62399
406.21        18.32443
406.66        18.00507
407.11        17.83307
407.55        17.85245
408.00        18.01237
408.45        18.21181
408.90        18.26879
409.34        18.13501
409.79        17.87154
410.24        17.60244
410.68        17.51106
411.13        17.63637
411.58        17.91693
412.03        18.23272
412.47        18.38165
412.92        18.29658
413.37        18.05578
413.81         17.7642
414.26         17.6037
414.71        17.60028
415.15        17.69858
415.60        17.82236
416.05        17.86707
416.49        17.80091
416.94        17.67163
417.39        17.50648
417.83        17.33971
418.28        17.19664
418.73        17.05956
419.17        16.96469
419.62        16.97197
420.07        17.08154
420.51        17.27288
420.96        17.47076
421.41        17.54575
421.85        17.46836
422.30        17.29418
422.74        17.09159
423.19         16.9928
423.64        17.01565
424.08        17.12726
424.53        17.25961
424.98        17.32376
425.42        17.29338
425.87        17.18981
426.31        17.04351
426.76        16.92639
427.21        16.80232
427.65        16.68284
428.10        16.57447
428.54        16.46541
428.99        16.37068
429.44        16.40586
429.88        16.50263
430.33        16.34093
430.77        16.03219
431.22         16.1146
431.66        16.55022
432.11        16.79021
432.56        16.75998
433.00        16.75084
433.45        16.75836
433.89        16.57602
434.34        16.30842
434.78        16.24538
435.23        16.34868
435.67        16.32775
436.12        16.17848
436.57        16.06331
437.01        16.02131
437.46        16.04307
437.90        16.12955
438.35        16.27412
438.79        16.42173
439.24        16.45674
439.68         16.3842
440.13        16.30465
440.57        16.22256
441.02        16.15425
441.46        16.11779
441.91         15.9946
442.35        15.84159
442.80        16.08428
443.24        16.56894
443.69        16.50528
444.13        15.96788
444.58         15.7488
445.02        15.85763
445.47        15.87541
445.91        15.78151
446.36        15.75136
446.80        15.77872
447.24        15.82532
447.69        15.87871
448.13        15.91716
448.58        15.93665
449.02        15.94341
449.47        15.95402
449.91        15.98482
450.36        16.03917
450.80        16.10487
451.25        16.16426
451.69        16.18777
452.13        16.16673
452.58        16.11946
453.02        16.05212
453.47        15.97316
453.91        15.88688
454.36        15.84036
454.80        15.76685
455.24        15.74093
455.69        15.74529
456.13        15.77209
456.58        15.81557
457.02        15.85055
457.46         15.8725
457.91        15.88276
458.35        15.87894
458.79        15.86653
459.24        15.85778
459.68        15.85965
460.13        15.87387
460.57         15.8309
461.01        15.85341
461.46        15.78801
461.90        15.71188
462.34        15.83375
462.79         16.0851
463.23        16.11209
463.68         15.9284
464.12        15.85391
464.56        15.89743
465.01        15.89755
465.45        15.83669
465.89         15.7583
466.34        15.69317
466.78        15.70643
467.22         15.8173
467.67        15.80424
468.11        15.67368
468.55        15.51029
468.99        15.37983
469.44        15.34234
469.88        15.41178
470.32        15.57258
470.77        15.75178
471.21        15.84516
471.65        15.81956
472.10        15.71418
472.54        15.58499
472.98        15.53664
473.42        15.59211
473.87        15.71415
474.31        15.85058
474.75        15.92549
475.20        15.92418
475.64        15.86957
476.08        15.79591
476.52        15.75003
476.97        15.74691
477.41        15.76794
477.85        15.80609
478.29        15.84974
478.74        15.89782
479.18        15.94571
479.62        15.98492
480.06        16.03962
480.50        16.11676
480.95        16.06281
481.39        16.13253
481.83        16.18456
482.27        16.30649
482.72        16.35781
483.16        16.53564
483.60        16.60426
484.04        16.60762
484.48        16.57556
484.93        16.59125
485.37        16.64769
485.81        16.67896
486.25        17.07972
486.69         16.7175
487.14        16.74729
487.58        17.34435
488.02        17.13125
488.46        17.43842
488.90        17.62722
489.34        17.21125
489.79        17.11631
490.23        17.12274
490.67        17.32215
491.11        17.61236
491.55        17.66932
491.99        17.54026
492.43        17.61633
492.88        17.90711
493.32        18.15345
493.76        18.31148
494.20         18.4644
494.64        18.60733
495.08        18.70661
495.52        18.77024
495.96        18.85039
496.41        18.96001
496.85        19.01881
497.29        19.02631
497.73        19.22878
498.17         19.3562
498.61        19.34476
499.05        19.17797
499.49        19.13535
499.93        19.25629
500.37        19.47059
500.82        19.71889
501.26        19.89258
501.70        19.96673
502.14        20.00242
502.58        20.04247
503.02        20.13058
503.46        20.28135
503.90        20.47673
504.34        20.68318
504.78        20.84569
505.22        20.94446
505.66        20.99103
506.10        20.99431
506.54        20.99337
506.98        21.00407
507.42        20.97685
507.86        20.90004
508.30        20.99186
508.74        20.87376
509.18        20.86242
509.62        20.86229
510.06        20.90882
510.50        21.00168
510.94        21.13313
511.38        21.27872
511.82        21.38668
512.26        21.44238
512.70        21.45774
513.14        21.45088
513.58        21.45257
514.02        21.47397
514.46        21.50695
514.90         21.5477
515.34        21.59023
515.78        21.63112
516.22        21.67258
516.66        21.71379
517.10        21.75216
517.54        21.78409
517.98        21.80462
518.42        21.80805
518.86        21.78776
519.30        21.74303
519.74        21.67891
520.18         21.6001
520.62        21.51115
521.06        21.42018
521.50        21.33595
521.93        21.26934
522.37        21.22997
522.81        21.22279
523.25        21.23803
523.69        21.27822
524.13        21.34788
524.57        21.43727
525.01         21.5371
525.45        21.60814
525.89        21.58958
526.32        21.47053
526.76        21.28006
527.20        21.06635
527.64        20.90535
528.08         20.8178
528.52          20.784
528.96        20.78153
529.40        20.77169
529.83        20.73964
530.27         20.7011
530.71         20.6563
531.15        20.60688
531.59        20.55419
532.03        20.49262
532.46        20.42706
532.90        20.37517
533.34        20.33953
533.78         20.3209
534.22        20.30719
534.66        20.27794
535.09        20.22844
535.53        20.16975
535.97        20.12065
536.41        20.11729
536.85        20.16361
537.28        20.24491
537.72        20.32829
538.16        20.36459
538.60        20.34344
539.04        20.28546
539.47        20.21162
539.91        20.17345
540.35        20.18029
540.79        20.22507
541.22        20.30097
541.66        20.40094
542.10         20.5154
542.54         20.6436
542.97        20.78386
543.41        20.93377
543.85         21.0899
544.29        21.25686
544.72        21.40504
545.16        21.50643
545.60        21.55803
546.04        21.55932
546.47        21.57047
546.91        21.72059
547.35        22.00816
547.79        22.32811
548.22         22.6001
548.66        22.82403
549.10        22.98676
549.53        22.99623
549.97        22.87926
550.41         23.1515
550.84        23.14444
551.28        23.35065
551.72        23.51979
552.15        23.79128
552.59        23.85222
553.03        23.96244
553.46        24.05469
553.90        24.15359
554.34        24.26115
554.77        24.39315
555.21        24.53679
555.65         24.6086
556.08        24.62526
556.52         24.7112
556.96        24.86128
557.39        25.00683
557.83        25.13664
558.27        25.23582
558.70        25.31757
559.14        25.42697
559.57         25.5472
560.01        25.66366
560.45        25.75568
560.88        25.70364
561.32          25.673
561.75        25.68752
562.19        25.79244
562.63        25.87045
563.06        25.91513
563.50        26.01338
563.93        26.13011
564.37        26.23424
564.80        26.30841
565.24        26.37273
565.68        26.42745
566.11        26.49788
566.55         26.5914
566.98        26.65141
567.42        26.72012
567.85        26.87066
568.29         27.0075
568.72        27.28701
569.16        27.69302
569.60        27.63165
570.03        27.93696
570.47         28.1122
570.90        28.19917
571.34         28.2435
571.77        28.44067
572.21        28.60588
572.64        28.75751
573.08        28.86496
573.51        28.87508
573.95        28.91823
574.38        29.32358
574.82        29.42543
