SpectraSmart Spectrum 2.9.0.0
--------- Device Information -----------
Spectrum Name :  反射率_0
Saving Time :  2024/04/30 00:48:39
Spectro-Module Model Name : SE2030-DUVN
Spectro-Module Serial Number : OS361AC55029948
Wavelength Start : 200
Wavelength End : 1025
Wavelength Unit : Wavelength(nm)
Spectrum Unit : Reflectance(%)
-----------Spectrum Setting ------------
Integration Time : 20ms
Average : 10
Boxcar : 0
Background removal :  enabled
linearity correction :  enabled
SC :  disabled
Intensity correction :  disabled
DWT denoise :  enabled
savitzky-golay :  disabled
FFT :  disabled
Running average :  disabled
Kalman :  disabled
High pass :  disabled
---------------BEGIN--------------------
Wavelength(nm)             Reflectance(%)
200.29               0
200.75        64.49483
201.21         54.6652
201.67        43.40567
202.13        33.04332
202.58        25.00379
203.04        18.85775
203.50        17.00069
203.96        24.06199
204.42          40.584
204.88        64.36255
205.34        85.81941
205.80        91.56142
206.26        83.05431
206.72        68.63001
207.18        55.39683
207.64        47.57485
208.10        44.25762
208.55        43.37514
209.01        43.60969
209.47        43.37391
209.93        42.34325
210.39        41.69635
210.85        41.29492
211.31        40.74413
211.77         39.9446
212.23        38.42446
212.69        37.20213
213.14        39.92025
213.60        46.02766
214.06        53.03266
214.52        57.94173
214.98        59.20127
215.44        57.67526
215.90        54.18347
216.36        50.64073
216.81        50.84812
217.27         56.9081
217.73        69.29079
218.19         87.2486
218.65        101.7726
219.11        105.2812
219.57        100.0418
220.02        92.42757
220.48        87.96331
220.94        86.18893
221.40        85.45149
221.86        84.33421
222.32         80.5555
222.77        74.96131
223.23        70.92314
223.69        68.47444
224.15        66.89564
224.61        65.79425
225.06        64.86718
225.52        65.00377
225.98        67.45732
226.44        71.45543
226.90         75.5386
227.36        78.53748
227.81        79.88719
228.27        80.02186
228.73        79.08138
229.19        77.53242
229.65        76.43456
230.10          76.129
230.56        76.52042
231.02        76.85246
231.48         76.4418
231.93        75.20234
232.39         73.4305
232.85        71.75513
233.31        71.45651
233.77        72.85609
234.22        75.70374
234.68        78.68919
235.14        79.53513
235.60        77.70037
236.05         73.9301
236.51        70.01157
236.97        68.15499
237.43        68.86789
237.88        72.08983
238.34        76.70567
238.80        79.77795
239.26        79.30932
239.71        76.16064
240.17        72.09889
240.63        69.70303
241.08        69.74577
241.54        71.88499
242.00         76.6632
242.46        82.64656
242.91        86.83085
243.37        87.79101
243.83        86.53471
244.28        85.17249
244.74        83.96208
245.20        81.86225
245.66        78.73082
246.11        74.99583
246.57         71.1143
247.03        67.49911
247.48        63.98396
247.94        60.20472
248.40         57.2941
248.85         55.6453
249.31        55.26816
249.77        55.35798
250.22         55.8889
250.68        57.10571
251.14        59.89286
251.59        64.60591
252.05        68.70843
252.51        70.70071
252.96        71.31622
253.42        72.27191
253.88        73.62623
254.33        75.23653
254.79        76.73731
255.25        76.61211
255.70        74.87083
256.16        73.00015
256.62        71.80187
257.07        71.74722
257.53        72.93307
257.99        74.70037
258.44        75.93179
258.90        75.85363
259.35        74.23463
259.81        72.31784
260.27        70.64299
260.72        69.67602
261.18         69.5359
261.63          69.575
262.09        69.66042
262.55        69.23935
263.00        68.24408
263.46        67.18539
263.91        66.04408
264.37         65.1749
264.83        64.49734
265.28        63.84856
265.74        63.39409
266.19         63.1091
266.65        63.04664
267.11        63.12135
267.56        63.14861
268.02        62.90053
268.47        62.29883
268.93        61.43108
269.38        60.41134
269.84        59.56535
270.30        58.96917
270.75        58.51427
271.21        58.11209
271.66        57.55845
272.12        56.81927
272.57        55.93515
273.03        54.96555
273.48        53.89159
273.94         52.8407
274.39        51.78199
274.85        50.86536
275.31        50.17353
275.76        49.66203
276.22        49.31079
276.67        48.98556
277.13        48.64311
277.58        48.17482
278.04        47.66814
278.49        47.00768
278.95        46.17521
279.40        45.14164
279.86        44.04452
280.31        42.97087
280.77        42.21279
281.22        41.75552
281.68         41.5457
282.13        41.45197
282.59        41.37692
283.04        41.22304
283.50        41.02737
283.95        40.69555
284.41        40.13717
284.86        39.34412
285.32        38.41577
285.77        37.44993
286.22        36.68154
286.68        36.17152
287.13        35.82748
287.59        35.60592
288.04        35.35552
288.50        35.06433
288.95        34.73766
289.41        34.43087
289.86        34.16244
290.32        33.96344
290.77        33.80366
291.22        33.65224
291.68        33.46397
292.13        33.22323
292.59        32.98054
293.04        32.81829
293.50        32.89515
293.95        33.21655
294.40        33.73545
294.86        34.30548
295.31         34.7158
295.77        34.90907
296.22        34.93254
296.68        34.91634
297.13        35.03856
297.58        35.35468
298.04        35.78711
298.49         36.2291
298.95        36.51711
299.40        36.61102
299.85        36.57373
300.31        36.51246
300.76        36.52441
301.21        36.66193
301.67        36.89197
302.12        37.11879
302.58        37.34321
303.03        37.53519
303.48        37.59071
303.94        37.52346
304.39        37.99919
304.84        37.93093
305.30        38.17301
305.75        38.34528
306.20        38.44069
306.66        38.45655
307.11        38.40643
307.57        38.32625
308.02        38.18304
308.47        38.00033
308.93        37.78785
309.38        37.57978
309.83          37.484
310.29        37.51284
310.74        37.63128
311.19        37.73857
311.65        37.66725
312.10        37.38789
312.55        36.96451
313.00        36.52803
313.46        36.28383
313.91        36.26431
314.36        36.39941
314.82        36.58419
315.27        36.67071
315.72        36.59603
316.18        36.41394
316.63        36.13935
317.08         35.8076
317.53        35.45236
317.99        35.07719
318.44        34.71896
318.89        34.44504
319.35        34.26887
319.80        34.17322
320.25        34.14559
320.70        34.15706
321.16        34.17382
321.61        34.21294
322.06        34.20947
322.51        34.07235
322.97        33.78886
323.42        33.38924
323.87        32.96629
324.32         32.6754
324.78        32.54627
325.23        32.56108
325.68        32.62914
326.13        32.59378
326.59        32.40895
327.04        32.13616
327.49        31.85931
327.94        31.73003
328.39        31.77693
328.85        31.92418
329.30        32.10123
329.75        32.13725
330.20        31.98143
330.66        31.69039
331.11        31.32219
331.56        30.94155
332.01        30.58792
332.46        30.24267
332.92        29.94742
333.37        29.81182
333.82        29.84144
334.27        30.01619
334.72        30.23804
335.17        30.33163
335.63        30.24497
336.08        30.03467
336.53        29.76104
336.98        29.55538
337.43        29.46312
337.88        29.43622
338.34        29.46265
338.79        29.54599
339.24        29.66413
339.69        29.83218
340.14         29.9799
340.59        29.98589
341.05        29.83304
341.50        29.54715
341.95        29.24728
342.40        29.13367
342.85        29.24071
343.30        29.50126
343.75        29.77508
344.20        29.83372
344.66        29.63929
345.11        29.27597
345.56        28.85919
346.01        28.56955
346.46        28.46736
346.91        28.48554
347.36        28.60675
347.81        28.80968
348.26        29.06248
348.72        29.36764
349.17        29.63574
349.62        29.70831
350.07        29.55569
350.52         29.2232
350.97        28.83396
351.42        28.58171
351.87        28.51675
352.32        28.59297
352.77        28.73229
353.22        28.80199
353.67        28.76223
354.13        28.65058
354.58        28.52412
355.03        28.47279
355.48        28.51188
355.93        28.60003
356.38        28.66786
356.83        28.61724
357.28        28.43207
357.73        28.15252
358.18        27.84639
358.63        27.61722
359.08         27.4908
359.53         27.4325
359.98        27.39939
360.43        27.32301
360.88        27.18323
361.33        27.00664
361.78        26.80836
362.23         26.6097
362.68        26.42264
363.13        26.24018
363.58        26.07353
364.03        25.94156
364.48        25.84606
364.93        25.78374
365.38        25.73678
365.83        25.67487
366.28        25.58929
366.73        25.48473
367.18        25.37394
367.63          25.279
368.08        25.20304
368.53        25.13716
368.98        25.06736
369.43        24.97078
369.88        24.84575
370.33        24.70684
370.78        24.56724
371.23        24.44801
371.68        24.35528
372.13        24.27532
372.58        24.21299
373.03        24.17762
373.48        24.15825
373.93        24.14395
374.38        24.09241
374.83        23.93679
375.28        23.67528
375.72        23.33824
376.17        22.99786
376.62        22.71171
377.07        22.49882
377.52         22.3377
377.97        22.24088
378.42        22.22756
378.87        22.28668
379.32        22.40595
379.77        22.51821
380.22        22.52419
380.67        22.40428
381.11        22.17953
381.56        21.91914
382.01        21.74214
382.46        21.68442
382.91        21.71888
383.36        21.77978
383.81        21.76453
384.26        21.65127
384.71        21.46937
385.15        21.28247
385.60         21.2163
386.05        21.27531
386.50        21.41044
386.95        21.52933
387.40        21.49228
387.85        21.28159
388.29        20.94913
388.74        20.60893
389.19        20.34684
389.64         20.1873
390.09        20.09299
390.54        20.05886
390.98        20.07471
391.43         20.1299
391.88        20.22025
392.33        20.29315
392.78        20.29231
393.23        20.21655
393.67        20.03978
394.12        19.83221
394.57        19.82936
395.02        19.75797
395.47        19.81909
395.91        19.89786
396.36        19.93299
396.81        19.91104
397.26        19.85781
397.71        19.78056
398.15        19.68042
398.60        19.59334
399.05         19.4757
399.50        19.35328
399.95        19.34958
400.39        19.36851
400.84        19.39354
401.29        19.37638
401.74        19.34921
402.18        19.30621
402.63        19.20549
403.08        19.09337
403.53         19.0556
403.97        19.10262
404.42        19.20822
404.87        19.30902
405.32        19.30375
405.76        19.16891
406.21        18.94724
406.66        18.71306
407.11        18.58409
407.55        18.59327
408.00        18.70328
408.45         18.8448
408.90        18.88997
409.34        18.80337
409.79        18.62676
410.24        18.44567
410.68        18.38738
411.13        18.47831
411.58        18.67345
412.03        18.88726
412.47        18.97799
412.92        18.89659
413.37        18.70406
413.81        18.47256
414.26        18.33553
414.71         18.3109
415.15        18.36316
415.60        18.44331
416.05        18.49222
416.49        18.48743
416.94        18.45232
417.39        18.39422
417.83        18.31842
418.28        18.23593
418.73        18.13751
419.17        18.04513
419.62        17.99745
420.07        18.00007
420.51        18.04451
420.96        18.09983
421.41         18.1054
421.85        18.04616
422.30        17.95898
422.74        17.87207
423.19        17.85773
423.64        17.92011
424.08        18.04398
424.53        18.18378
424.98        18.29091
425.42        18.34715
425.87        18.35031
426.31        18.31048
426.76        18.27446
427.21        18.19336
427.65        18.09197
428.10         17.9745
428.54        17.82801
428.99        17.67673
429.44        17.63713
429.88        17.66352
430.33        17.48165
430.77        17.19976
431.22        17.32508
431.66        17.80288
432.11        18.06164
432.56         18.0143
433.00        17.96871
433.45         17.9341
433.89        17.69559
434.34        17.39453
434.78        17.40737
435.23        17.66534
435.67        17.73219
436.12        17.58566
436.57        17.47009
437.01        17.42717
437.46        17.41797
437.90        17.44997
438.35        17.52668
438.79        17.61696
439.24        17.64178
439.68        17.61345
440.13        17.62448
440.57        17.64991
441.02        17.65338
441.46        17.63787
441.91        17.49134
442.35        17.29123
442.80        17.52276
443.24        18.02465
443.69         17.9293
444.13        17.32886
444.58        17.09836
445.02        17.24848
445.47        17.32133
445.91        17.27421
446.36        17.26509
446.80        17.28208
447.24        17.29456
447.69        17.30821
448.13        17.33061
448.58         17.3643
449.02        17.40203
449.47        17.45428
449.91        17.52626
450.36         17.6165
450.80        17.72002
451.25        17.80499
451.69        17.81804
452.13        17.75048
452.58        17.62634
453.02        17.48927
453.47        17.40744
453.91        17.39383
454.36        17.48088
454.80        17.54152
455.24        17.57265
455.69        17.53668
456.13        17.45218
456.58        17.36588
457.02        17.33231
457.46        17.36667
457.91        17.44591
458.35        17.52734
458.79        17.55731
459.24        17.53651
459.68        17.49429
460.13        17.46452
460.57           17.42
461.01        17.50385
461.46        17.52532
461.90        17.53702
462.34        17.72531
462.79        18.00208
463.23        17.98922
463.68        17.72341
464.12        17.59191
464.56        17.61701
465.01        17.61173
465.45        17.55826
465.89        17.50819
466.34        17.49142
466.78        17.57641
467.22        17.77526
467.67        17.81862
468.11        17.70353
468.55         17.5299
468.99        17.36748
469.44        17.27931
469.88        17.28799
470.32        17.38232
470.77        17.50684
471.21        17.58547
471.65        17.58962
472.10        17.54817
472.54        17.50064
472.98        17.52537
473.42        17.63428
473.87        17.79574
474.31        17.95122
474.75         18.0178
475.20        17.98488
475.64        17.87875
476.08        17.75302
476.52        17.68541
476.97        17.69667
477.41        17.75792
477.85        17.84812
478.29        17.93069
478.74        17.99665
479.18        18.04847
479.62        18.07626
480.06        18.10684
480.50        18.15308
480.95        18.04428
481.39        18.08252
481.83        18.13223
482.27        18.29442
482.72        18.40188
483.16        18.65894
483.60        18.77724
484.04        18.81257
484.48        18.77648
484.93        18.73148
485.37        18.79175
485.81        18.92038
486.25         19.0566
486.69        18.75164
487.14        18.97819
487.58        19.30201
488.02        19.44963
488.46        19.40151
488.90        19.73563
489.34         19.1771
489.79          19.175
490.23        19.34221
490.67        19.69574
491.11        20.09144
491.55         20.1061
491.99        19.83115
492.43        19.83749
492.88          20.152
493.32        20.40148
493.76        20.53701
494.20        20.68859
494.64        20.85368
495.08        20.99485
495.52        21.09418
495.96         21.1788
496.41        21.26128
496.85        21.21542
497.29        21.10573
497.73        21.40727
498.17        21.78879
498.61        21.90689
499.05         21.7038
499.49        21.65986
499.93         21.8115
500.37        21.96046
500.82        22.08064
501.26        22.18331
501.70        22.26037
502.14        22.34194
502.58        22.43661
503.02        22.52994
503.46        22.62395
503.90          22.727
504.34        22.83579
504.78        22.94058
505.22        23.03801
505.66        23.12585
506.10        23.19768
506.54        23.27144
506.98        23.35269
507.42        23.38947
507.86        23.36884
508.30        23.53558
508.74        23.46256
509.18        23.49918
509.62        23.52831
510.06        23.57732
510.50        23.64738
510.94         23.7389
511.38        23.84232
511.82        23.92863
512.26        23.99011
512.70        24.02993
513.14        24.05899
513.58        24.10258
514.02        24.16629
514.46        24.23046
514.90        24.27486
515.34        24.33453
515.78        24.29868
516.22        24.26214
516.66        24.21636
517.10        24.19867
517.54        24.21606
517.98        24.25906
518.42        24.30661
518.86        24.32144
519.30        24.29501
519.74        24.23957
520.18        24.17524
520.62        24.13183
521.06        24.11854
521.50        24.12857
521.93        24.14893
522.37        24.15145
522.81        24.13155
523.25        24.09408
523.69        24.05726
524.13        24.04873
524.57        24.07079
525.01        24.11234
525.45        24.14295
525.89        24.11464
526.32        24.01714
526.76        23.87642
527.20        23.72805
527.64        23.62736
528.08        23.58772
528.52        23.59194
528.96        23.61755
529.40        23.62826
529.83        23.61033
530.27        23.57709
530.71        23.53304
531.15        23.48848
531.59         23.4457
532.03         23.3969
532.46        23.34047
532.90        23.28366
533.34        23.22795
533.78        23.18104
534.22        23.13574
534.66        23.07848
535.09        23.00755
535.53        22.93164
535.97        22.87471
536.41        22.88176
536.85        22.95546
537.28        23.07689
537.72        23.19772
538.16        23.24351
538.60            23.2
539.04        23.09744
539.47        22.97231
539.91        22.90278
540.35        22.90396
540.79        22.95996
541.22        23.05874
541.66        23.18416
542.10        23.32261
542.54        23.47919
542.97        23.64331
543.41        23.80001
543.85        23.94391
544.29        24.07948
544.72        24.19814
545.16        24.30698
545.60        24.40825
546.04        24.49262
546.47        24.58349
546.91        24.75559
547.35         24.9957
547.79         25.2077
548.22        25.36453
548.66         25.5608
549.10        25.79861
549.53        25.94601
549.97        25.96642
550.41        26.33727
550.84         26.2731
551.28        26.37053
551.72        26.40774
552.15        26.63615
552.59        26.72718
553.03        26.93735
553.46        27.14665
553.90        27.31615
554.34        27.42897
554.77        27.52621
555.21        27.61699
555.65         27.6435
556.08        27.63823
556.52        27.73084
556.96        27.90359
557.39        28.06244
557.83        28.19219
558.27        28.28159
558.70        28.35872
559.14         28.5022
559.57        28.68862
560.01        28.86858
560.45         29.0085
560.88        28.97475
561.32        28.94901
561.75        28.96197
562.19        29.06159
562.63         29.0974
563.06         29.0786
563.50        29.14388
563.93        29.27518
564.37         29.3895
564.80        29.47148
565.24        29.56548
565.68        29.66578
566.11        29.77087
566.55        29.88114
566.98        29.95236
567.42        30.03321
567.85        30.13264
568.29         30.2427
568.72        30.49232
569.16        30.92155
569.60        30.76205
570.03        30.92661
570.47        31.39683
570.90        31.33584
571.34        31.35671
571.77        31.60602
572.21        31.74528
572.64        31.88369
573.08        31.98287
573.51        32.08614
573.95        32.25175
574.38        32.50717
574.82        32.55261
