SpectraSmart Spectrum 2.9.0.0
--------- Device Information -----------
Spectrum Name :  反射率_0
Saving Time :  2024/04/30 00:55:27
Spectro-Module Model Name : SE2030-DUVN
Spectro-Module Serial Number : OS361AC55029948
Wavelength Start : 200
Wavelength End : 1025
Wavelength Unit : Wavelength(nm)
Spectrum Unit : Reflectance(%)
-----------Spectrum Setting ------------
Integration Time : 20ms
Average : 10
Boxcar : 0
Background removal :  enabled
linearity correction :  enabled
SC :  disabled
Intensity correction :  disabled
DWT denoise :  enabled
savitzky-golay :  disabled
FFT :  disabled
Running average :  disabled
Kalman :  disabled
High pass :  disabled
---------------BEGIN--------------------
Wavelength(nm)             Reflectance(%)
200.29               0
200.75        44.00378
201.21        32.02233
201.67        19.94881
202.13        11.09458
202.58        7.265825
203.04        8.658107
203.50        16.25395
203.96        30.92114
204.42        50.80671
204.88        72.97419
205.34        89.41277
205.80         90.5666
206.26        79.34206
206.72        63.66522
207.18        48.97197
207.64        37.66451
208.10        28.76608
208.55        20.34047
209.01        13.49632
209.47        12.28944
209.93         16.8584
210.39        24.88145
210.85        31.91811
211.31        34.22198
211.77        31.56318
212.23         23.5899
212.69         12.0172
213.14        7.488758
213.60        14.70239
214.06        27.41234
214.52        38.00146
214.98         41.7415
215.44        39.64875
215.90        33.77591
216.36        26.72671
216.81        23.38666
217.27        26.43958
217.73        35.58237
218.19        49.96023
218.65        61.68559
219.11        64.31033
219.57        60.27805
220.02        54.66904
220.48        51.64461
220.94        50.97728
221.40        51.26439
221.86        51.34635
222.32        49.09202
222.77         44.7543
223.23        41.00637
223.69        38.20734
224.15        35.81583
224.61        33.43961
225.06        30.82888
225.52        28.64545
225.98        28.27767
226.44        29.82558
226.90        32.16252
227.36        34.37758
227.81        36.05249
228.27        37.30855
228.73        38.35862
229.19        39.12748
229.65          39.349
230.10        38.99953
230.56        38.29997
231.02        37.45267
231.48        36.60675
231.93        35.66805
232.39        34.65757
232.85         33.5474
233.31        32.40416
233.77        31.31227
234.22        30.39481
234.68        29.61599
235.14        28.91678
235.60        28.38731
236.05        28.09174
236.51        28.29456
236.97        29.32507
237.43        31.31142
237.88        34.46323
238.34        38.47508
238.80        42.16531
239.26         44.2696
239.71        44.70777
240.17        43.86538
240.63        42.87487
241.08        42.05799
241.54        40.98989
242.00        39.64191
242.46        38.68134
242.91        39.28884
243.37        41.70175
243.83        44.90388
244.28        47.69019
244.74        49.86301
245.20        51.53996
245.66        52.97651
246.11        54.67317
246.57        56.84224
247.03        59.57762
247.48        61.23692
247.94        58.53831
248.40        53.04179
248.85        47.30758
249.31        43.95389
249.77        43.77594
250.22        46.71796
250.68        53.61703
251.14        64.87924
251.59        73.05458
252.05         71.2169
252.51        64.33272
252.96        58.42447
253.42        56.19862
253.88        56.42422
254.33        57.84367
254.79        59.09111
255.25        57.36626
255.70        53.22728
256.16        49.16794
256.62        46.42083
257.07        45.54239
257.53         46.3236
257.99        47.98121
258.44        49.53313
258.90        50.22842
259.35        49.69777
259.81        48.77572
260.27        47.83031
260.72         47.1973
261.18        46.96425
261.63        46.72897
262.09        46.42784
262.55        45.74347
263.00        44.67877
263.46        43.58002
263.91         42.4517
264.37        41.50734
264.83        40.68993
265.28        39.87975
265.74         39.2212
266.19        38.74092
266.65         38.4804
267.11        38.37766
267.56         38.2537
268.02        37.83675
268.47        37.06672
268.93        36.03209
269.38        34.90491
269.84        34.10503
270.30        33.71943
270.75         33.6199
271.21        33.59506
271.66        33.31367
272.12        32.70361
272.57        31.85716
273.03        30.93159
273.48        30.09762
273.94        29.46903
274.39        28.94428
274.85         28.5132
275.31        28.10051
275.76        27.66261
276.22        27.24993
276.67         26.8244
277.13         26.4038
277.58        25.95368
278.04        25.50454
278.49        25.02959
278.95        24.57362
279.40        24.11156
279.86        23.70447
280.31        23.31824
280.77        23.00499
281.22        22.73896
281.68        22.53289
282.13        22.39207
282.59        22.36152
283.04        22.41332
283.50          22.514
283.95        22.57919
284.41        22.48654
284.86        22.21732
285.32        21.86175
285.77        21.46282
286.22        21.14539
286.68        20.95173
287.13        20.80766
287.59        20.75751
288.04        20.81529
288.50        20.97187
288.95        21.19141
289.41        21.37106
289.86        21.32183
290.32        21.04965
290.77        20.62319
291.22        20.19067
291.68         19.9883
292.13        20.06747
292.59        20.36634
293.04        20.83454
293.50        21.41594
293.95        22.07156
294.40         22.8257
294.86        23.58089
295.31        24.19966
295.77        24.65299
296.22        24.95411
296.68        25.24917
297.13        25.75611
297.58        26.52067
298.04         27.4458
298.49        28.36529
298.95        29.01222
299.40        29.33204
299.85        29.42487
300.31        29.44258
300.76        29.56086
301.21        29.85906
301.67        30.28188
302.12        30.74664
302.58        31.26796
303.03        31.81217
303.48        32.25457
303.94        32.56254
304.39        33.38436
304.84        33.53391
305.30        33.94569
305.75        34.25708
306.20        34.52618
306.66        34.75934
307.11        34.94874
307.57        35.09791
308.02        35.13385
308.47        35.07263
308.93        34.94515
309.38        34.80403
309.83        34.77979
310.29        34.89176
310.74        35.09447
311.19        35.28669
311.65        35.30346
312.10        35.10963
312.55        34.76341
313.00        34.37921
313.46        34.13514
313.91        34.06218
314.36        34.10734
314.82        34.17948
315.27        34.15266
315.72        33.97969
316.18         33.7132
316.63        33.39335
317.08        33.09181
317.53         32.8415
317.99        32.63077
318.44        32.44743
318.89        32.27956
319.35        32.12077
319.80        31.97309
320.25         31.8617
320.70         31.8236
321.16        31.84481
321.61        31.92076
322.06        31.96651
322.51        31.85643
322.97        31.56568
323.42        31.13901
323.87        30.67445
324.32        30.33232
324.78        30.14536
325.23         30.0878
325.68        30.07577
326.13        29.96829
326.59        29.72147
327.04        29.39234
327.49        29.04802
327.94         28.8084
328.39        28.69633
328.85        28.65063
329.30        28.62128
329.75        28.48098
330.20        28.19953
330.66        27.82863
331.11        27.41908
331.56         27.0224
332.01        26.66731
332.46        26.33313
332.92         26.0574
333.37        25.93636
333.82        25.97061
334.27        26.13889
334.72        26.32872
335.17        26.34629
335.63        26.14092
336.08        25.77184
336.53        25.33944
336.98        25.04005
337.43        24.93406
337.88        24.95743
338.34        25.04786
338.79        25.12589
339.24        25.14908
339.69        25.15621
340.14        25.12498
340.59        25.01415
341.05        24.83208
341.50        24.58474
341.95        24.35085
342.40        24.26696
342.85         24.3507
343.30        24.55046
343.75        24.76669
344.20        24.83664
344.66        24.72815
345.11        24.49272
345.56        24.18485
346.01        23.89156
346.46        23.65817
346.91         23.4617
347.36         23.3366
347.81        23.33539
348.26        23.45102
348.72        23.66464
349.17         23.8912
349.62        23.98133
350.07        23.89567
350.52        23.67568
350.97        23.39718
351.42        23.17951
351.87        23.06112
352.32        23.01638
352.77        23.01547
353.22         23.0092
353.67        22.98067
354.13        22.94168
354.58        22.91983
355.03        22.95659
355.48        23.04861
355.93        23.16935
356.38        23.25352
356.83        23.20748
357.28        23.02119
357.73        22.73453
358.18        22.42147
358.63        22.19824
359.08          22.094
359.53        22.06976
359.98        22.08624
360.43        22.07883
360.88        22.02245
361.33        21.93946
361.78        21.82235
362.23         21.6572
362.68        21.45198
363.13        21.21293
363.58        20.97859
364.03        20.81313
364.48        20.72932
364.93        20.70731
365.38        20.71665
365.83        20.70491
366.28        20.65373
366.73        20.57832
367.18        20.47915
367.63        20.35798
368.08        20.22055
368.53        20.06479
368.98        19.91434
369.43         19.8084
369.88        19.75776
370.33        19.75873
370.78        19.77994
371.23        19.76844
371.68        19.70623
372.13        19.59422
372.58        19.47066
373.03        19.40057
373.48        19.39006
373.93        19.41695
374.38        19.40539
374.83        19.23475
375.28        18.89746
375.72        18.44931
376.17        18.01619
376.62         17.7372
377.07        17.64254
377.52        17.68362
377.97        17.80601
378.42        17.91729
378.87         17.9775
379.32        18.00747
379.77        18.00518
380.22        17.97029
380.67        17.90452
381.11        17.79589
381.56        17.66291
382.01        17.54175
382.46        17.44719
382.91        17.38415
383.36        17.33133
383.81        17.24901
384.26        17.13403
384.71        16.99934
385.15        16.88167
385.60        16.86356
386.05         16.9397
386.50        17.07349
386.95        17.20097
387.40         17.2243
387.85        17.12652
388.29        16.93799
388.74         16.7268
389.19        16.52946
389.64        16.36283
390.09        16.20773
390.54        16.09259
390.98        16.06275
391.43        16.12345
391.88        16.25808
392.33        16.38755
392.78        16.41541
393.23        16.33076
393.67        16.12306
394.12        15.88766
394.57        15.86926
395.02        15.85567
395.47        15.99089
395.91        16.12391
396.36        16.10725
396.81        15.91788
397.26        15.61893
397.71        15.30409
398.15        15.09883
398.60        15.05152
399.05        15.08232
399.50         15.1395
399.95        15.21709
400.39        15.21576
400.84        15.15403
401.29        15.03433
401.74        14.95395
402.18         14.9307
402.63        14.90198
403.08        14.87809
403.53        14.88966
403.97        14.93358
404.42        15.00715
404.87        15.06048
405.32        15.01065
405.76        14.84471
406.21         14.5963
406.66        14.34932
407.11        14.23754
407.55        14.29251
408.00        14.47435
408.45        14.68983
408.90        14.76866
409.34        14.66331
409.79        14.42672
410.24        14.16877
410.68        14.05449
411.13        14.12187
411.58        14.31921
412.03        14.54647
412.47         14.6361
412.92        14.53373
413.37        14.30676
413.81        14.04976
414.26        13.92324
414.71        13.94908
415.15        14.08113
415.60        14.23758
416.05        14.30249
416.49        14.24175
416.94        14.09884
417.39        13.92575
417.83        13.79951
418.28        13.74891
418.73        13.74243
419.17        13.76348
419.62        13.78848
420.07         13.8047
420.51        13.82124
420.96        13.82863
421.41        13.80265
421.85         13.7387
422.30         13.6565
422.74        13.57047
423.19        13.52725
423.64        13.52842
424.08        13.56848
424.53        13.61969
424.98        13.65861
425.42        13.67628
425.87        13.66744
426.31        13.63347
426.76         13.6001
427.21        13.52632
427.65        13.43395
428.10        13.32835
428.54        13.19765
428.99        13.06408
429.44        13.02492
429.88        13.04457
430.33        12.90131
430.77        12.68168
431.22        12.79555
431.66        13.20195
432.11        13.41936
432.56        13.37248
433.00        13.35792
433.45         13.3608
433.89        13.06738
434.34        12.64146
434.78        12.58898
435.23          12.847
435.67          12.913
436.12        12.76511
436.57        12.68985
437.01        12.71942
437.46        12.77451
437.90        12.85193
438.35        12.96346
438.79        13.06755
439.24        13.07694
439.68        12.99915
440.13        12.91027
440.57        12.81916
441.02        12.75106
441.46         12.7213
441.91        12.63329
442.35        12.52164
442.80        12.70689
443.24        13.06562
443.69        12.98132
444.13        12.52588
444.58        12.33954
445.02        12.43218
445.47        12.46789
445.91        12.42608
446.36        12.43922
446.80        12.49782
447.24        12.57323
447.69         12.6438
448.13        12.67583
448.58        12.66474
449.02        12.62111
449.47        12.57823
449.91        12.58176
450.36        12.64114
450.80        12.73835
451.25        12.83855
451.69        12.88569
452.13        12.86441
452.58        12.79972
453.02        12.71316
453.47        12.63909
453.91        12.58648
454.36        12.58166
454.80        12.55702
455.24        12.54925
455.69        12.53894
456.13        12.52893
456.58         12.5246
457.02        12.51968
457.46        12.51685
457.91        12.51428
458.35        12.50924
458.79        12.50322
459.24        12.50541
459.68        12.52128
460.13        12.55447
460.57        12.55105
461.01        12.60715
461.46        12.59636
461.90        12.57394
462.34         12.6965
462.79        12.90741
463.23         12.9274
463.68        12.77124
464.12         12.7029
464.56        12.73302
465.01        12.73054
465.45        12.68546
465.89        12.63939
466.34        12.61532
466.78        12.66132
467.22        12.78345
467.67        12.78487
468.11        12.66554
468.55        12.50244
468.99        12.35447
469.44        12.27839
469.88        12.29259
470.32        12.38632
470.77        12.51351
471.21        12.61189
471.65        12.65473
472.10        12.66376
472.54        12.66354
472.98        12.70852
473.42        12.80612
473.87        12.93081
474.31        13.04452
474.75        13.09282
475.20        13.07066
475.64        12.99852
476.08        12.90972
476.52         12.8511
476.97        12.83814
477.41        12.85356
477.85        12.89773
478.29        12.96839
478.74        13.06125
479.18        13.16822
479.62        13.25951
480.06        13.32166
480.50        13.35604
480.95         13.2464
481.39        13.23107
481.83        13.24105
482.27        13.36084
482.72        13.45949
483.16        13.67599
483.60        13.79597
484.04        13.85797
484.48        13.83916
484.93        13.80211
485.37        13.94517
485.81        14.15139
486.25        14.26479
486.69        13.71217
487.14        13.89213
487.58        14.40981
488.02        14.79896
488.46        14.75333
488.90        15.37686
489.34        14.61822
489.79        14.67171
490.23        14.73572
490.67        15.01455
491.11         15.3302
491.55        15.38122
491.99        15.23778
492.43        15.31792
492.88        15.63736
493.32        15.89477
493.76        16.05309
494.20        16.23149
494.64        16.42918
495.08        16.60297
495.52        16.73899
495.96        16.86505
496.41        16.99048
496.85        17.01418
497.29         16.9791
497.73        17.25543
498.17        17.57638
498.61        17.66816
499.05        17.50088
499.49         17.4882
499.93        17.66468
500.37        17.86348
500.82        18.04091
501.26        18.16994
501.70        18.23661
502.14        18.27785
502.58        18.32487
503.02        18.40456
503.46        18.52792
503.90        18.68852
504.34        18.86444
504.78        19.01583
505.22        19.12864
505.66        19.21004
506.10        19.26366
506.54        19.31869
506.98        19.38573
507.42        19.41771
507.86        19.40177
508.30        19.53891
508.74        19.47388
509.18        19.49814
509.62         19.5193
510.06        19.56615
510.50        19.64026
510.94        19.74105
511.38        19.84948
511.82        19.92308
512.26        19.95266
512.70        19.94736
513.14         19.9362
513.58        19.96568
514.02        20.04514
514.46        20.15999
514.90        20.27595
515.34        20.33741
515.78        20.33054
516.22        20.27212
516.66        20.19777
517.10        20.16308
517.54        20.18051
517.98        20.23157
518.42        20.28378
518.86        20.28526
519.30        20.22441
519.74         20.1218
520.18        20.00691
520.62        19.92192
521.06        19.88113
521.50        19.87584
521.93        19.89152
522.37        19.89849
522.81        19.88976
523.25        19.86935
523.69        19.85446
524.13        19.87197
524.57        19.92073
525.01        19.98473
525.45        20.02657
525.89        19.98923
526.32        19.86086
526.76         19.6703
527.20        19.45782
527.64        19.28432
528.08        19.16918
528.52        19.10013
528.96        19.06082
529.40        19.02324
529.83        18.97669
530.27         18.9307
530.71        18.89276
531.15        18.87599
531.59        18.87883
532.03        18.89025
532.46         18.8892
532.90        18.85186
533.34        18.77539
533.78        18.67571
534.22        18.57248
534.66        18.49409
535.09        18.44821
535.53        18.43132
535.97         18.4417
536.41        18.48169
536.85        18.54306
537.28        18.61888
537.72        18.68631
538.16        18.71196
538.60        18.68993
539.04        18.63632
539.47        18.56018
539.91        18.49517
540.35        18.45047
540.79        18.42693
541.22        18.44257
541.66        18.52752
542.10        18.67985
542.54        18.88824
542.97        19.12048
543.41        19.32602
543.85        19.49078
544.29        19.63105
544.72        19.74931
545.16        19.86789
545.60        19.99343
546.04        20.10898
546.47        20.23657
546.91        20.44339
547.35        20.71643
547.79        20.97594
548.22         21.1821
548.66        21.38743
549.10         21.5924
549.53        21.69492
549.97        21.69191
550.41        22.02616
550.84        22.05016
551.28        22.24866
551.72         22.4057
552.15        22.68853
552.59        22.80583
553.03        22.98903
553.46        23.15906
553.90        23.31871
554.34        23.46245
554.77        23.61372
555.21        23.76061
555.65         23.8212
556.08        23.81652
556.52        23.87076
556.96         23.9897
557.39        24.12423
557.83        24.26764
558.27         24.3982
558.70        24.52144
559.14        24.67534
559.57        24.83337
560.01        24.96524
560.45        25.05432
560.88        25.00567
561.32        24.98275
561.75        24.99683
562.19        25.09155
562.63        25.16059
563.06        25.20217
563.50        25.28637
563.93        25.39507
564.37        25.50987
564.80        25.62331
565.24        25.66106
565.68        25.78238
566.11        25.87615
566.55        25.99382
566.98        26.08815
567.42        26.20166
567.85        26.34724
568.29        26.52731
568.72        26.80959
569.16        27.21282
569.60        27.16583
570.03        27.49161
570.47        27.62532
570.90        27.81936
571.34        27.72594
571.77        28.02616
572.21        28.12724
572.64        28.17128
573.08        28.42253
573.51         28.4366
573.95         28.4572
574.38        28.64166
574.82        28.80963
