SpectraSmart Spectrum 2.9.0.0
--------- Device Information -----------
Spectrum Name :  反射率_0
Saving Time :  2024/04/30 01:12:39
Spectro-Module Model Name : SE2030-DUVN
Spectro-Module Serial Number : OS361AC55029948
Wavelength Start : 200
Wavelength End : 1025
Wavelength Unit : Wavelength(nm)
Spectrum Unit : Reflectance(%)
-----------Spectrum Setting ------------
Integration Time : 20ms
Average : 10
Boxcar : 0
Background removal :  enabled
linearity correction :  enabled
SC :  disabled
Intensity correction :  disabled
DWT denoise :  enabled
savitzky-golay :  disabled
FFT :  disabled
Running average :  disabled
Kalman :  disabled
High pass :  disabled
---------------BEGIN--------------------
Wavelength(nm)             Reflectance(%)
200.29               0
200.75        83.51083
201.21        70.03691
201.67        55.70727
202.13        49.26601
202.58         54.5741
203.04        70.31939
203.50        92.81095
203.96        113.0415
204.42        124.9331
204.88        128.5463
205.34        123.8776
205.80        113.9413
206.26        102.9683
206.72        92.73951
207.18        84.07104
207.64        76.41131
208.10        68.85258
208.55        60.79964
209.01        53.50873
209.47        51.21217
209.93        54.52848
210.39         61.1736
210.85        67.03081
211.31        68.63609
211.77        65.65823
212.23        57.65987
212.69        46.68147
213.14        43.69305
213.60        52.82259
214.06        67.53581
214.52        79.46358
214.98        83.53957
215.44        81.13007
215.90        74.43969
216.36        67.18401
216.81        66.51685
217.27        76.21892
217.73        97.14731
218.19        127.5826
218.65        151.3146
219.11        155.7213
219.57        145.5648
220.02        133.1747
220.48        129.1762
220.94        133.2832
221.40        143.4732
221.86        155.9989
222.32        157.9955
222.77        146.3291
223.23        132.0378
223.69        121.1917
224.15        115.8643
224.61        114.8958
225.06        116.8403
225.52        121.2206
225.98        126.2272
226.44        130.0217
226.90         132.453
227.36        134.2711
227.81        136.4207
228.27        139.4411
228.73        142.8663
229.19        145.4008
229.65         144.484
230.10        140.2549
230.56        135.3875
231.02        131.3512
231.48         129.356
231.93        129.1259
232.39        130.0951
232.85        132.2261
233.31        135.6019
233.77        139.8976
234.22        145.3232
234.68        149.9379
235.14        150.5412
235.60        146.5772
236.05        138.9648
236.51        131.0768
236.97        127.2022
237.43        128.2316
237.88        134.1824
238.34        142.6054
238.80        146.8527
239.26        142.9163
239.71        132.9065
240.17        121.3418
240.63        113.9356
241.08        112.0688
241.54        114.8296
242.00        122.9127
242.46        132.3989
242.91        137.2799
243.37        136.2949
243.83        132.8318
244.28        131.9818
244.74        134.4677
245.20        137.7673
245.66        141.1405
246.11        143.5034
246.57        143.4239
247.03         142.859
247.48         138.005
247.94        123.2295
248.40        104.5655
248.85        88.02821
249.31        78.28353
249.77         75.8119
250.22        79.57631
250.68         90.3267
251.14        108.7159
251.59        122.2315
252.05        119.5795
252.51        109.5113
252.96        100.9513
253.42        98.21245
253.88        99.74003
254.33         103.711
254.79        109.2719
255.25        113.2747
255.70        114.1991
256.16         114.181
256.62        114.1622
257.07        114.8084
257.53        116.7183
257.99        119.1341
258.44        120.8371
258.90        121.1545
259.35        119.6352
259.81        117.8046
260.27        116.2625
260.72        115.5666
261.18        115.9917
261.63         116.558
262.09        117.0023
262.55        116.3074
263.00        114.3987
263.46        112.2256
263.91        109.9254
264.37        108.3239
264.83        107.2813
265.28        106.4782
265.74        105.9876
266.19        105.5057
266.65        105.0968
267.11        104.7291
267.56        104.3071
268.02        103.7979
268.47        103.1027
268.93        102.2429
269.38        101.2079
269.84        100.1266
270.30        99.04572
270.75        97.93023
271.21        96.83468
271.66        95.67348
272.12        94.46922
272.57        93.17838
273.03        91.84043
273.48        90.37119
273.94        88.90418
274.39        87.38054
274.85        85.98152
275.31        84.72513
275.76        83.55801
276.22        82.55492
276.67        81.56268
277.13        80.61642
277.58        79.59541
278.04         78.6204
278.49        77.60087
278.95        76.64829
279.40          75.675
279.86        74.78671
280.31        73.89113
280.77        73.09969
281.22        72.31938
281.68        71.59433
282.13         70.8658
282.59        70.23096
283.04        69.59267
283.50        68.97204
283.95        68.19008
284.41         67.0898
284.86        65.64639
285.32        64.05057
285.77        62.45028
286.22        61.18815
286.68        60.34498
287.13        59.76786
287.59        59.38236
288.04        58.95885
288.50        58.47112
288.95         57.9085
289.41        57.34161
289.86        56.76766
290.32        56.22829
290.77        55.68316
291.22        55.09772
291.68        54.43018
292.13        53.67771
292.59        52.92326
293.04        52.28404
293.50        51.99087
293.95        52.04014
294.40        52.36846
294.86        52.77702
295.31        52.96955
295.77        52.86921
296.22        52.54288
296.68        52.15391
297.13        51.93057
297.58        51.94535
298.04        52.10443
298.49         52.2876
298.95        52.32458
299.40        52.16305
299.85        51.87756
300.31        51.57374
300.76        51.32677
301.21        51.19543
301.67        51.16117
302.12        51.13954
302.58        51.15593
303.03        51.17466
303.48        51.12023
303.94        51.00482
304.39         51.3318
304.84        51.24751
305.30        51.42347
305.75        51.54131
306.20        51.59294
306.66        51.57858
307.11        51.48964
307.57        51.36886
308.02        51.17353
308.47        50.93275
308.93        50.66444
309.38        50.38409
309.83        50.18269
310.29        50.07754
310.74        50.03487
311.19        49.99955
311.65        49.87096
312.10        49.62297
312.55         49.3026
313.00         48.9756
313.46        48.74421
313.91        48.61875
314.36        48.55952
314.82        48.53297
315.27        48.51144
315.72        48.45936
316.18        48.39277
316.63        48.25691
317.08        47.97601
317.53        47.55774
317.99        47.04643
318.44        46.53288
318.89        46.17017
319.35         45.9949
319.80        45.95891
320.25        46.01951
320.70        46.10204
321.16        46.15173
321.61        46.20543
322.06        46.19932
322.51        46.04493
322.97         45.7348
323.42         45.2993
323.87        44.83745
324.32        44.52007
324.78         44.3771
325.23        44.38973
325.68        44.46392
326.13        44.43904
326.59        44.25798
327.04        43.97994
327.49        43.67126
327.94        43.46014
328.39        43.37283
328.85        43.34572
329.30        43.32848
329.75        43.16457
330.20        42.82728
330.66         42.3809
331.11        41.93174
331.56        41.60717
332.01        41.45377
332.46        41.43227
332.92        41.50978
333.37        41.67993
333.82        41.89679
334.27        42.15876
334.72        42.40658
335.17         42.5468
335.63         42.5452
336.08        42.42777
336.53         42.2331
336.98         42.0649
337.43        41.96157
337.88         41.9075
338.34        41.87196
338.79        41.82058
339.24        41.73806
339.69        41.64956
340.14        41.58008
340.59        41.56426
341.05         41.6119
341.50        41.70441
341.95        41.81181
342.40        41.89969
342.85        41.95173
343.30        41.96395
343.75        41.94708
344.20        41.92243
344.66        41.90744
345.11         41.8992
345.56        41.86902
346.01        41.76726
346.46        41.60147
346.91        41.39612
347.36         41.2415
347.81        41.27205
348.26        41.49851
348.72        41.86155
349.17        42.24669
349.62         42.4473
350.07        42.40635
350.52        42.19529
350.97         41.8985
351.42        41.64482
351.87         41.4846
352.32        41.38463
352.77        41.35386
353.22        41.40876
353.67         41.5322
354.13        41.70574
354.58        41.87806
355.03         41.9612
355.48        41.92494
355.93        41.79067
356.38        41.55949
356.83        41.23941
357.28        40.85637
357.73        40.42453
358.18         40.0123
358.63        39.72598
359.08        39.58125
359.53        39.53968
359.98        39.53746
360.43        39.46729
360.88        39.29328
361.33        39.04721
361.78        38.73335
362.23        38.36184
362.68        37.95363
363.13        37.51286
363.58        37.09454
364.03         36.7856
364.48        36.60356
364.93          36.528
365.38        36.50498
365.83        36.44135
366.28         36.3077
366.73        36.12383
367.18        35.91584
367.63        35.72905
368.08        35.57249
368.53        35.42442
368.98        35.26734
369.43        35.07583
369.88        34.84914
370.33        34.61075
370.78        34.37158
371.23        34.14647
371.68        33.94289
372.13        33.74697
372.58        33.58375
373.03         33.4938
373.48        33.46877
373.93        33.48855
374.38        33.47128
374.83         33.2855
375.28        32.91885
375.72        32.42177
376.17        31.92252
376.62        31.54707
377.07        31.32671
377.52        31.21481
377.97        31.18676
378.42        31.20002
378.87        31.22657
379.32        31.27684
379.77        31.30375
380.22         31.2376
380.67        31.06488
381.11        30.78883
381.56         30.4791
382.01        30.26014
382.46        30.16637
382.91        30.17779
383.36        30.20126
383.81        30.08781
384.26        29.81709
384.71        29.43984
385.15        29.07722
385.60        28.94949
386.05        29.07347
386.50         29.3606
386.95        29.66084
387.40        29.74293
387.85        29.56121
388.29        29.19278
388.74        28.77833
389.19        28.42104
389.64        28.15784
390.09        27.94267
390.54        27.79823
390.98        27.76154
391.43        27.83442
391.88        27.99933
392.33        28.15669
392.78        28.18897
393.23        28.08496
393.67        27.81759
394.12          27.503
394.57        27.49639
395.02        27.42213
395.47        27.54881
395.91        27.68612
396.36        27.70283
396.81        27.57277
397.26        27.35247
397.71         27.0987
398.15        26.87907
398.60        26.75283
399.05        26.64155
399.50        26.53895
399.95        26.55375
400.39        26.54242
400.84        26.50003
401.29        26.39775
401.74        26.34453
402.18        26.34899
402.63        26.32897
403.08        26.30532
403.53        26.33442
403.97        26.41282
404.42        26.52118
404.87        26.59957
405.32        26.55253
405.76        26.36352
406.21         26.0822
406.66        25.78728
407.11        25.60384
407.55        25.57101
408.00        25.64881
408.45        25.78421
408.90        25.87185
409.34        25.87381
409.79        25.81727
410.24        25.75007
410.68        25.74555
411.13        25.81729
411.58        25.93135
412.03        26.03033
412.47         26.0281
412.92         25.8936
413.37         25.6768
413.81        25.42879
414.26        25.25592
414.71        25.16761
415.15        25.14398
415.60        25.15161
416.05        25.15803
416.49        25.15172
416.94        25.14834
417.39        25.14369
417.83        25.12449
418.28        25.09384
418.73        25.04198
419.17        24.99962
419.62        25.02275
420.07        25.11333
420.51        25.24905
420.96        25.37232
421.41        25.38028
421.85        25.25058
422.30        25.04443
422.74        24.81785
423.19        24.69135
423.64        24.67929
424.08        24.76128
424.53        24.87583
424.98         24.9528
425.42        24.97212
425.87         24.9389
426.31        24.87932
426.76        24.87076
427.21        24.84519
427.65         24.8222
428.10        24.78362
428.54         24.6769
428.99        24.51363
429.44        24.46799
429.88        24.48797
430.33         24.1734
430.77        23.71478
431.22        23.90351
431.66        24.61446
432.11        24.97369
432.56        24.86185
433.00        24.56638
433.45        24.21223
433.89         24.1882
434.34        24.45412
434.78         24.4274
435.23        24.12647
435.67        23.99814
436.12        24.05999
436.57        24.03279
437.01        23.94405
437.46        23.96065
437.90        24.08532
438.35        24.26673
438.79        24.44164
439.24        24.47134
439.68        24.36533
440.13          24.267
440.57        24.18824
441.02        24.12115
441.46        24.07946
441.91        23.97297
442.35        23.83773
442.80        24.07108
443.24        24.51968
443.69        24.43806
444.13         23.8947
444.58        23.64815
445.02        23.70518
445.47        23.66805
445.91        23.53993
446.36        23.52457
446.80        23.61546
447.24        23.76413
447.69        23.91785
448.13        23.98863
448.58        23.96204
449.02        23.86267
449.47        23.75004
449.91        23.70448
450.36        23.74916
450.80        23.85244
451.25        23.97082
451.69        24.02837
452.13        24.00601
452.58        23.94152
453.02         23.8613
453.47        23.80119
453.91        23.76969
454.36        23.82107
454.80        23.83221
455.24        23.88401
455.69        23.93897
456.13        23.99231
456.58         24.0443
457.02        24.07301
457.46        24.07895
457.91        24.06503
458.35        24.02688
458.79        23.97448
459.24        23.92705
459.68        23.89882
460.13        23.89793
460.57        23.83134
461.01        23.88123
461.46        23.81372
461.90        23.72779
462.34        23.91735
462.79        24.27515
463.23        24.27526
463.68        23.95571
464.12        23.82085
464.56         23.8926
465.01         23.9227
465.45        23.88005
465.89        23.82461
466.34        23.79645
466.78         23.8873
467.22         24.1264
467.67        24.17283
468.11        24.02838
468.55        23.82172
468.99         23.6243
469.44        23.48545
469.88        23.42945
470.32        23.45194
470.77        23.50716
471.21        23.53442
471.65        23.51064
472.10        23.46564
472.54         23.4276
472.98        23.45959
473.42        23.56805
473.87        23.72057
474.31        23.87077
474.75        23.96005
475.20        23.97817
475.64        23.93905
476.08        23.86397
476.52        23.77972
476.97        23.70239
477.41         23.6248
477.85        23.57066
478.29        23.57533
478.74        23.65025
479.18        23.76873
479.62        23.89166
480.06        24.01223
480.50        24.13035
480.95        24.03247
481.39        24.10775
481.83        24.15276
482.27          24.298
482.72        24.31808
483.16        24.52302
483.60        24.59579
484.04        24.62673
484.48        24.62267
484.93        24.60099
485.37        24.61693
485.81        24.67282
486.25        24.60268
486.69        24.35103
487.14        24.59573
487.58        24.90128
488.02        24.94578
488.46        25.06406
488.90        25.48789
489.34        24.93165
489.79        24.96866
490.23        25.15553
490.67        25.41848
491.11        25.64009
491.55        25.54559
491.99         25.2474
492.43        25.22518
492.88        25.51299
493.32        25.81662
493.76        26.05915
494.20        26.28473
494.64         26.4707
495.08        26.59202
495.52        26.66513
495.96        26.75255
496.41        26.86892
496.85        26.94422
497.29        26.96459
497.73         27.1417
498.17        27.14667
498.61         27.1788
499.05        27.15479
499.49          27.125
499.93        27.11891
500.37        27.19981
500.82        27.35635
501.26        27.49135
501.70        27.59135
502.14        27.71189
502.58        27.85111
503.02        27.97675
503.46        28.08602
503.90        28.18724
504.34        28.27384
504.78        28.33764
505.22        28.37893
505.66         28.3937
506.10        28.39538
506.54        28.43893
506.98        28.53687
507.42        28.61988
507.86        28.64018
508.30        28.84439
508.74        28.69773
509.18        28.64278
509.62        28.57476
510.06        28.58883
510.50          28.699
510.94        28.88582
511.38        29.09592
511.82        29.22573
512.26        29.24784
512.70        29.18852
513.14        29.10307
513.58        29.07754
514.02        29.13367
514.46        29.24771
514.90        29.36732
515.34        29.40865
515.78        29.35364
516.22        29.23101
516.66        29.10523
517.10        29.07417
517.54        29.15678
517.98        29.31929
518.42        29.49147
518.86        29.56118
519.30        29.50207
519.74        29.35214
520.18        29.17638
520.62        29.07339
521.06        29.07098
521.50        29.14194
521.93        29.24467
522.37        29.30143
522.81        29.29408
523.25        29.24446
523.69        29.18975
524.13        29.18634
524.57        29.24132
525.01        29.32651
525.45        29.39887
525.89        29.39247
526.32        29.28989
526.76        29.12959
527.20        28.94281
527.64        28.77687
528.08        28.65112
528.52        28.55416
528.96        28.49322
529.40        28.47885
529.83        28.50406
530.27        28.56659
530.71        28.63414
531.15        28.65818
531.59        28.62423
532.03        28.53963
532.46        28.42425
532.90        28.32368
533.34        28.25071
533.78        28.20192
534.22        28.16021
534.66        28.09731
535.09        28.00839
535.53        27.91186
535.97        27.83957
536.41        27.84745
536.85        27.94033
537.28        28.09275
537.72        28.24929
538.16        28.32491
538.60        28.29994
539.04        28.20478
539.47        28.07564
539.91        27.99498
540.35        27.97791
540.79        28.00955
541.22        28.07579
541.66        28.15841
542.10        28.24638
542.54        28.34947
542.97        28.46653
543.41        28.59769
543.85        28.73875
544.29        28.88917
544.72         29.0277
545.16        29.14411
545.60        29.23406
546.04         29.2892
546.47        29.34045
546.91          29.482
547.35        29.70356
547.79        29.89516
548.22        30.02329
548.66        30.19783
549.10        30.42035
549.53        30.53153
549.97        30.50675
550.41        30.93655
550.84        30.89776
551.28        31.07957
551.72         31.1747
552.15        31.40768
552.59        31.38353
553.03        31.43394
553.46         31.4758
553.90        31.55303
554.34        31.66768
554.77        31.83918
555.21        32.04084
555.65        32.14495
556.08        32.16612
556.52        32.26999
556.96        32.44596
557.39        32.59912
557.83        32.71788
558.27        32.78391
558.70        32.82485
559.14        32.92764
559.57         33.0672
560.01         33.1939
560.45        33.28782
560.88        33.21112
561.32        33.17227
561.75        33.22554
562.19        33.39942
562.63        33.41617
563.06        33.30893
563.50        33.38951
563.93        33.61992
564.37        33.75892
564.80        33.78381
565.24        33.82497
565.68        33.89385
566.11         33.9811
566.55          34.092
566.98        34.17887
567.42        34.27137
567.85        34.35225
568.29         34.4256
568.72        34.58503
569.16        34.89022
569.60        34.70641
570.03        35.10944
570.47        35.28687
570.90        35.49875
571.34        35.56305
571.77        35.71678
572.21        35.73292
572.64        35.71129
573.08        35.83968
573.51        36.12684
573.95         36.0854
574.38        36.51042
574.82        36.25209
