SpectraSmart Spectrum 2.9.0.0
--------- Device Information -----------
Spectrum Name :  反射率_0
Saving Time :  2024/04/30 01:02:20
Spectro-Module Model Name : SE2030-DUVN
Spectro-Module Serial Number : OS361AC55029948
Wavelength Start : 200
Wavelength End : 1025
Wavelength Unit : Wavelength(nm)
Spectrum Unit : Reflectance(%)
-----------Spectrum Setting ------------
Integration Time : 20ms
Average : 10
Boxcar : 0
Background removal :  enabled
linearity correction :  enabled
SC :  disabled
Intensity correction :  disabled
DWT denoise :  enabled
savitzky-golay :  disabled
FFT :  disabled
Running average :  disabled
Kalman :  disabled
High pass :  disabled
---------------BEGIN--------------------
Wavelength(nm)             Reflectance(%)
200.29               0
200.75        58.01081
201.21        42.01974
201.67        23.96885
202.13        11.59794
202.58         8.40536
203.04        13.75721
203.50        25.22518
203.96        36.47777
204.42        43.57182
204.88        47.02907
205.34          47.672
205.80        47.40605
206.26         47.0013
206.72        46.16757
207.18        44.14211
207.64        40.00517
208.10        33.81235
208.55        25.68925
209.01        17.76704
209.47        15.85243
209.93        20.71492
210.39        29.09105
210.85        36.50962
211.31        39.42921
211.77         37.6551
212.23        31.18291
212.69        21.23077
213.14        16.19374
213.60        20.32949
214.06        29.32011
214.52        37.15754
214.98        39.88029
215.44        38.27911
215.90        34.08462
216.36        29.74507
216.81         29.8925
217.27        37.05462
217.73        51.22006
218.19         71.2254
218.65        86.64526
219.11        89.02672
219.57        81.70324
220.02        71.55204
220.48        63.55948
220.94        56.80847
221.40        48.72677
221.86        38.95369
222.32        31.20822
222.77        28.57181
223.23        30.20586
223.69        32.08409
224.15        31.09403
224.61        27.25209
225.06        21.04055
225.52        14.78837
225.98        13.68665
226.44        18.21057
226.90        24.80557
227.36        30.28158
227.81        32.70875
228.27        32.45111
228.73        30.40451
229.19        27.58364
229.65        26.13276
230.10        26.65828
230.56        28.05688
231.02        29.35984
231.48        29.76187
231.93        29.18494
232.39        28.05097
232.85        26.65627
233.31        25.55851
233.77        25.00982
234.22        24.94501
234.68        25.10394
235.14        25.02811
235.60        24.66989
236.05        24.22924
236.51        24.22462
236.97        25.35012
237.43        27.85009
237.88        31.91372
238.34        37.14378
238.80        41.75986
239.26        44.11605
239.71        44.35286
240.17        43.19207
240.63        42.30377
241.08        42.29225
241.54        42.75067
242.00        44.56026
242.46        49.61637
242.91        58.18209
243.37        68.26938
243.83        75.76594
244.28        78.28216
244.74        76.14803
245.20        68.93372
245.66        59.16062
246.11        53.77419
246.57        56.68707
247.03        67.53783
247.48        81.54224
247.94        86.24483
248.40        80.31651
248.85        70.14333
249.31        62.66721
249.77        61.04903
250.22        65.05693
250.68        75.05209
251.14        89.52386
251.59        93.56413
252.05        80.53012
252.51        63.64732
252.96        52.17237
253.42        48.25744
253.88          49.336
254.33        53.27009
254.79         58.3784
255.25        60.43474
255.70        58.70241
256.16         56.0186
256.62        53.62089
257.07        52.11971
257.53        51.62498
257.99        51.43644
258.44        51.29199
258.90        51.51349
259.35          51.618
259.81        51.83547
260.27         51.8007
260.72        51.21864
261.18        50.31901
261.63        49.01863
262.09        47.69584
262.55        46.56824
263.00        45.63043
263.46        44.94436
263.91        44.17946
264.37        43.18182
264.83         41.8787
265.28        40.32405
265.74        38.87614
266.19        37.87745
266.65        37.44695
267.11        37.40775
267.56        37.44324
268.02        37.09232
268.47        36.24378
268.93        35.04011
269.38        33.72609
269.84        32.83981
270.30        32.49369
270.75        32.50601
271.21        32.57194
271.66         32.2382
272.12        31.41575
272.57        30.24889
273.03        28.99599
273.48        27.98384
273.94        27.36272
274.39        26.98361
274.85        26.74221
275.31        26.43936
275.76        26.00485
276.22         25.5199
276.67        25.01944
277.13        24.61813
277.58        24.29426
278.04        24.03875
278.49        23.73591
278.95        23.30406
279.40        22.70964
279.86        22.06106
280.31        21.44164
280.77        21.07056
281.22        20.94592
281.68        21.01303
282.13        21.15565
282.59        21.24508
283.04         21.2288
283.50        21.13358
283.95        20.97863
284.41         20.7963
284.86        20.59764
285.32         20.4088
285.77        20.19138
286.22        19.95217
286.68        19.71421
287.13        19.45797
287.59         19.2756
288.04        19.25405
288.50        19.40315
288.95        19.65271
289.41        19.89733
289.86        19.95055
290.32        19.80759
290.77        19.54489
291.22        19.25727
291.68        19.09127
292.13        19.09342
292.59        19.23447
293.04        19.55713
293.50        20.14593
293.95        20.98192
294.40        22.03308
294.86        23.11738
295.31        23.95989
295.77        24.49165
296.22        24.77384
296.68        24.98415
297.13        25.39212
297.58        26.07092
298.04        26.90512
298.49        27.76092
298.95        28.42481
299.40        28.84087
299.85         29.0908
300.31        29.26235
300.76        29.42805
301.21        29.65023
301.67        29.91277
302.12        30.18568
302.58        30.56496
303.03        31.04309
303.48        31.46905
303.94        31.80121
304.39        32.68176
304.84        32.90177
305.30        33.41247
305.75        33.82615
306.20        34.16515
306.66         34.4272
307.11         34.6059
307.57        34.73409
308.02        34.78752
308.47        34.78826
308.93        34.75329
309.38        34.69441
309.83        34.67665
310.29        34.71237
310.74        34.78518
311.19        34.84574
311.65        34.80798
312.10        34.65236
312.55         34.4051
313.00        34.14248
313.46        33.98398
313.91        33.93836
314.36        33.96803
314.82        33.98423
315.27         33.8653
315.72        33.57401
316.18        33.16631
316.63        32.70127
317.08        32.28186
317.53        31.95104
317.99        31.69187
318.44        31.48793
318.89        31.31631
319.35        31.16067
319.80        31.02023
320.25        30.90327
320.70        30.82106
321.16        30.75357
321.61        30.70097
322.06        30.59332
322.51        30.33429
322.97        29.91414
323.42         29.3769
323.87        28.82007
324.32        28.39842
324.78        28.14037
325.23        28.01778
325.68        27.94875
326.13        27.79476
326.59        27.50965
327.04        27.14742
327.49        26.75464
327.94        26.41826
328.39        26.15664
328.85        25.91973
329.30        25.69587
329.75        25.43107
330.20        25.11866
330.66        24.79594
331.11        24.47022
331.56        24.12114
332.01        23.75545
332.46        23.36746
332.92        23.02852
333.37        22.89185
333.82        22.97131
334.27        23.21781
334.72        23.47606
335.17        23.48544
335.63        23.17702
336.08         22.6326
336.53         21.9844
336.98         21.4801
337.43        21.20668
337.88        21.09522
338.34        21.08618
338.79        21.09927
339.24        21.08838
339.69        21.09301
340.14        21.08248
340.59        21.00008
341.05        20.84038
341.50        20.59794
341.95        20.34409
342.40        20.20848
342.85        20.20887
343.30        20.30393
343.75        20.38826
344.20        20.29023
344.66        19.98864
345.11        19.54533
345.56        19.06817
346.01         18.7255
346.46         18.5704
346.91        18.54712
347.36         18.6118
347.81        18.69988
348.26        18.77558
348.72         18.8502
349.17        18.89066
349.62        18.84356
350.07        18.70238
350.52         18.4838
350.97         18.2291
351.42        18.00343
351.87        17.83464
352.32         17.7216
352.77        17.66558
353.22        17.66294
353.67        17.70424
354.13        17.77652
354.58        17.87709
355.03        18.00303
355.48        18.13453
355.93        18.25798
356.38        18.31292
356.83        18.21406
357.28        17.96067
357.73        17.59288
358.18        17.20247
358.63        16.93457
359.08        16.82274
359.53        16.81961
359.98        16.86993
360.43        16.87964
360.88        16.81715
361.33        16.71948
361.78        16.58112
362.23        16.39134
362.68        16.16472
363.13        15.90441
363.58        15.67369
364.03        15.57774
364.48        15.62906
364.93        15.78847
365.38        15.97747
365.83        16.06586
366.28        16.01628
366.73        15.86884
367.18        15.65873
367.63        15.44467
368.08        15.25348
368.53        15.06805
368.98        14.90993
369.43        14.81468
369.88        14.78568
370.33        14.81979
370.78        14.87178
371.23        14.86209
371.68        14.76766
372.13        14.60026
372.58        14.40467
373.03        14.25802
373.48        14.17771
373.93        14.14263
374.38        14.10244
374.83        13.97556
375.28         13.7548
375.72        13.47709
376.17        13.22135
376.62         13.0689
377.07        13.03316
377.52        13.07609
377.97        13.16309
378.42        13.23646
378.87        13.27267
379.32        13.29318
379.77        13.28216
380.22         13.2173
380.67        13.10137
381.11        12.93074
381.56        12.77011
382.01        12.72511
382.46        12.81472
382.91        13.01336
383.36        13.21747
383.81        13.26719
384.26        13.13484
384.71        12.86587
385.15        12.57757
385.60         12.4782
386.05        12.59571
386.50        12.86127
386.95        13.13897
387.40        13.21735
387.85         13.0596
388.29        12.74201
388.74        12.40986
389.19        12.21366
389.64        12.18778
390.09        12.27631
390.54        12.42099
390.98        12.52568
391.43         12.5595
391.88        12.55289
392.33        12.52343
392.78        12.50583
393.23        12.50813
393.67        12.48187
394.12        12.43417
394.57        12.46014
395.02        12.37732
395.47         12.3354
395.91        12.28006
396.36        12.20109
396.81        12.10774
397.26        12.00727
397.71        11.91792
398.15        11.85901
398.60        11.84916
399.05        11.85351
399.50        11.85288
399.95        11.87053
400.39        11.83965
400.84        11.76554
401.29        11.65419
401.74        11.59087
402.18        11.59126
402.63        11.60707
403.08        11.63836
403.53        11.69393
403.97        11.76645
404.42        11.85428
404.87        11.91841
405.32          11.896
405.76        11.77594
406.21        11.58165
406.66        11.38024
407.11        11.27985
407.55        11.30709
408.00        11.43366
408.45        11.58171
408.90        11.60845
409.34        11.47874
409.79        11.24093
410.24        10.99995
410.68        10.91244
411.13        11.01184
411.58        11.24727
412.03        11.51698
412.47        11.64787
412.92        11.58232
413.37        11.38617
413.81        11.14829
414.26        11.02071
414.71        11.02708
415.15        11.12265
415.60        11.24372
416.05        11.30216
416.49        11.27122
416.94        11.19126
417.39        11.08806
417.83        10.99673
418.28        10.93596
418.73        10.88083
419.17        10.85055
419.62        10.87876
420.07        10.96072
420.51        11.08668
420.96         11.1927
421.41        11.17118
421.85        11.00983
422.30        10.76473
422.74        10.51508
423.19        10.39476
423.64        10.42562
424.08        10.57216
424.53        10.77184
424.98        10.93473
425.42        11.02163
425.87        11.04287
426.31        11.00829
426.76        10.95584
427.21        10.86081
427.65        10.73543
428.10        10.58523
428.54         10.4063
428.99        10.22587
429.44        10.12686
429.88         10.0964
430.33        9.983606
430.77        9.854144
431.22        10.01605
431.66        10.42066
432.11        10.65158
432.56        10.63543
433.00        10.61256
433.45        10.58766
433.89        10.34192
434.34         10.0154
434.78        9.996883
435.23         10.2233
435.67        10.27512
436.12         10.1308
436.57        10.02786
437.01        10.00391
437.46        10.01597
437.90        10.06808
438.35        10.16334
438.79        10.26002
439.24        10.27343
439.68        10.20628
440.13        10.12471
440.57        10.04239
441.02        9.991146
441.46        9.984465
441.91        9.938998
442.35        9.876824
442.80        10.04681
443.24        10.34956
443.69        10.29597
444.13        9.938392
444.58        9.779285
445.02        9.827609
445.47         9.82504
445.91        9.757586
446.36        9.733801
446.80        9.748954
447.24        9.777019
447.69        9.817806
448.13        9.871619
448.58        9.933612
449.02        10.00383
449.47        10.06533
449.91        10.08663
450.36          10.065
450.80        10.00868
451.25        9.945505
451.69        9.921279
452.13        9.942451
452.58        9.999563
453.02        10.05981
453.47        10.07106
453.91         10.0197
454.36        9.955162
454.80        9.854155
455.24        9.792735
455.69        9.770753
456.13        9.771261
456.58        9.792161
457.02        9.820815
457.46        9.852064
457.91        9.887136
458.35        9.911127
458.79        9.901967
459.24          9.8671
459.68        9.819871
460.13        9.781856
460.57         9.74015
461.01        9.777938
461.46         9.78557
461.90        9.800911
462.34        9.935053
462.79        10.13744
463.23        10.19192
463.68         10.0942
464.12        10.03149
464.56        10.01147
465.01        9.938011
465.45        9.827649
465.89        9.747773
466.34        9.722178
466.78        9.779819
467.22        9.905647
467.67        9.911698
468.11        9.788813
468.55        9.609123
468.99        9.441765
469.44        9.366663
469.88         9.40491
470.32        9.535076
470.77        9.699143
471.21         9.81621
471.65        9.854442
472.10        9.842177
472.54        9.811168
472.98        9.824981
473.42        9.896512
473.87        9.999286
474.31        10.09902
474.75        10.14526
475.20          10.132
475.64          10.078
476.08        10.01363
476.52        9.981096
476.97        9.993059
477.41         10.0335
477.85        10.09525
478.29        10.16478
478.74        10.23677
479.18        10.30971
479.62        10.37018
480.06        10.42333
480.50        10.47302
480.95        10.42188
481.39         10.4474
481.83        10.48353
482.27        10.59216
482.72        10.67179
483.16        10.83716
483.60        10.91922
484.04        10.94342
484.48        10.92136
484.93        10.90981
485.37        10.99618
485.81        11.09163
486.25        11.36537
486.69        10.76251
487.14         10.9944
487.58        11.68987
488.02        11.63227
488.46        11.88896
488.90        12.19562
489.34        11.80439
489.79        11.83713
490.23        11.95315
490.67        12.18387
491.11        12.42504
491.55        12.43112
491.99        12.27717
492.43        12.34276
492.88        12.64694
493.32        12.93947
493.76        13.16314
494.20        13.36994
494.64        13.54765
495.08        13.67199
495.52         13.7531
495.96         13.8498
496.41        13.97861
496.85        14.04453
497.29        14.06119
497.73        14.30374
498.17        14.54494
498.61        14.57047
499.05        14.38085
499.49        14.35296
499.93        14.52471
500.37        14.74966
500.82        14.97183
501.26         15.1378
501.70        15.22594
502.14        15.27292
502.58        15.32166
503.02        15.42182
503.46        15.58695
503.90        15.80183
504.34        16.02205
504.78         16.1727
505.22        16.23401
505.66        16.22684
506.10        16.18794
506.54        16.19452
506.98        16.26885
507.42        16.35668
507.86        16.41957
508.30        16.58192
508.74        16.53039
509.18        16.52799
509.62         16.5157
510.06        16.54823
510.50        16.63496
510.94        16.76248
511.38        16.90432
511.82         17.0089
512.26         17.0608
512.70         17.0724
513.14        17.06702
513.58        17.08148
514.02        17.12562
514.46        17.18867
514.90        17.24925
515.34        17.27347
515.78        17.25479
516.22        17.20659
516.66        17.15587
517.10        17.14315
517.54        17.17599
517.98        17.23894
518.42        17.30522
518.86        17.33191
519.30        17.30789
519.74        17.24843
520.18        17.17179
520.62        17.10526
521.06        17.05914
521.50        17.02671
521.93        17.00631
522.37         16.9906
522.81        16.97792
523.25        16.96905
523.69        16.96286
524.13        16.95634
524.57        16.94617
525.01        16.92967
525.45         16.8995
525.89        16.84642
526.32        16.76854
526.76        16.67477
527.20        16.57588
527.64        16.48847
528.08        16.41794
528.52        16.36255
528.96        16.31589
529.40        16.26711
529.83         16.2116
530.27        16.15164
530.71        16.09295
531.15        16.04718
531.59        16.01327
532.03        15.98468
532.46        15.94324
532.90        15.86623
533.34        15.75241
533.78        15.61754
534.22         15.4821
534.66        15.37506
535.09        15.30445
535.53        15.26742
535.97        15.26056
536.41        15.28242
536.85        15.32574
537.28        15.38629
537.72        15.44763
538.16        15.48707
538.60        15.49916
539.04        15.49339
539.47         15.4715
539.91        15.45459
540.35        15.44776
540.79        15.45337
541.22         15.4876
541.66        15.57779
542.10        15.72349
542.54        15.91483
542.97        16.12645
543.41        16.31816
543.85        16.47832
544.29        16.61877
544.72        16.74095
545.16        16.86267
545.60        16.98949
546.04        17.11064
546.47        17.23985
546.91        17.42605
547.35        17.65889
547.79        17.87261
548.22         18.0507
548.66        18.26433
549.10        18.51688
549.53        18.71084
549.97        18.81544
550.41        19.16978
550.84        19.19869
551.28        19.33605
551.72        19.41931
552.15        19.63358
552.59        19.73813
553.03         19.9243
553.46        20.10589
553.90        20.25704
554.34        20.36829
554.77        20.47079
555.21        20.57669
555.65        20.64825
556.08        20.70808
556.52        20.84948
556.96        21.05065
557.39        21.22904
557.83        21.36899
558.27        21.46282
558.70         21.5359
559.14        21.65487
559.57        21.80597
560.01        21.95222
560.45        22.06501
560.88        22.03955
561.32        22.01622
561.75        22.01499
562.19        22.08571
562.63        22.15002
563.06        22.20747
563.50        22.31756
563.93        22.45946
564.37        22.58952
564.80        22.69327
565.24        22.79089
565.68        22.87857
566.11         22.9656
566.55        23.05745
566.98        23.11819
567.42        23.19825
567.85        23.33021
568.29        23.51886
568.72        23.82301
569.16        24.23857
569.60        24.23488
570.03        24.54472
570.47        24.71706
570.90        24.75808
571.34        24.91139
571.77        25.05342
572.21        25.20557
572.64        25.30296
573.08        25.46841
573.51        25.77593
573.95        25.63609
574.38        25.94981
574.82        26.19324
