SpectraSmart Spectrum 2.9.0.0
--------- Device Information -----------
Spectrum Name :  反射率_0
Saving Time :  2024/04/30 00:56:00
Spectro-Module Model Name : SE2030-DUVN
Spectro-Module Serial Number : OS361AC55029948
Wavelength Start : 200
Wavelength End : 1025
Wavelength Unit : Wavelength(nm)
Spectrum Unit : Reflectance(%)
-----------Spectrum Setting ------------
Integration Time : 20ms
Average : 10
Boxcar : 0
Background removal :  enabled
linearity correction :  enabled
SC :  disabled
Intensity correction :  disabled
DWT denoise :  enabled
savitzky-golay :  disabled
FFT :  disabled
Running average :  disabled
Kalman :  disabled
High pass :  disabled
---------------BEGIN--------------------
Wavelength(nm)             Reflectance(%)
200.29               0
200.75        66.71342
201.21        49.53955
201.67        29.56197
202.13        12.64436
202.58        1.877923
203.04       -3.401206
203.50       -2.304056
203.96        6.107997
204.42        20.48235
204.88        39.07206
205.34        55.73676
205.80        61.62554
206.26        57.49095
206.72        49.21525
207.18        39.77273
207.64        30.27987
208.10        20.50099
208.55        9.052928
209.01      -0.7898999
209.47      -0.6663238
209.93        9.629642
210.39         25.0733
210.85        38.30973
211.31        43.55486
211.77        40.77068
212.23        29.98244
212.69        13.44662
213.14        5.683783
213.60        13.99823
214.06        29.97648
214.52          43.687
214.98        48.93078
215.44        46.79718
215.90        39.91537
216.36        31.05546
216.81        25.29303
217.27        25.27077
217.73         30.0467
218.19        38.46051
218.65        44.26261
219.11        43.31335
219.57        38.66029
220.02        33.69181
220.48        30.42214
220.94        28.31535
221.40        26.00876
221.86        23.21298
222.32         20.7467
222.77        19.61902
223.23        20.25437
223.69        20.94664
224.15        20.41251
224.61        18.73816
225.06        15.86365
225.52        13.78038
225.98        15.98038
226.44         21.8627
226.90        28.65547
227.36        33.62151
227.81        35.08051
228.27        33.55118
228.73        29.83756
229.19        25.45541
229.65        23.72016
230.10        25.34048
230.56        28.48214
231.02        31.49758
231.48        33.05971
231.93        33.12229
232.39        32.33117
232.85        31.03223
233.31        29.84904
233.77        29.06888
234.22        28.55627
234.68        28.15234
235.14        27.64591
235.60        27.06851
236.05        26.61292
236.51        26.60441
236.97        27.39508
237.43        29.09635
237.88        31.82796
238.34        35.29844
238.80        38.45794
239.26         40.2331
239.71         40.7453
240.17         40.1151
240.63        38.98563
241.08         37.5391
241.54        35.15536
242.00        32.60411
242.46        34.19218
242.91        43.54055
243.37        58.49489
243.83        72.27055
244.28        80.06894
244.74        82.05856
245.20        78.20321
245.66        70.36877
246.11        63.97736
246.57        62.23172
247.03        65.20295
247.48        69.26279
247.94        66.29272
248.40        57.56735
248.85         48.3422
249.31        43.15265
249.77        44.00941
250.22        50.87539
250.68        64.87495
251.14        85.86333
251.59        97.63284
252.05        88.76405
252.51        72.44598
252.96        59.29575
253.42        52.37207
253.88        49.30249
254.33        47.66686
254.79        47.69614
255.25        49.26383
255.70        51.24601
256.16        53.47767
256.62         54.7893
257.07        54.31335
257.53        52.71865
257.99         50.2913
258.44        47.72939
258.90        46.73663
259.35        46.94464
259.81        47.75495
260.27        48.41434
260.72        48.33561
261.18        47.71406
261.63        46.68105
262.09         45.4928
262.55        44.19307
263.00        42.87673
263.46        41.71035
263.91        40.67285
264.37        39.97065
264.83        39.50848
265.28        39.15478
265.74        38.95808
266.19        38.78452
266.65         38.6331
267.11        38.47517
267.56         38.2002
268.02        37.64353
268.47        36.77108
268.93        35.64496
269.38        34.40337
269.84        33.41254
270.30        32.76942
270.75          32.401
271.21        32.15289
271.66        31.76112
272.12        31.16085
272.57        30.41049
273.03        29.64551
273.48        29.00119
273.94        28.56268
274.39        28.23274
274.85        27.95275
275.31        27.58736
275.76        27.09672
276.22        26.54896
276.67        25.98874
277.13        25.55563
277.58        25.22474
278.04        24.97592
278.49        24.69325
278.95        24.28968
279.40        23.72534
279.86        23.12197
280.31        22.51427
280.77        22.05337
281.22        21.74339
281.68        21.55959
282.13        21.49413
282.59        21.57233
283.04        21.75251
283.50         22.0052
283.95        22.21461
284.41         22.2074
284.86        21.95522
285.32        21.55649
285.77        21.09784
286.22        20.76883
286.68        20.62614
287.13        20.58558
287.59        20.64333
288.04        20.73887
288.50         20.8525
288.95        20.96962
289.41        21.06119
289.86         21.0481
290.32        20.94538
290.77        20.77934
291.22        20.59499
291.68        20.46383
292.13        20.41066
292.59        20.44392
293.04        20.61899
293.50        21.03389
293.95        21.68758
294.40        22.55171
294.86        23.48288
295.31        24.27012
295.77        24.85152
296.22        25.26073
296.68        25.63199
297.13        26.16312
297.58        26.90044
298.04         27.7468
298.49        28.56675
298.95        29.14681
299.40        29.44894
299.85        29.56858
300.31         29.6334
300.76        29.77785
301.21        30.07172
301.67        30.46751
302.12         30.9133
302.58        31.47042
303.03        32.10515
303.48        32.67101
303.94        33.08199
304.39        33.90061
304.84         33.9415
305.30        34.16804
305.75        34.28087
306.20         34.4309
306.66        34.64856
307.11        34.89542
307.57        35.14073
308.02        35.26123
308.47        35.25381
308.93        35.16055
309.38        35.03611
309.83        35.01364
310.29         35.1143
310.74        35.28977
311.19        35.43748
311.65        35.39339
312.10        35.12848
312.55        34.70876
313.00        34.26503
313.46        33.99776
313.91        33.94241
314.36        34.03848
314.82        34.18091
315.27        34.22012
315.72        34.09779
316.18        33.86756
316.63        33.56815
317.08        33.27226
317.53         33.0129
317.99        32.77584
318.44        32.55125
318.89        32.33217
319.35        32.11699
319.80        31.91368
320.25        31.74954
320.70        31.66211
321.16        31.64029
321.61        31.68048
322.06        31.70931
322.51        31.61845
322.97        31.38303
323.42        31.03925
323.87        30.65932
324.32        30.36482
324.78        30.17842
325.23          30.081
325.68        30.01002
326.13         29.8648
326.59        29.61173
327.04        29.29464
327.49         28.9608
327.94        28.69591
328.39        28.51668
328.85        28.38199
329.30        28.25722
329.75        28.03992
330.20        27.71542
330.66        27.32951
331.11        26.94696
331.56        26.64219
332.01        26.43941
332.46        26.30426
332.92        26.23173
333.37        26.24427
333.82        26.31569
334.27        26.43718
334.72        26.52053
335.17        26.42078
335.63        26.10944
336.08        25.63808
336.53        25.11316
336.98        24.73762
337.43        24.57619
337.88        24.57511
338.34        24.66575
338.79        24.75084
339.24        24.78303
339.69        24.80066
340.14        24.78903
340.59        24.72346
341.05         24.6087
341.50        24.43493
341.95        24.26197
342.40        24.19926
342.85        24.25986
343.30        24.40787
343.75        24.54819
344.20        24.52612
344.66        24.31948
345.11        23.97741
345.56        23.59069
346.01        23.30102
346.46        23.15813
346.91         23.1239
347.36         23.1632
347.81         23.2232
348.26        23.27762
348.72        23.33296
349.17        23.38405
349.62         23.4199
350.07        23.43085
350.52        23.41074
350.97        23.34291
351.42        23.20624
351.87        23.01221
352.32         22.7877
352.77         22.5783
353.22         22.4551
353.67        22.43546
354.13        22.48764
354.58        22.59943
355.03        22.74949
355.48        22.90793
355.93        23.06877
356.38        23.16163
356.83        23.08298
357.28        22.82856
357.73        22.43957
358.18        22.01789
358.63        21.72797
359.08        21.60859
359.53        21.60785
359.98        21.66359
360.43        21.67052
360.88        21.59401
361.33        21.47455
361.78        21.31343
362.23        21.10973
362.68        20.87991
363.13        20.62437
363.58        20.39685
364.03        20.28747
364.48        20.30715
364.93        20.42291
365.38         20.5705
365.83        20.64233
366.28        20.60576
366.73        20.49243
367.18        20.32463
367.63        20.14073
368.08        19.96119
368.53        19.77469
368.98        19.60685
369.43        19.50074
369.88        19.46245
370.33        19.48514
370.78        19.52678
371.23        19.51265
371.68        19.42245
372.13        19.27274
372.58        19.09884
373.03        18.96225
373.48        18.87629
373.93        18.81644
374.38        18.75729
374.83        18.65876
375.28        18.51485
375.72        18.34563
376.17        18.17753
376.62        18.00804
377.07        17.84253
377.52        17.67284
377.97        17.53508
378.42        17.49171
378.87        17.54585
379.32         17.6733
379.77        17.79559
380.22        17.79628
380.67        17.65292
381.11        17.39671
381.56        17.10803
382.01        16.92024
382.46        16.87292
382.91        16.93275
383.36        17.02669
383.81        17.04116
384.26        16.95238
384.71        16.79582
385.15        16.63655
385.60         16.6005
386.05        16.69322
386.50        16.86059
386.95        17.01858
387.40        17.04068
387.85        16.90567
388.29        16.66026
388.74        16.38859
389.19        16.14696
389.64        15.95607
390.09          15.788
390.54        15.66725
390.98        15.63376
391.43        15.68937
391.88        15.82118
392.33        15.94483
392.78        15.95409
393.23        15.84072
393.67        15.60216
394.12        15.34474
394.57        15.32628
395.02        15.34511
395.47        15.52955
395.91        15.72694
396.36         15.7814
396.81        15.65974
397.26        15.42351
397.71        15.14801
398.15        14.93355
398.60        14.83112
399.05        14.77463
399.50        14.74143
399.95        14.76553
400.39        14.75708
400.84          14.721
401.29        14.64495
401.74        14.59439
402.18        14.57641
402.63        14.54338
403.08        14.50158
403.53        14.47463
403.97        14.46361
404.42        14.46451
404.87        14.45959
405.32        14.41952
405.76         14.3363
406.21        14.22412
406.66        14.11459
407.11           14.06
407.55        14.07504
408.00        14.14443
408.45        14.22059
408.90        14.21593
409.34        14.11003
409.79        13.92986
410.24        13.75495
410.68        13.70494
411.13        13.80216
411.58        14.00881
412.03        14.23048
412.47        14.30675
412.92        14.18939
413.37         13.9445
413.81        13.66646
414.26        13.51752
414.71        13.52107
415.15        13.62991
415.60        13.77636
416.05        13.86543
416.49          13.864
416.94        13.80918
417.39        13.71865
417.83        13.61559
418.28        13.51863
418.73        13.41077
419.17        13.32027
419.62        13.29578
420.07        13.34009
420.51        13.44033
420.96        13.54237
421.41        13.55113
421.85        13.44849
422.30        13.28168
422.74         13.1037
423.19        13.01536
423.64        13.02995
424.08        13.12116
424.53        13.24007
424.98        13.32632
425.42         13.3567
425.87        13.33995
426.31        13.28292
426.76        13.21807
427.21        13.11263
427.65        12.98584
428.10        12.85478
428.54        12.72914
428.99         12.6302
429.44        12.64019
429.88        12.71133
430.33        12.60581
430.77        12.40193
431.22        12.51124
431.66        12.88797
432.11        13.05103
432.56        12.93228
433.00        12.82271
433.45        12.74255
433.89        12.45677
434.34        12.12948
434.78        12.21802
435.23        12.61938
435.67        12.76918
436.12        12.62431
436.57        12.49108
437.01        12.42791
437.46        12.40367
437.90        12.43425
438.35        12.51817
438.79        12.61087
439.24        12.62035
439.68        12.55052
440.13        12.48186
440.57        12.41852
441.02        12.37409
441.46        12.35895
441.91        12.27653
442.35        12.16705
442.80          12.354
443.24        12.71857
443.69        12.65697
444.13        12.22421
444.58        12.02394
445.02        12.06422
445.47        12.02822
445.91        11.91699
446.36        11.88867
446.80        11.94087
447.24        12.03606
447.69         12.1414
448.13        12.20513
448.58        12.21517
449.02        12.18727
449.47        12.15116
449.91        12.14775
450.36        12.18707
450.80         12.2508
451.25        12.31616
451.69        12.34728
452.13        12.33349
452.58        12.29695
453.02        12.24406
453.47        12.18368
453.91        12.12055
454.36        12.08742
454.80         12.0392
455.24        12.04309
455.69        12.08394
456.13        12.14893
456.58        12.21936
457.02        12.25312
457.46        12.24509
457.91        12.20858
458.35        12.15311
458.79        12.09813
459.24        12.06095
459.68        12.04123
460.13        12.05133
460.57        12.05312
461.01        12.13885
461.46        12.18356
461.90        12.21887
462.34        12.36202
462.79        12.54982
463.23        12.51838
463.68        12.30764
464.12        12.21269
464.56        12.25153
465.01        12.28555
465.45         12.2829
465.89         12.2521
466.34        12.21038
466.78        12.21593
467.22        12.29204
467.67        12.27963
468.11        12.18682
468.55         12.0749
468.99        11.98485
469.44        11.94781
469.88        11.97386
470.32        12.06064
470.77        12.16756
471.21          12.241
471.65        12.26007
472.10        12.24487
472.54        12.22472
472.98         12.2622
473.42        12.36469
473.87        12.50285
474.31        12.63468
474.75        12.69763
475.20        12.68424
475.64        12.61998
476.08        12.53189
476.52        12.45763
476.97        12.41409
477.41        12.38608
477.85         12.3967
478.29        12.48012
478.74        12.63652
479.18        12.84601
479.62        13.04356
480.06        13.16053
480.50        13.18723
480.95        13.02585
481.39         12.9458
481.83        12.93311
482.27        13.08479
482.72        13.25698
483.16        13.55448
483.60        13.72045
484.04        13.78751
484.48        13.72422
484.93        13.60998
485.37         13.7442
485.81        14.04689
486.25        14.03798
486.69        13.60218
487.14        13.77779
487.58        14.32422
488.02        14.36607
488.46        14.51944
488.90         14.8508
489.34        14.25996
489.79        14.28904
490.23        14.52896
490.67        14.87238
491.11        15.18711
491.55        15.21474
491.99        15.03628
492.43        15.08781
492.88        15.39175
493.32        15.64441
493.76        15.80613
494.20        15.99078
494.64        16.19541
495.08        16.38198
495.52        16.53277
495.96        16.66375
496.41        16.78347
496.85        16.79937
497.29        16.75828
497.73        17.02694
498.17        17.34436
498.61        17.44469
499.05        17.29187
499.49         17.2818
499.93        17.44784
500.37          17.629
500.82        17.79593
501.26        17.94394
501.70         18.0611
502.14        18.17374
502.58        18.29229
503.02        18.41153
503.46        18.53402
503.90        18.66273
504.34        18.78962
504.78        18.89901
505.22        18.98602
505.66        19.05161
506.10        19.09583
506.54        19.14168
506.98        19.19678
507.42        19.21758
507.86        19.19141
508.30        19.31488
508.74        19.23766
509.18        19.25042
509.62        19.26081
510.06        19.29621
510.50        19.35916
510.94        19.44797
511.38        19.55404
511.82        19.65224
512.26        19.73292
512.70        19.79638
513.14        19.84805
513.58        19.89914
514.02        19.95138
514.46         20.0005
514.90        20.03396
515.34        20.03255
515.78        19.99599
516.22        19.93544
516.66        19.87312
517.10         19.8423
517.54        19.84957
517.98        19.88199
518.42        19.92402
518.86        19.94959
519.30        19.94887
519.74         19.9306
520.18        19.89292
520.62        19.83186
521.06        19.75312
521.50        19.66194
521.93         19.5793
522.37        19.53469
522.81        19.53709
523.25        19.57417
523.69         19.6307
524.13        19.68257
524.57        19.71711
525.01        19.73561
525.45        19.72799
525.89        19.68045
526.32        19.59157
526.76        19.47323
527.20        19.34076
527.64        19.21981
528.08         19.1194
528.52        19.03577
528.96        18.96955
529.40        18.91919
529.83        18.88041
530.27        18.85563
530.71        18.83254
531.15        18.79345
531.59        18.73403
532.03        18.65734
532.46        18.57281
532.90        18.50319
533.34        18.45362
533.78        18.42114
534.22         18.3965
534.66        18.36429
535.09        18.32022
535.53        18.27528
535.97        18.23956
536.41        18.23452
536.85        18.26158
537.28        18.30922
537.72        18.35981
538.16        18.38908
538.60        18.39066
539.04         18.3774
539.47        18.34909
539.91        18.32385
540.35        18.30553
540.79        18.29764
541.22        18.31805
541.66        18.39781
542.10        18.53788
542.54        18.72836
542.97        18.94309
543.41        19.14158
543.85        19.31137
544.29        19.46437
544.72        19.60112
545.16        19.73973
545.60          19.884
546.04        20.01916
546.47        20.15761
546.91        20.35134
547.35        20.58749
547.79        20.79231
548.22        20.94734
548.66        21.13616
549.10        21.36412
549.53        21.52009
549.97        21.57881
550.41         21.9441
550.84        21.96169
551.28        22.12713
551.72        22.24117
552.15        22.49428
552.59         22.6055
553.03        22.79632
553.46        22.98442
553.90         23.1673
554.34        23.33575
554.77         23.5143
555.21        23.68759
555.65        23.76703
556.08        23.77158
556.52        23.82612
556.96        23.93768
557.39         24.0607
557.83         24.1901
558.27        24.30326
558.70        24.40994
559.14         24.5541
559.57        24.71105
560.01        24.85149
560.45         24.9514
560.88        24.90407
561.32        24.87139
561.75        24.86865
562.19        24.95263
562.63        25.03716
563.06        25.12098
563.50        25.27287
563.93        25.45881
564.37        25.61333
564.80        25.71677
565.24        25.79292
565.68        25.85643
566.11        25.94829
566.55        26.07785
566.98        26.19497
567.42        26.32452
567.85        26.45407
568.29         26.5853
568.72        26.80166
569.16        27.14025
569.60        27.07098
570.03         27.4232
570.47         27.6336
570.90        27.81276
571.34        27.92619
571.77        28.13973
572.21        28.29176
572.64        28.41098
573.08        28.51435
573.51        28.64853
573.95        28.60736
574.38        28.87964
574.82        28.87744
