SpectraSmart Spectrum 2.9.0.0
--------- Device Information -----------
Spectrum Name :  反射率_0
Saving Time :  2024/04/30 01:20:12
Spectro-Module Model Name : SE2030-DUVN
Spectro-Module Serial Number : OS361AC55029948
Wavelength Start : 200
Wavelength End : 1025
Wavelength Unit : Wavelength(nm)
Spectrum Unit : Reflectance(%)
-----------Spectrum Setting ------------
Integration Time : 20ms
Average : 10
Boxcar : 0
Background removal :  enabled
linearity correction :  enabled
SC :  disabled
Intensity correction :  disabled
DWT denoise :  enabled
savitzky-golay :  disabled
FFT :  disabled
Running average :  disabled
Kalman :  disabled
High pass :  disabled
---------------BEGIN--------------------
Wavelength(nm)             Reflectance(%)
200.29               0
200.75        33.30709
201.21        23.77456
201.67        14.10301
202.13        10.05399
202.58        14.04566
203.04        26.55942
203.50        43.42521
203.96        54.95724
204.42        56.17935
204.88        47.69433
205.34        36.59264
205.80        34.17577
206.26        40.23986
206.72        49.28149
207.18        55.04184
207.64        52.82584
208.10        43.32595
208.55        27.97813
209.01        11.68711
209.47        6.654355
209.93        15.02853
210.39        30.36475
210.85        43.82785
211.31        48.16009
211.77        42.84313
212.23        27.84201
212.69        6.286468
213.14       -2.984985
213.60        9.252214
214.06        31.45511
214.52        50.18622
214.98        57.17308
215.44        54.10098
215.90        44.70275
216.36        32.87791
216.81         25.8867
217.27        27.62789
217.73        37.14913
218.19        54.23574
218.65         71.3034
219.11        79.78411
219.57        80.37734
220.02        77.16728
220.48        74.54066
220.94        72.58865
221.40        69.93238
221.86        64.76691
222.32        56.04777
222.77        47.06532
223.23        41.20108
223.69        38.37152
224.15        37.58038
224.61        38.09541
225.06        39.55384
225.52        42.24473
225.98         45.5779
226.44        48.46751
226.90          50.661
227.36         51.6843
227.81        51.30876
228.27          49.809
228.73        47.12875
229.19        44.35837
229.65        43.83475
230.10        45.76236
230.56        48.93333
231.02        51.55914
231.48         52.0807
231.93        50.53914
232.39          47.583
232.85         44.2766
233.31        42.68719
233.77        43.47585
234.22        46.17442
234.68        49.45527
235.14        50.86753
235.60        49.76272
236.05        47.00211
236.51        44.18245
236.97        43.34113
237.43        45.01387
237.88        49.05233
238.34        54.68696
238.80        59.35607
239.26        60.94051
239.71        59.96307
240.17        57.44894
240.63        55.20179
241.08        53.67224
241.54        51.88337
242.00         49.9695
242.46        49.59666
242.91        52.48418
243.37        58.36674
243.83        63.84006
244.28        65.24477
244.74        62.10346
245.20        54.59807
245.66        44.56657
246.11        37.45748
246.57        36.76147
247.03        41.47012
247.48        49.92143
247.94        56.21124
248.40        58.09927
248.85        57.69434
249.31         57.4763
249.77        58.85572
250.22         62.4028
250.68         68.4265
251.14        77.50901
251.59        84.53005
252.05        83.86284
252.51        79.25255
252.96         74.3119
253.42         70.6064
253.88        67.27154
254.33        63.49586
254.79        60.03867
255.25        58.34344
255.70        58.41122
256.16        59.53437
256.62         60.6153
257.07        60.88298
257.53        60.74658
257.99        60.33949
258.44        59.47981
258.90        58.64324
259.35        57.64848
259.81        56.80654
260.27        56.15905
260.72         55.7979
261.18        55.78115
261.63        55.73856
262.09         55.5551
262.55        54.76737
263.00        53.39465
263.46        51.89374
263.91        50.35112
264.37        49.13183
264.83        48.17708
265.28        47.32195
265.74        46.67681
266.19        46.19452
266.65        45.90411
267.11        45.74561
267.56        45.56609
268.02         45.1451
268.47        44.41136
268.93        43.43129
269.38        42.30088
269.84        41.31854
270.30        40.57142
270.75        40.00385
271.21        39.52057
271.66        38.93454
272.12          38.204
272.57        37.35711
273.03        36.52103
273.48        35.80602
273.94        35.29331
274.39        34.89203
274.85        34.52845
275.31        34.02425
275.76        33.33838
276.22         32.5631
276.67        31.78697
277.13         31.2323
277.58         30.8772
278.04        30.68412
278.49        30.47326
278.95        30.08478
279.40        29.45541
279.86        28.73189
280.31        27.99564
280.77        27.48202
281.22        27.19722
281.68        27.09197
282.13        27.08081
282.59        27.09875
283.04        27.08647
283.50        27.05481
283.95        26.96436
284.41          26.768
284.86        26.45766
285.32         26.0967
285.77        25.68377
286.22        25.29138
286.68        24.95639
287.13        24.62992
287.59        24.39152
288.04        24.30159
288.50        24.36627
288.95        24.52581
289.41        24.66806
289.86        24.58452
290.32        24.27144
290.77        23.80056
291.22        23.30295
291.68        22.98732
292.13         22.9069
292.59        23.01637
293.04        23.29456
293.50        23.73384
293.95        24.29956
294.40        24.99531
294.86        25.70922
295.31        26.27914
295.77        26.66675
296.22        26.90015
296.68        27.10532
297.13        27.46617
297.58        28.03524
298.04        28.73111
298.49        29.45298
298.95         30.0372
299.40        30.43923
299.85        30.71529
300.31        30.94013
300.76        31.16906
301.21        31.45264
301.67        31.77784
302.12        32.09675
302.58        32.47953
303.03        32.91441
303.48        33.26045
303.94        33.50135
304.39        34.30148
304.84        34.48827
305.30        34.97768
305.75        35.36824
306.20         35.6468
306.66         35.8098
307.11        35.87314
307.57        35.88722
308.02         35.8477
308.47        35.78662
308.93        35.71332
309.38        35.65137
309.83        35.68637
310.29        35.82411
310.74        36.03204
311.19        36.22519
311.65         36.2627
312.10        36.11338
312.55        35.82399
313.00        35.49203
313.46        35.27202
313.91         35.1899
314.36        35.20155
314.82        35.23247
315.27         35.1826
315.72         35.0119
316.18        34.76543
316.63        34.46844
317.08        34.16993
317.53        33.89472
317.99        33.63405
318.44        33.38889
318.89        33.16789
319.35        32.96966
319.80        32.79451
320.25         32.6449
320.70        32.52081
321.16        32.40525
321.61        32.30782
322.06        32.19175
322.51        32.01121
322.97         31.7591
323.42        31.45492
323.87        31.13737
324.32        30.87312
324.78        30.66885
325.23        30.52149
325.68        30.38909
326.13        30.20588
326.59        29.95113
327.04        29.65864
327.49        29.36068
327.94        29.12168
328.39        28.94976
328.85        28.80442
329.30        28.66755
329.75        28.46382
330.20        28.18101
330.66        27.85537
331.11        27.51154
331.56        27.16035
332.01        26.81703
332.46        26.46996
332.92        26.17422
333.37        26.05658
333.82        26.12488
334.27        26.34635
334.72        26.58423
335.17        26.60629
335.63        26.35374
336.08        25.90076
336.53        25.37781
336.98        25.03032
337.43        24.93404
337.88        25.01168
338.34        25.17844
338.79        25.31861
339.24        25.37717
339.69        25.40065
340.14        25.37664
340.59        25.28071
341.05        25.12381
341.50        24.90228
341.95        24.68126
342.40        24.57908
342.85        24.61034
343.30        24.73135
343.75        24.85792
344.20        24.85127
344.66        24.68628
345.11        24.40872
345.56        24.06507
346.01        23.72724
346.46        23.44022
346.91        23.19383
347.36        23.02533
347.81           22.99
348.26        23.08201
348.72        23.27466
349.17        23.49987
349.62        23.63718
350.07        23.64519
350.52        23.55359
350.97          23.388
351.42        23.19272
351.87        22.99656
352.32        22.79822
352.77        22.63047
353.22        22.54716
353.67        22.55566
354.13        22.63482
354.58        22.75727
355.03        22.87398
355.48        22.95652
355.93        23.00984
356.38        22.99976
356.83        22.87947
357.28        22.65371
357.73        22.34365
358.18         22.0201
358.63        21.79606
359.08        21.69794
359.53        21.69479
359.98        21.73304
360.43        21.72277
360.88         21.6352
361.33        21.49503
361.78        21.32559
362.23        21.16326
362.68        21.02302
363.13        20.89638
363.58        20.77275
364.03        20.63831
364.48        20.49141
364.93        20.33666
365.38        20.20239
365.83        20.13155
366.28         20.1267
366.73        20.17052
367.18        20.20797
367.63        20.15304
368.08           19.99
368.53        19.74808
368.98        19.48692
369.43        19.30385
369.88        19.22793
370.33        19.23209
370.78        19.27576
371.23        19.29264
371.68        19.25576
372.13        19.17535
372.58        19.07139
373.03         18.9761
373.48         18.8947
373.93        18.81601
374.38        18.70497
374.83        18.50934
375.28        18.23614
375.72        17.91748
376.17         17.6364
376.62        17.47194
377.07        17.43612
377.52        17.49105
377.97        17.60066
378.42        17.70452
378.87        17.76961
379.32        17.80569
379.77        17.78833
380.22        17.68397
380.67        17.49482
381.11        17.23048
381.56        16.94747
382.01        16.74142
382.46        16.64396
382.91        16.63964
383.36        16.68176
383.81        16.69205
384.26        16.64927
384.71        16.57044
385.15        16.48748
385.60        16.47623
386.05        16.53353
386.50         16.6271
386.95        16.69766
387.40        16.65911
387.85        16.50216
388.29        16.25607
388.74        16.00701
389.19        15.81482
389.64        15.69702
390.09        15.63225
390.54        15.60768
390.98        15.59989
391.43        15.60272
391.88        15.61972
392.33        15.63682
392.78        15.64947
393.23        15.65415
393.67        15.60701
394.12         15.5307
394.57        15.56206
395.02        15.47699
395.47         15.4544
395.91        15.41167
396.36         15.3158
396.81        15.17474
397.26        15.00767
397.71         14.8581
398.15        14.77976
398.60        14.79787
399.05        14.85607
399.50         14.9117
399.95        14.96878
400.39        14.93657
400.84        14.82864
401.29        14.65755
401.74        14.54084
402.18        14.50387
402.63        14.48373
403.08        14.48328
403.53        14.51754
403.97        14.57694
404.42        14.66009
404.87        14.71664
405.32        14.66357
405.76        14.48832
406.21        14.22499
406.66        13.95529
407.11        13.80985
407.55        13.82249
408.00        13.95714
408.45        14.13391
408.90        14.20485
409.34        14.12661
409.79        13.94281
410.24        13.74718
410.68        13.68096
411.13        13.77446
411.58        13.98125
412.03        14.20272
412.47        14.27521
412.92        14.14945
413.37        13.89384
413.81        13.61024
414.26        13.46949
414.71         13.4952
415.15        13.63795
415.60        13.81381
416.05        13.90098
416.49         13.8614
416.94        13.73999
417.39        13.58006
417.83        13.44568
418.28        13.36503
418.73         13.3103
419.17        13.28238
419.62        13.28595
420.07        13.31367
420.51        13.36597
420.96        13.41561
421.41        13.40942
421.85        13.33732
422.30        13.23099
422.74        13.11737
423.19        13.06019
423.64        13.06646
424.08        13.12356
424.53        13.20388
424.98        13.28402
425.42        13.34985
425.87        13.39319
426.31        13.40405
426.76        13.38998
427.21        13.30833
427.65        13.18832
428.10        13.04239
428.54        12.87297
428.99         12.7084
429.44        12.63738
429.88        12.63677
430.33        12.50829
430.77        12.33349
431.22        12.50808
431.66        12.96477
432.11        13.17906
432.56        13.06575
433.00        12.92823
433.45        12.80107
433.89        12.47753
434.34        12.13558
434.78        12.22557
435.23          12.636
435.67        12.78979
436.12         12.6417
436.57        12.50417
437.01        12.44663
437.46        12.45402
437.90        12.54214
438.35        12.69869
438.79        12.86008
439.24        12.90694
439.68        12.83512
440.13        12.73219
440.57        12.61195
441.02        12.50623
441.46        12.43648
441.91        12.30775
442.35        12.15826
442.80        12.30362
443.24        12.62274
443.69        12.52009
444.13        12.06741
444.58        11.88101
445.02        11.96967
445.47        12.01152
445.91        11.98221
446.36        12.00278
446.80        12.06294
447.24        12.13484
447.69        12.20621
448.13        12.25924
448.58        12.28963
449.02        12.30073
449.47        12.30803
449.91        12.32995
450.36        12.37064
450.80        12.42174
451.25        12.46542
451.69        12.47273
452.13        12.43652
452.58        12.37455
453.02        12.29993
453.47          12.233
453.91        12.17877
454.36        12.16827
454.80        12.14001
455.24        12.13431
455.69        12.13412
456.13        12.13974
456.58        12.15444
457.02        12.17016
457.46        12.18801
457.91        12.20527
458.35        12.21995
458.79        12.23471
459.24        12.25762
459.68        12.29258
460.13         12.3387
460.57        12.33636
461.01        12.37928
461.46         12.3458
461.90        12.29653
462.34        12.39394
462.79        12.58534
463.23        12.59698
463.68         12.4401
464.12          12.366
464.56        12.38351
465.01        12.36743
465.45        12.31168
465.89        12.26085
466.34         12.2387
466.78        12.29244
467.22         12.4239
467.67        12.43489
468.11         12.3236
468.55        12.16471
468.99        12.02623
469.44        11.98085
469.88        12.04685
470.32        12.20608
470.77        12.39118
471.21        12.50606
471.65        12.51749
472.10        12.45948
472.54        12.38024
472.98        12.37055
473.42        12.44882
473.87        12.58092
474.31        12.71602
474.75        12.77883
475.20        12.75777
475.64        12.67907
476.08        12.58461
476.52        12.53371
476.97        12.54353
477.41        12.59142
477.85        12.66458
478.29        12.74079
478.74        12.81316
479.18        12.88247
479.62        12.93668
480.06         12.9881
480.50        13.04329
480.95        12.97937
481.39        13.01526
481.83        13.06132
482.27        13.19176
482.72        13.28275
483.16        13.47786
483.60         13.5632
484.04        13.57441
484.48        13.53221
484.93        13.50244
485.37        13.56106
485.81        13.65698
486.25        13.90768
486.69         13.4981
487.14        13.69462
487.58        14.38864
488.02        14.24785
488.46        14.42179
488.90        14.72099
489.34        14.34994
489.79        14.44961
490.23        14.57928
490.67        14.81523
491.11         15.0361
491.55         15.0228
491.99         14.8534
492.43         14.8879
492.88          15.149
493.32        15.40567
493.76        15.60693
494.20        15.80258
494.64        15.98255
495.08        16.12628
495.52        16.23441
495.96        16.35375
496.41        16.49655
496.85        16.55206
497.29         16.5448
497.73        16.81248
498.17         17.0896
498.61        17.11987
499.05        16.88894
499.49        16.81734
499.93        16.94663
500.37        17.11318
500.82        17.27754
501.26        17.41683
501.70        17.51445
502.14        17.60157
502.58        17.69977
503.02        17.82114
503.46        17.97024
503.90        18.14247
504.34        18.31161
504.78        18.43368
505.22        18.49707
505.66        18.51124
506.10        18.49723
506.54        18.51043
506.98        18.56757
507.42        18.61913
507.86        18.63444
508.30        18.77456
508.74        18.69128
509.18        18.67485
509.62        18.65583
510.06        18.69238
510.50        18.79256
510.94        18.94419
511.38        19.11124
511.82        19.22433
512.26        19.26469
512.70        19.24825
513.14        19.21342
513.58        19.22173
514.02        19.28692
514.46        19.38963
514.90        19.49062
515.34        19.52655
515.78        19.48411
516.22        19.38765
516.66        19.27958
517.10        19.22439
517.54        19.23694
517.98        19.29425
518.42        19.36503
518.86        19.39862
519.30         19.3809
519.74        19.33217
520.18        19.26697
520.62        19.20565
521.06        19.15851
521.50        19.11895
521.93        19.09667
522.37        19.10327
522.81        19.13891
523.25        19.19593
523.69         19.2549
524.13        19.28554
524.57        19.27829
525.01        19.23851
525.45        19.17267
525.89        19.09453
526.32        19.01002
526.76        18.92353
527.20        18.83791
527.64        18.75804
528.08        18.68587
528.52        18.62277
528.96        18.57142
529.40        18.53337
529.83         18.5069
530.27        18.49362
530.71        18.48205
531.15        18.45779
531.59        18.41605
532.03        18.35575
532.46        18.28992
532.90        18.24614
533.34        18.22788
533.78        18.23168
534.22        18.23046
534.66        18.18138
535.09        18.07944
535.53        17.94668
535.97        17.82551
536.41        17.78915
536.85        17.85003
537.28        17.98003
537.72        18.12977
538.16        18.22316
538.60        18.23959
539.04        18.20777
539.47        18.14603
539.91        18.10152
540.35        18.08597
540.79         18.0903
541.22        18.12603
541.66        18.21591
542.10        18.35663
542.54        18.54302
542.97        18.74523
543.41        18.91497
543.85        19.04114
544.29         19.1398
544.72        19.22223
545.16        19.32346
545.60        19.45151
546.04        19.58673
546.47          19.735
546.91         19.9367
547.35        20.17359
547.79         20.3739
548.22        20.51762
548.66        20.68397
549.10        20.87779
549.53        20.99087
549.97         20.9994
550.41        21.29871
550.84        21.25583
551.28        21.35228
551.72        21.40306
552.15        21.60199
552.59        21.68084
553.03        21.85209
553.46        22.02326
553.90         22.1701
554.34         22.2806
554.77        22.38362
555.21        22.48591
555.65         22.5383
556.08        22.56444
556.52        22.67072
556.96        22.83642
557.39        22.97548
557.83        23.07487
558.27        23.12803
558.70        23.16924
559.14        23.28106
559.57        23.44882
560.01        23.62621
560.45        23.77353
560.88        23.76504
561.32        23.74596
561.75        23.73929
562.19        23.79503
562.63        23.82383
563.06        23.82846
563.50        23.87861
563.93        23.96148
564.37        24.04561
564.80        24.12005
565.24        24.20131
565.68        24.28584
566.11        24.38314
566.55        24.49419
566.98        24.57827
567.42        24.67201
567.85        24.78683
568.29        24.92806
568.72        25.15629
569.16        25.47986
569.60         25.4139
570.03        25.74438
570.47        25.84599
570.90         25.8616
571.34        26.12242
571.77        26.13632
572.21        26.27722
572.64        26.38348
573.08        26.51027
573.51         26.6936
573.95        26.72871
574.38        27.00819
574.82        27.09237
