SpectraSmart Spectrum 2.9.0.0
--------- Device Information -----------
Spectrum Name :  反射率_0
Saving Time :  2024/04/27 22:37:52
Spectro-Module Model Name : SE2030-DUVN
Spectro-Module Serial Number : OS361AC55029948
Wavelength Start : 200
Wavelength End : 1025
Wavelength Unit : Wavelength(nm)
Spectrum Unit : Reflectance(%)
-----------Spectrum Setting ------------
Integration Time : 20ms
Average : 10
Boxcar : 0
Background removal :  enabled
linearity correction :  enabled
SC :  disabled
Intensity correction :  disabled
DWT denoise :  enabled
savitzky-golay :  disabled
FFT :  disabled
Running average :  disabled
Kalman :  disabled
High pass :  disabled
---------------BEGIN--------------------
Wavelength(nm)             Reflectance(%)
200.29               0
200.75        49.76837
201.21        53.51529
201.67        54.84313
202.13        54.23826
202.58        52.55944
203.04         50.6524
203.50        50.77174
203.96        55.60287
204.42        63.89122
204.88        73.26157
205.34        81.59366
205.80        87.79832
206.26        92.52247
206.72        96.85439
207.18        100.3933
207.64        99.73203
208.10        94.34734
208.55        88.31287
209.01        83.19719
209.47        78.13161
209.93        70.57214
210.39        54.04083
210.85        5.095466
211.31       -62.12224
211.77        1.625538
212.23        48.75283
212.69        66.18373
213.14        71.74633
213.60        71.33422
214.06        67.08208
214.52        58.13306
214.98         50.4929
215.44        51.87119
215.90         56.6237
216.36        61.13205
216.81        64.58968
217.27         67.1883
217.73         69.6959
218.19        71.29374
218.65        70.10719
219.11        65.69363
219.57        58.41066
220.02        49.37011
220.48        43.46814
220.94         42.7097
221.40        45.48627
221.86        50.56844
222.32        56.60051
222.77        62.61481
223.23        68.35331
223.69        72.55267
224.15          73.793
224.61        72.31226
225.06        68.59219
225.52        64.27284
225.98        62.30706
226.44         63.2249
226.90        65.37488
227.36        67.51645
227.81        68.72324
228.27        69.08295
228.73        68.93888
229.19        68.21698
229.65        66.77281
230.10        64.70779
230.56        62.44679
231.02        60.37543
231.48        59.11494
231.93        58.66967
232.39        58.93235
232.85         59.7112
233.31        60.78433
233.77        61.97956
234.22        63.34988
234.68        64.48113
235.14        64.89574
235.60        64.53526
236.05         63.3614
236.51        61.97127
236.97        61.75925
237.43        63.18505
237.88        66.01781
238.34        68.73306
238.80        69.84634
239.26         68.8831
239.71        65.47469
240.17         59.5018
240.63         55.6933
241.08        58.64104
241.54        65.04327
242.00        70.46413
242.46        73.00744
242.91        73.21657
243.37        70.97673
243.83        64.96051
244.28        56.83318
244.74        55.68089
245.20        61.91537
245.66         67.0882
246.11        66.94335
246.57        61.67106
247.03        51.11239
247.48        35.14088
247.94        24.64302
248.40        30.94425
248.85        46.92881
249.31        63.89267
249.77        75.33005
250.22          81.001
250.68        83.37251
251.14        83.77859
251.59        83.22505
252.05        81.97478
252.51        79.04784
252.96        73.66599
253.42        67.70333
253.88        63.66767
254.33        62.48475
254.79        62.65578
255.25        61.80001
255.70        59.95332
256.16        58.33037
256.62        57.91673
257.07        59.76193
257.53        63.24676
257.99        66.71233
258.44        68.94717
258.90        69.40345
259.35        68.08877
259.81        66.16717
260.27        63.93301
260.72        61.76872
261.18        60.20626
261.63        58.83926
262.09         57.9572
262.55        57.48853
263.00        57.25541
263.46         57.3341
263.91         57.4239
264.37         57.4716
264.83        57.34925
265.28         57.0607
265.74        56.69741
266.19        56.14455
266.65        55.50541
267.11        54.75293
267.56        53.96217
268.02        53.36782
268.47        52.95937
268.93        52.69596
269.38        52.46434
269.84        52.11731
270.30        51.59681
270.75        50.93924
271.21        50.17192
271.66        49.28484
272.12        48.33039
272.57        47.28367
273.03        46.25344
273.48        45.31086
273.94        44.54655
274.39        43.90892
274.85        43.39934
275.31        42.90432
275.76        42.37081
276.22        41.85428
276.67        41.34068
277.13        40.94252
277.58        40.59285
278.04        40.30103
278.49        39.92307
278.95        39.39635
279.40        38.65868
279.86        37.83555
280.31        36.97443
280.77        36.28579
281.22        35.76284
281.68        35.40973
282.13        35.13016
282.59         34.8606
283.04        34.54634
283.50        34.22862
283.95        33.91848
284.41        33.68818
284.86         33.5204
285.32         33.4104
285.77        33.27788
286.22        33.06347
286.68        32.77474
287.13        32.39986
287.59        32.03269
288.04        31.72705
288.50        31.53426
288.95        31.40523
289.41        31.31032
289.86        31.14666
290.32        30.92363
290.77        30.66221
291.22        30.43458
291.68        30.33805
292.13        30.37785
292.59         30.5353
293.04        30.74665
293.50        30.94466
293.95        31.09828
294.40        31.24163
294.86        31.41058
295.31        31.65014
295.77        31.98149
296.22        32.37169
296.68        32.81074
297.13         33.2586
297.58        33.70394
298.04        34.15336
298.49        34.59407
298.95        35.02846
299.40         35.4507
299.85        35.85778
300.31        36.27819
300.76        36.71715
301.21        37.18112
301.67        37.67089
302.12        38.12297
302.58        38.49331
303.03        38.75365
303.48        38.92786
303.94        39.10142
304.39        39.35048
304.84        39.70214
305.30        40.13183
305.75        40.52037
306.20        40.73374
306.66        40.76449
307.11        40.63435
307.57        40.47721
308.02        40.42837
308.47        40.53537
308.93        40.74696
309.38        40.95059
309.83        41.00898
310.29        40.90222
310.74        40.66832
311.19        40.38698
311.65        40.17742
312.10        40.05667
312.55        39.99262
313.00        39.95488
313.46        39.89927
313.91        39.80322
314.36        39.69023
314.82         39.5501
315.27        39.35886
315.72        39.12242
316.18        38.85524
316.63        38.58841
317.08        38.39789
317.53        38.29567
317.99        38.25139
318.44        38.23234
318.89         38.1659
319.35        38.03216
319.80        37.86068
320.25        37.65857
320.70        37.44407
321.16        37.22298
321.61        36.99163
322.06        36.78325
322.51         36.6579
322.97        36.61648
323.42        36.65895
323.87        36.70083
324.32        36.60793
324.78        36.34878
325.23        35.96972
325.68        35.56983
326.13        35.32562
326.59        35.26815
327.04        35.36449
327.49        35.50521
327.94        35.52015
328.39        35.35756
328.85         35.0602
329.30        34.70797
329.75        34.41605
330.20        34.23233
330.66          34.111
331.11        34.04091
331.56        33.95005
332.01        33.81985
332.46        33.67938
332.92        33.54559
333.37        33.47817
333.82        33.47674
334.27        33.51353
334.72        33.56881
335.17        33.61735
335.63        33.63562
336.08        33.64848
336.53        33.62328
336.98        33.52273
337.43        33.35002
337.88        33.12272
338.34        32.89952
338.79         32.7838
339.24         32.8003
339.69         32.9228
340.14        33.09448
340.59        33.21996
341.05        33.26424
341.50        33.24963
341.95        33.19615
342.40        33.14747
342.85        33.11638
343.30        33.08831
343.75         33.0419
344.20        32.94592
344.66        32.80667
345.11        32.64568
345.56        32.50484
346.01        32.44266
346.46         32.4688
346.91        32.55385
347.36        32.67528
347.81        32.79635
348.26        32.90012
348.72        33.00048
349.17        33.06258
349.62        33.03465
350.07        32.91337
350.52        32.70425
350.97        32.49773
351.42        32.44199
351.87        32.55771
352.32        32.79884
352.77        33.02993
353.22        33.04081
353.67        32.79353
354.13        32.37231
354.58        31.89336
355.03        31.59515
355.48        31.54178
355.93        31.66741
356.38        31.85752
356.83          31.933
357.28        31.84505
357.73        31.64659
358.18        31.42224
358.63        31.30205
359.08        31.30777
359.53        31.38202
359.98        31.43874
360.43        31.34956
360.88        31.09231
361.33        30.72433
361.78        30.31097
362.23        29.98656
362.68        29.79642
363.13        29.63796
363.58         29.4892
364.03        29.63824
364.48        29.53827
364.93        29.60962
365.38        29.63824
365.83        29.54509
366.28         29.3111
366.73        28.96294
367.18        28.57534
367.63         28.2622
368.08         28.0572
368.53        27.93193
368.98        27.83734
369.43        27.68729
369.88        27.46301
370.33        27.20288
370.78        26.94069
371.23        26.72962
371.68        26.58155
372.13        26.46159
372.58        26.36988
373.03        26.30939
373.48        26.27097
373.93        26.26625
374.38        26.22781
374.83        26.04698
375.28        25.71905
375.72        25.26935
376.17        24.85921
376.62        24.70082
377.07        24.82455
377.52        25.14456
377.97        25.49714
378.42        25.62525
378.87        25.46851
379.32         25.1181
379.77        24.67937
380.22        24.31175
380.67        24.06583
381.11        23.88993
381.56        23.77077
382.01        23.68961
382.46        23.63332
382.91         23.6222
383.36          23.617
383.81        23.54643
384.26        23.40014
384.71        23.19047
385.15        22.97111
385.60        22.86701
386.05        22.88632
386.50        22.99182
386.95        23.11215
387.40        23.13478
387.85        23.04067
388.29        22.86344
388.74        22.68381
389.19        22.56234
389.64        22.50985
390.09        22.48373
390.54        22.47625
390.98        22.47403
391.43        22.47517
391.88        22.48932
392.33        22.45408
392.78        22.31426
393.23        22.08531
393.67         21.6977
394.12        21.28705
394.57        21.29529
395.02        21.36503
395.47        21.41197
395.91        21.31422
396.36        21.29488
396.81          21.348
397.26         21.3364
397.71        21.26337
398.15        21.21342
398.60         21.2163
399.05        21.15884
399.50         21.0858
399.95        21.20232
400.39        21.44244
400.84        21.47702
401.29        21.29785
401.74        21.10448
402.18        20.96026
402.63         20.9095
403.08        20.92757
403.53         20.8561
403.97        20.69587
404.42        20.57927
404.87        20.52489
405.32        20.51728
405.76        20.55342
406.21        20.58007
406.66        20.59973
407.11        20.71708
407.55        20.86938
408.00        20.83697
408.45        20.62501
408.90        20.32204
409.34        20.04301
409.79        20.03959
410.24        20.25409
410.68        20.33137
411.13        20.24179
411.58        20.20744
412.03         20.2426
412.47        20.26076
412.92        20.25119
413.37        20.24413
413.81        20.22823
414.26         20.2026
414.71        20.16456
415.15        20.11779
415.60        20.07545
416.05        20.07215
416.49        20.11639
416.94        20.19257
417.39        20.27724
417.83         20.3362
418.28        20.35289
418.73        20.32678
419.17        20.27886
419.62        20.24751
420.07        20.25102
420.51        20.29003
420.96        20.32548
421.41        20.32042
421.85        20.26512
422.30         20.0814
422.74        19.87562
423.19        20.05495
423.64        20.53901
424.08         20.7719
424.53        20.64709
424.98        20.58267
425.42        20.59292
425.87         20.2923
426.31        19.83089
426.76        19.86394
427.21        20.30379
427.65        20.40195
428.10        20.16759
428.54        20.13246
428.99        20.29494
429.44         20.5453
429.88        20.73953
430.33        20.40261
430.77        19.76473
431.22        19.70323
431.66        20.18888
432.11        20.55081
432.56        20.67052
433.00        20.72844
433.45        20.57088
433.89        20.15002
434.34         19.8652
434.78        19.00647
435.23        19.93311
435.67        20.65285
436.12        20.87131
436.57        20.83413
437.01        20.45721
437.46        20.25264
437.90         20.3572
438.35        20.62224
438.79        20.35751
439.24        20.32373
439.68        20.33862
440.13        20.35697
440.57        20.36603
441.02        20.52728
441.46        20.77931
441.91        20.64816
442.35        20.27728
442.80        20.52098
443.24        21.20226
443.69        21.16595
444.13        20.48512
444.58        20.21303
445.02        20.36965
445.47        20.41769
445.91        20.32443
446.36        20.31169
446.80        20.36817
447.24        20.41995
447.69        20.46802
448.13        20.56355
448.58        20.67367
449.02        20.68369
449.47        20.60853
449.91        20.56571
450.36         20.5687
450.80        20.54683
451.25        20.50612
451.69        20.48578
452.13        20.48295
452.58        20.47029
453.02        20.44853
453.47        20.42921
453.91        20.41088
454.36        20.42276
454.80        20.43055
455.24        20.35537
455.69        20.24228
456.13        20.13504
456.58        20.08468
457.02        20.24302
457.46        20.49463
457.91        20.46641
458.35        20.27199
458.79        20.21619
459.24         20.3332
459.68        20.42361
460.13        20.46933
460.57         20.4131
461.01        20.34184
461.46        20.28793
461.90        20.17264
462.34        20.09721
462.79        20.38144
463.23        20.46186
463.68        20.42819
464.12        20.37415
464.56        20.32358
465.01        20.33935
465.45        20.35089
465.89        20.24184
466.34        20.08452
466.78         19.9765
467.22        19.91414
467.67        20.31228
468.11        20.25631
468.55        20.25752
468.99        20.09191
469.44         20.0359
469.88        20.09863
470.32        20.11924
470.77        20.10136
471.21        20.11702
471.65        20.16913
472.10        20.24047
472.54        20.30166
472.98        20.33706
473.42        20.34916
473.87        20.29169
474.31        20.20177
474.75        20.32352
475.20        20.59318
475.64        20.61316
476.08        20.41285
476.52        20.42955
476.97        20.69075
477.41         20.7673
477.85         20.8171
478.29        21.05861
478.74        20.94421
479.18        20.74005
479.62        20.99655
480.06        20.97916
480.50        20.92453
480.95        20.82327
481.39        20.67808
481.83        20.93311
482.27        20.96301
482.72        20.93593
483.16        21.28744
483.60        21.37799
484.04        21.37051
484.48        21.37097
484.93        21.53644
485.37        21.39934
485.81        21.97225
486.25        22.29022
486.69         22.0058
487.14          21.863
487.58        22.60556
488.02        22.20947
488.46        22.43025
488.90        22.87291
489.34        22.17941
489.79        21.91826
490.23        22.48459
490.67         22.7464
491.11        22.89233
491.55        22.95306
491.99        22.97946
492.43        23.08442
492.88        23.26731
493.32         23.4057
493.76        23.48359
494.20        23.60522
494.64        23.79209
495.08        23.93863
495.52        24.05508
495.96        24.37326
496.41        24.84459
496.85        24.84344
497.29        24.51256
497.73        24.71016
498.17        25.34243
498.61        25.66305
499.05        25.57482
499.49        25.47587
499.93        25.45406
500.37        25.47437
500.82         25.5418
501.26         25.6996
501.70        25.96091
502.14        25.78924
502.58        26.10384
503.02         26.2161
503.46        26.28649
503.90        26.34663
504.34        26.39107
504.78        26.49744
505.22        26.65693
505.66        26.79895
506.10         26.9112
506.54        27.04888
506.98        27.21248
507.42        27.25641
507.86         27.3863
508.30        27.42019
508.74        27.42486
509.18        27.39941
509.62        27.37334
510.06        27.38996
510.50        27.45726
510.94        27.56551
511.38        27.68836
511.82        27.78148
512.26        27.83241
512.70         27.8558
513.14        27.86781
513.58        27.88434
514.02        27.91164
514.46        27.96074
514.90        28.03242
515.34        28.03053
515.78        28.11196
516.22        28.14587
516.66        28.17771
517.10        28.19745
517.54        28.20477
517.98        28.20154
518.42        28.18176
518.86         28.1413
519.30        28.08341
519.74        28.01249
520.18        27.95035
520.62        27.92871
521.06        27.95398
521.50        28.01922
521.93        28.09752
522.37        28.13545
522.81        28.12155
523.25        28.06189
523.69        27.98849
524.13         27.9535
524.57        27.96579
525.01        28.01064
525.45        28.04014
525.89        27.97898
526.32        27.81431
526.76        27.58416
527.20        27.35419
527.64        27.23095
528.08         27.2366
528.52         27.3325
528.96         27.4591
529.40        27.52243
529.83        27.49426
530.27         27.4086
530.71        27.28915
531.15        27.17514
531.59        27.08364
532.03        27.00114
532.46        26.93326
532.90        26.90481
533.34        26.91256
533.78          26.954
534.22        27.00544
534.66        27.02759
535.09        27.00858
535.53        26.96241
535.97         26.9061
536.41        26.87372
536.85        26.87446
537.28        26.90087
537.72        26.93562
538.16        26.94667
538.60        26.93082
539.04        26.90792
539.47        26.89403
539.91        26.92784
540.35        27.00914
540.79        27.12983
541.22        27.26648
541.66        27.38438
542.10        27.47166
542.54        27.53763
542.97        27.59333
543.41        27.67375
543.85        27.78083
544.29         27.9049
544.72        28.03014
545.16        28.15166
545.60        28.26283
546.04        28.37177
546.47        28.48595
546.91        28.62631
547.35        28.79451
547.79        28.95095
548.22        29.09353
548.66        29.31101
549.10        29.56886
549.53        29.74834
549.97         29.8602
550.41        30.01488
550.84        30.21624
551.28        30.40438
551.72        30.56701
552.15        30.70981
552.59        30.83868
553.03        30.94354
553.46        31.04405
553.90        31.19371
554.34        31.39328
554.77        31.64082
555.21        31.88942
555.65        32.06268
556.08        32.11444
556.52        32.14202
556.96        32.17601
557.39        32.31079
557.83        32.53387
558.27         32.6811
558.70        32.74237
559.14         32.8242
559.57        32.91608
560.01        32.99445
560.45         33.0451
560.88        33.02814
561.32        33.01586
561.75        33.09128
562.19        33.25638
562.63        33.49482
563.06        33.71687
563.50        33.67337
563.93        33.43299
564.37        33.39871
564.80        33.58691
565.24        33.79914
565.68        33.98702
566.11        34.15728
566.55        34.30515
566.98        34.43341
567.42        34.55519
567.85         34.6491
568.29        34.75618
568.72         34.8478
569.16        34.95324
569.60        35.18126
570.03         35.5486
570.47         35.6457
570.90        35.87057
571.34        36.37516
571.77        36.41662
572.21        36.30183
572.64        36.59304
573.08        36.41043
573.51        36.76779
573.95        36.92159
574.38        36.98423
574.82        37.31244
