SpectraSmart Spectrum 2.9.0.0
--------- Device Information -----------
Spectrum Name :  反射率_0
Saving Time :  2024/04/27 22:48:33
Spectro-Module Model Name : SE2030-DUVN
Spectro-Module Serial Number : OS361AC55029948
Wavelength Start : 200
Wavelength End : 1025
Wavelength Unit : Wavelength(nm)
Spectrum Unit : Reflectance(%)
-----------Spectrum Setting ------------
Integration Time : 20ms
Average : 10
Boxcar : 0
Background removal :  enabled
linearity correction :  enabled
SC :  disabled
Intensity correction :  disabled
DWT denoise :  enabled
savitzky-golay :  disabled
FFT :  disabled
Running average :  disabled
Kalman :  disabled
High pass :  disabled
---------------BEGIN--------------------
Wavelength(nm)             Reflectance(%)
200.29               0
200.75        52.98039
201.21        62.30285
201.67        65.91808
202.13        63.34456
202.58        56.61565
203.04        47.94282
203.50        40.46154
203.96        38.73669
204.42        42.61692
204.88        49.25505
205.34        55.70492
205.80        59.89537
206.26        61.73164
206.72        61.17845
207.18        58.57777
207.64        57.01094
208.10        58.37379
208.55         61.5398
209.01        61.78318
209.47        56.48266
209.93        42.68312
210.39        6.849808
210.85       -100.8489
211.31       -229.7973
211.77       -72.48745
212.23        30.15634
212.69         66.3538
213.14          77.649
213.60        77.80363
214.06        70.12262
214.52        53.04581
214.98        37.98262
215.44        40.00002
215.90        49.42394
216.36        57.88853
216.81        62.50623
217.27        64.30618
217.73        65.36828
218.19        66.15461
218.65        66.87234
219.11        67.79102
219.57        68.66016
220.02        69.57258
220.48        71.78648
220.94        74.68004
221.40        77.38229
221.86        79.23705
222.32         79.8072
222.77          79.305
223.23        78.22233
223.69        76.75315
224.15        74.90073
224.61        72.74597
225.06        70.16892
225.52        68.07681
225.98        67.75432
226.44        69.10995
226.90        71.10225
227.36        72.86113
227.81        73.75488
228.27        73.93534
228.73        73.55331
229.19        72.61723
229.65        71.22908
230.10         69.4974
230.56         67.7476
231.02         66.1256
231.48         64.8934
231.93        64.04541
232.39         63.6972
232.85        63.78363
233.31        64.26483
233.77        65.04768
234.22        66.10253
234.68        67.15759
235.14         67.9446
235.60        68.43383
236.05        68.64288
236.51        68.84512
236.97        69.57494
237.43        70.93102
237.88        72.84153
238.34        74.50741
238.80        75.54494
239.26        75.88132
239.71        75.48522
240.17        74.28767
240.63        73.77387
241.08        75.09585
241.54        77.06196
242.00        78.27605
242.46        77.83389
242.91        75.52975
243.37        69.90683
243.83        58.33313
244.28        44.03965
244.74        43.94688
245.20        58.29397
245.66        70.64742
246.11        74.38082
246.57         71.1644
247.03        61.14794
247.48        44.47712
247.94        33.45022
248.40        40.40191
248.85        58.00297
249.31        74.99101
249.77        82.54097
250.22        82.14785
250.68        78.33037
251.14        74.62692
251.59        73.93734
252.05        76.66196
252.51        82.15062
252.96        88.96404
253.42        91.51268
253.88        86.82218
254.33        79.45368
254.79        73.64357
255.25        70.40665
255.70        69.05119
256.16        69.08861
256.62        70.44707
257.07        73.14922
257.53        76.71286
257.99         80.0606
258.44        82.13937
258.90        82.60371
259.35          81.393
259.81        79.61374
260.27        77.58463
260.72         75.7551
261.18        74.63624
261.63        73.66822
262.09        73.05198
262.55        72.50482
263.00        71.86115
263.46        71.36507
263.91        70.80385
264.37        70.33137
264.83        69.85685
265.28         69.3163
265.74        68.81118
266.19        68.17648
266.65        67.50374
267.11        66.74689
267.56        65.93575
268.02        65.24584
268.47        64.64467
268.93        64.11689
269.38        63.55693
269.84        62.84681
270.30        61.95201
270.75        60.91455
271.21         59.8102
271.66        58.68969
272.12        57.60957
272.57        56.50554
273.03        55.43963
273.48        54.39811
273.94        53.45212
274.39        52.56637
274.85           51.75
275.31        50.87923
275.76        49.92041
276.22        48.96288
276.67        48.04058
277.13        47.35561
277.58        46.84387
278.04        46.49186
278.49        46.11006
278.95        45.58611
279.40        44.82538
279.86        43.96572
280.31        43.03928
280.77        42.25536
281.22        41.60131
281.68        41.09181
282.13         40.6331
282.59        40.18515
283.04        39.69294
283.50         39.2043
283.95        38.73288
284.41        38.36481
284.86         38.0835
285.32        37.88977
285.77        37.69418
286.22        37.42957
286.68        37.10346
287.13        36.70551
287.59        36.33385
288.04        36.04213
288.50        35.88354
288.95        35.79798
289.41         35.7625
289.86         35.6793
290.32        35.55568
290.77        35.40246
291.22        35.27217
291.68        35.23146
292.13        35.28309
292.59        35.43012
293.04         35.6342
293.50        35.87012
293.95        36.12135
294.40        36.41511
294.86        36.78561
295.31        37.27192
295.77        37.88678
296.22        38.58955
296.68        39.35262
297.13        40.10545
297.58        40.82088
298.04        41.50656
298.49        42.14553
298.95        42.75079
299.40        43.32259
299.85         43.8649
300.31        44.41676
300.76        44.99677
301.21        45.61171
301.67        46.25567
302.12        46.86352
302.58        47.40047
303.03        47.83184
303.48        48.19573
303.94        48.54613
304.39        48.89838
304.84        49.28548
305.30        49.70311
305.75        50.10778
306.20        50.49606
306.66        50.86898
307.11        51.18476
307.57        51.46638
308.02        51.66467
308.47        51.79207
308.93        51.86818
309.38        51.85802
309.83        51.75574
310.29        51.58616
310.74        51.34846
311.19        51.11542
311.65        50.99161
312.10        50.97663
312.55        51.04516
313.00        51.13882
313.46        51.16461
313.91        51.08681
314.36        50.93811
314.82        50.72792
315.27         50.4734
315.72        50.19053
316.18        49.87748
316.63        49.56182
317.08        49.31504
317.53        49.14699
317.99        49.04076
318.44        48.94276
318.89        48.74149
319.35         48.4193
319.80        48.02085
320.25        47.61628
320.70        47.32551
321.16        47.16885
321.61        47.10706
322.06        47.09117
322.51        47.04821
322.97        46.93743
323.42        46.79502
323.87        46.58979
324.32        46.28267
324.78        45.87534
325.23        45.39571
325.68        44.91461
326.13        44.56439
326.59        44.36429
327.04        44.30636
327.49        44.31145
327.94        44.25451
328.39         44.0921
328.85        43.84528
329.30        43.55969
329.75        43.27878
330.20        43.03038
330.66        42.78604
331.11        42.57566
331.56        42.38816
332.01         42.2226
332.46        42.08579
332.92        41.96906
333.37        41.90194
333.82        41.86492
334.27        41.84433
334.72        41.82155
335.17        41.76964
335.63        41.67148
336.08        41.56243
336.53        41.42711
336.98        41.26088
337.43        41.07587
337.88        40.87757
338.34        40.71785
338.79        40.69196
339.24        40.80673
339.69        41.02736
340.14        41.26349
340.59        41.36844
341.05        41.30177
341.50        41.10911
341.95        40.84472
342.40        40.60957
342.85        40.43769
343.30        40.29802
343.75        40.18121
344.20        40.07142
344.66        39.96631
345.11         39.8824
345.56        39.80442
346.01        39.69681
346.46        39.55862
346.91        39.39672
347.36        39.26028
347.81        39.22629
348.26         39.3035
348.72        39.46407
349.17        39.63433
349.62        39.70158
350.07        39.63347
350.52        39.45213
350.97        39.23057
351.42        39.08776
351.87        39.05202
352.32        39.09413
352.77        39.12384
353.22        39.00383
353.67        38.71299
354.13        38.30996
354.58        37.89225
355.03        37.66678
355.48        37.67206
355.93        37.84038
356.38         38.0249
356.83        37.99667
357.28        37.70922
357.73        37.24667
358.18        36.73624
358.63        36.37452
359.08        36.21208
359.53        36.17859
359.98        36.20549
360.43        36.18762
360.88        36.08815
361.33        35.94264
361.78        35.74928
362.23        35.53311
362.68        35.30923
363.13        35.00615
363.58        34.64367
364.03        34.56175
364.48        34.28247
364.93        34.18428
365.38         34.0722
365.83        33.87529
366.28        33.57445
366.73        33.20179
367.18        32.81639
367.63        32.49953
368.08        32.27709
368.53        32.12764
368.98        32.00955
369.43        31.85439
369.88        31.64392
370.33        31.39854
370.78        31.15442
371.23        30.97069
371.68        30.85549
372.13        30.77817
372.58        30.69868
373.03        30.55527
373.48        30.33476
373.93        30.07008
374.38        29.78012
374.83        29.49044
375.28        29.22044
375.72        28.95505
376.17        28.75312
376.62        28.66226
377.07        28.67732
377.52        28.76514
377.97        28.85905
378.42         28.8537
378.87        28.72455
379.32        28.51192
379.77        28.24302
380.22        27.96099
380.67        27.68871
381.11        27.41282
381.56        27.17708
382.01          27.055
382.46        27.05251
382.91        27.14833
383.36        27.25114
383.81        27.21319
384.26         27.0068
384.71        26.67968
385.15        26.31132
385.60        26.06574
386.05        25.97047
386.50        25.97571
386.95        26.03098
387.40        26.05744
387.85        26.02931
388.29        25.96057
388.74        25.88504
389.19         25.7877
389.64        25.67001
390.09        25.51819
390.54        25.36272
390.98        25.25465
391.43        25.21747
391.88        25.23837
392.33        25.25041
392.78        25.19687
393.23        25.08048
393.67        24.81158
394.12        24.49857
394.57        24.58566
395.02         24.6495
395.47        24.60907
395.91        24.36121
396.36        24.23007
396.81        24.23002
397.26        24.18596
397.71        24.08846
398.15         24.0109
398.60        23.97869
399.05        23.87591
399.50        23.74742
399.95        23.80982
400.39        23.98866
400.84        23.92089
401.29        23.61884
401.74        23.34129
402.18         23.1697
402.63          23.142
403.08        23.22161
403.53        23.21547
403.97        23.10956
404.42        23.04795
404.87        23.03746
405.32        23.04076
405.76        23.05203
406.21        23.01982
406.66        22.95761
407.11        22.99923
407.55        23.08342
408.00        22.96645
408.45        22.67212
408.90        22.32358
409.34           22.05
409.79        22.12141
410.24        22.44818
410.68        22.59353
411.13        22.51252
411.58        22.46035
412.03         22.4736
412.47        22.49503
412.92        22.52021
413.37        22.56376
413.81        22.59228
414.26        22.57568
414.71        22.50396
415.15        22.39427
415.60         22.2656
416.05        22.16656
416.49        22.11535
416.94        22.09197
417.39         22.0879
417.83        22.08983
418.28        22.08233
418.73        22.06256
419.17          22.021
419.62        21.94568
420.07        21.84706
420.51        21.73983
420.96        21.62968
421.41        21.55059
421.85        21.50437
422.30        21.38456
422.74        21.24753
423.19        21.44635
423.64        21.87847
424.08        21.97286
424.53        21.68166
424.98        21.54875
425.42         21.6116
425.87        21.42924
426.31        21.09507
426.76        21.20923
427.21        21.65625
427.65        21.66693
428.10        21.29221
428.54        21.17263
428.99        21.32551
429.44        21.55681
429.88        21.71698
430.33        21.43426
430.77        20.88013
431.22        20.72963
431.66        20.99204
432.11        21.26163
432.56        21.45157
433.00        21.53091
433.45        21.32432
433.89        20.97489
434.34        20.82278
434.78        19.82462
435.23        20.51732
435.67        21.15545
436.12        21.47318
436.57        21.54084
437.01        21.22384
437.46        21.05616
437.90        21.16335
438.35        21.38911
438.79        21.04675
439.24        20.96998
439.68        20.97806
440.13        21.01139
440.57        21.02858
441.02        21.14632
441.46        21.29694
441.91        21.03725
442.35         20.5504
442.80        20.71064
443.24        21.35377
443.69        21.36509
444.13        20.78772
444.58        20.58734
445.02        20.77164
445.47        20.83588
445.91          20.752
446.36        20.73971
446.80        20.79107
447.24        20.83126
447.69         20.8601
448.13        20.92939
448.58        21.00874
449.02        20.98544
449.47        20.88503
449.91        20.84114
450.36        20.86777
450.80        20.88483
451.25        20.88599
451.69        20.89209
452.13        20.89329
452.58        20.86646
453.02         20.8116
453.47        20.74058
453.91        20.65567
454.36        20.58743
454.80        20.51435
455.24        20.37927
455.69        20.23193
456.13        20.11033
456.58        20.05189
457.02        20.18538
457.46        20.39032
457.91        20.30511
458.35        20.05264
458.79        19.94708
459.24        20.02638
459.68        20.08997
460.13        20.12292
460.57         20.0735
461.01         20.0256
461.46         20.0083
461.90        19.93503
462.34        19.89081
462.79        20.18703
463.23        20.26744
463.68        20.22439
464.12        20.15857
464.56        20.09708
465.01        20.10135
465.45        20.10061
465.89        19.97856
466.34        19.80674
466.78        19.68211
467.22        19.60589
467.67        19.99328
468.11        19.94568
468.55        19.96572
468.99         19.8218
469.44        19.76957
469.88        19.81473
470.32        19.80133
470.77        19.75045
471.21        19.76147
471.65        19.84216
472.10        19.96636
472.54        20.07865
472.98        20.12368
473.42        20.09599
473.87         19.9612
474.31         19.7852
474.75        19.85198
475.20        20.10693
475.64        20.14758
476.08         19.9719
476.52         19.9606
476.97        20.13284
477.41        20.09097
477.85        20.02003
478.29        20.17786
478.74         20.0545
479.18        19.88785
479.62        20.19272
480.06        20.24463
480.50         20.2582
480.95        20.22574
481.39        20.13736
481.83        20.41041
482.27        20.43243
482.72        20.36477
483.16         20.6458
483.60        20.69157
484.04        20.67627
484.48        20.66309
484.93        20.80631
485.37        20.68852
485.81        21.24454
486.25        21.34383
486.69        21.24742
487.14        20.77861
487.58        21.66589
488.02        21.57631
488.46        21.61361
488.90        21.85495
489.34        21.43421
489.79        21.13131
490.23        21.54497
490.67        21.78516
491.11        22.02386
491.55        22.07635
491.99        21.99802
492.43        22.07194
492.88        22.30348
493.32        22.48215
493.76        22.58478
494.20        22.73975
494.64        22.96153
495.08        23.13685
495.52        23.26688
495.96         23.5584
496.41        23.96492
496.85        23.90292
497.29        23.52205
497.73        23.63307
498.17        24.16022
498.61         24.4459
499.05        24.39806
499.49        24.33845
499.93        24.34388
500.37        24.41337
500.82          24.532
501.26        24.69364
501.70        24.90394
502.14        24.65991
502.58         24.8695
503.02         24.9196
503.46        24.97454
503.90        25.05205
504.34        25.12164
504.78        25.21462
505.22        25.31289
505.66        25.36553
506.10        25.38664
506.54        25.46716
506.98        25.61826
507.42        25.69071
507.86        25.86031
508.30         25.9273
508.74        25.94486
509.18        25.91853
509.62          25.887
510.06        25.90862
510.50        25.99417
510.94        26.12697
511.38        26.26751
511.82        26.35251
512.26        26.36688
512.70        26.33311
513.14        26.28514
513.58        26.26714
514.02         26.2926
514.46        26.36379
514.90         26.4663
515.34        26.48377
515.78        26.55816
516.22        26.57562
516.66        26.58939
517.10        26.60601
517.54        26.62964
517.98        26.65412
518.42        26.67025
518.86         26.6701
519.30         26.6513
519.74        26.61594
520.18        26.57722
520.62        26.55392
521.06        26.55034
521.50        26.56459
521.93        26.57752
522.37         26.5487
522.81        26.47551
523.25        26.36685
523.69        26.25831
524.13        26.20602
524.57        26.21745
525.01        26.27212
525.45        26.32275
525.89        26.29445
526.32        26.16933
526.76        25.98328
527.20        25.77814
527.64        25.62461
528.08        25.54254
528.52        25.50646
528.96        25.49879
529.40        25.49136
529.83        25.47012
530.27        25.44984
530.71        25.41397
531.15        25.33628
531.59        25.21747
532.03        25.06393
532.46         24.9129
532.90        24.83977
533.34         24.8541
533.78        24.93458
534.22        25.03314
534.66        25.07512
535.09        25.04059
535.53        24.95657
535.97        24.85643
536.41        24.79807
536.85        24.79693
537.28        24.83544
537.72        24.88655
538.16        24.90458
538.60        24.88079
539.04        24.83889
539.47        24.79818
539.91        24.79998
540.35        24.84724
540.79        24.93284
541.22        25.03466
541.66        25.11966
542.10         25.1795
542.54        25.22657
542.97         25.2784
543.41        25.37661
543.85        25.52333
544.29         25.7038
544.72        25.89215
545.16        26.06762
545.60        26.21411
546.04        26.33833
546.47         26.4502
546.91        26.56201
547.35        26.67571
547.79        26.79889
548.22        26.92034
548.66        27.01498
549.10        27.10037
549.53          27.282
549.97        27.54227
550.41        27.75487
550.84        27.90707
551.28        28.06787
551.72        28.24409
552.15        28.41416
552.59        28.58449
553.03         28.7467
553.46        28.89635
553.90        29.05161
554.34        29.20746
554.77        29.37059
555.21        29.51972
555.65        29.62046
556.08        29.64112
556.52         29.6661
556.96        29.70683
557.39        29.81017
557.83         29.9812
558.27        30.06234
558.70        30.07022
559.14        30.13177
559.57        30.24227
560.01        30.36667
560.45        30.47244
560.88         30.4929
561.32        30.48683
561.75        30.54669
562.19        30.68295
562.63         30.8797
563.06        31.06709
563.50        31.04456
563.93        30.86521
564.37        30.85935
564.80        31.03692
565.24        31.23281
565.68        31.41184
566.11        31.58271
566.55        31.73801
566.98        31.88882
567.42        32.02651
567.85        32.06348
568.29        32.05439
568.72        32.07246
569.16        32.15043
569.60        32.30323
570.03        32.54518
570.47        32.60335
570.90        32.87699
571.34        33.25804
571.77        33.44839
572.21        33.54385
572.64        33.91154
573.08        33.78814
573.51         34.0829
573.95        34.15941
574.38        34.20762
574.82        34.15595
