SpectraSmart Spectrum 2.9.0.0
--------- Device Information -----------
Spectrum Name :  反射率_0
Saving Time :  2024/04/27 23:08:38
Spectro-Module Model Name : SE2030-DUVN
Spectro-Module Serial Number : OS361AC55029948
Wavelength Start : 200
Wavelength End : 1025
Wavelength Unit : Wavelength(nm)
Spectrum Unit : Reflectance(%)
-----------Spectrum Setting ------------
Integration Time : 20ms
Average : 10
Boxcar : 0
Background removal :  enabled
linearity correction :  enabled
SC :  disabled
Intensity correction :  disabled
DWT denoise :  enabled
savitzky-golay :  disabled
FFT :  disabled
Running average :  disabled
Kalman :  disabled
High pass :  disabled
---------------BEGIN--------------------
Wavelength(nm)             Reflectance(%)
200.29               0
200.75        -38.6731
201.21       -10.69226
201.67         14.0727
202.13        26.77144
202.58        31.65703
203.04        33.08231
203.50        34.34504
203.96        38.69014
204.42        45.56334
204.88          52.986
205.34        58.89737
205.80         61.9352
206.26        62.10687
206.72        58.86839
207.18        52.44245
207.64         48.4255
208.10        50.88218
208.55        56.97573
209.01        59.73177
209.47        56.08154
209.93        43.57588
210.39        9.298396
210.85        -95.6181
211.31       -224.4439
211.77       -73.60889
212.23        26.65922
212.69        61.56195
213.14        70.57261
213.60        66.74862
214.06        52.45636
214.52        25.81599
214.98         6.98071
215.44        17.09953
215.90        36.92672
216.36        53.26212
216.81        62.94284
217.27        67.98857
217.73        71.20019
218.19         72.3215
218.65        69.93547
219.11        63.89618
219.57        54.29181
220.02        42.62316
220.48        35.18899
220.94        34.63043
221.40         38.9127
221.86         46.3183
222.32        54.91404
222.77        63.35324
223.23        71.25833
223.69        76.96534
224.15        78.65047
224.61         76.6169
225.06        71.54221
225.52         65.3675
225.98        61.90738
226.44        62.10165
226.90        64.00895
227.36        66.14604
227.81        67.34745
228.27        67.61073
228.73         67.3518
229.19        66.38811
229.65        64.38228
230.10        61.48206
230.56        58.25681
231.02        55.34875
231.48        53.70749
231.93        53.37618
232.39        54.09285
232.85        55.55808
233.31        57.39174
233.77        59.31333
234.22        61.36382
234.68        63.03399
235.14        63.74105
235.60        63.41304
236.05        62.01311
236.51        60.18013
236.97        59.46094
237.43        60.45468
237.88        62.99989
238.34        65.52781
238.80        66.41148
239.26        65.09456
239.71        61.06678
240.17        54.45367
240.63        51.09036
241.08        55.89876
241.54        64.46009
242.00        71.16992
242.46        73.74556
242.91        72.75996
243.37        67.43916
243.83        54.80703
244.28        37.82888
244.74        35.29794
245.20        48.55826
245.66        61.04425
246.11        65.23623
246.57         62.7138
247.03        54.78505
247.48        41.75764
247.94        33.61908
248.40        40.17144
248.85        54.56141
249.31        69.14291
249.77        78.47913
250.22        82.61282
250.68        83.83484
251.14        83.60549
251.59        83.00497
252.05         82.1933
252.51        80.23228
252.96        75.68728
253.42         68.5434
253.88        61.00564
254.33        55.61749
254.79        52.57484
255.25        50.06226
255.70        47.63884
256.16        46.05535
256.62        45.67104
257.07         46.9198
257.53        49.37327
257.99        51.84348
258.44        53.59116
258.90         54.3571
259.35        54.01979
259.81        53.26127
260.27        52.11369
260.72        50.64757
261.18        49.31533
261.63        47.94649
262.09         46.8334
262.55        45.96191
263.00        45.23962
263.46        44.73992
263.91        44.34228
264.37        44.16982
264.83        44.12354
265.28        44.14183
265.74         44.1411
266.19        43.84679
266.65        43.30914
267.11        42.55687
267.56         41.7535
268.02        41.25856
268.47        41.08234
268.93        41.11897
269.38        41.15383
269.84        40.87616
270.30        40.21418
270.75        39.29328
271.21        38.25035
271.66        37.24531
272.12        36.37788
272.57        35.57415
273.03        34.90667
273.48        34.40547
273.94          34.095
274.39        33.90771
274.85        33.77256
275.31        33.50175
275.76         33.0442
276.22        32.48856
276.67        31.85708
277.13        31.28662
277.58        30.76265
278.04        30.29297
278.49        29.83066
278.95        29.41965
279.40        29.00496
279.86        28.64253
280.31        28.26664
280.77        27.89159
281.22        27.48544
281.68        27.10499
282.13        26.73979
282.59        26.42364
283.04        26.14046
283.50        25.88104
283.95        25.65415
284.41        25.51422
284.86        25.43543
285.32        25.41145
285.77        25.34107
286.22        25.11081
286.68        24.72873
287.13        24.21741
287.59        23.70363
288.04        23.30819
288.50        23.09275
288.95         22.9888
289.41        22.96046
289.86        22.90827
290.32        22.82009
290.77        22.71792
291.22        22.61495
291.68         22.5242
292.13        22.44329
292.59        22.36922
293.04        22.31641
293.50        22.33685
293.95        22.42826
294.40        22.59228
294.86        22.78329
295.31        22.91815
295.77        22.99271
296.22        23.02193
296.68        23.08594
297.13        23.29012
297.58        23.65562
298.04        24.13347
298.49        24.63309
298.95        25.02667
299.40         25.2828
299.85        25.43923
300.31        25.57501
300.76        25.78064
301.21        26.08831
301.67        26.46322
302.12        26.83146
302.58        27.11536
303.03        27.28476
303.48        27.37409
303.94        27.45645
304.39        27.59973
304.84        27.83052
305.30        28.12739
305.75        28.40545
306.20        28.56698
306.66        28.60779
307.11        28.54001
307.57        28.46725
308.02        28.49321
308.47        28.64767
308.93        28.87985
309.38        29.09197
309.83        29.15459
310.29        29.05278
310.74        28.83129
311.19        28.55733
311.65        28.33386
312.10        28.18262
312.55        28.07693
313.00        28.02485
313.46        28.04069
313.91        28.10638
314.36        28.21666
314.82        28.29611
315.27        28.21617
315.72        27.95841
316.18        27.57157
316.63        27.14204
317.08        26.83085
317.53        26.68181
317.99        26.64722
318.44        26.67776
318.89        26.67514
319.35        26.60442
319.80        26.49389
320.25        26.35776
320.70        26.22232
321.16        26.08896
321.61        25.94736
322.06        25.78535
322.51        25.59249
322.97        25.36905
323.42        25.14114
323.87        24.91566
324.32         24.7071
324.78        24.52014
325.23        24.34857
325.68        24.21201
326.13        24.14532
326.59         24.1352
327.04        24.18933
327.49        24.22276
327.94        24.10532
328.39        23.81048
328.85         23.3666
329.30        22.89223
329.75         22.5945
330.20         22.5357
330.66        22.65572
331.11        22.84607
331.56        22.87908
332.01        22.69427
332.46        22.35542
332.92         21.9742
333.37        21.76514
333.82        21.78389
334.27        21.95767
334.72        22.18536
335.17        22.30663
335.63        22.26197
336.08        22.11424
336.53        21.90239
336.98        21.69946
337.43        21.54126
337.88        21.41103
338.34        21.30886
338.79        21.23871
339.24        21.20171
339.69        21.20297
340.14        21.24516
340.59        21.32554
341.05         21.4326
341.50        21.55885
341.95        21.66413
342.40        21.69977
342.85         21.6542
343.30        21.53616
343.75        21.38357
344.20         21.2596
344.66        21.18999
345.11        21.16598
345.56        21.15491
346.01        21.10019
346.46        20.98974
346.91        20.83404
347.36        20.69805
347.81        20.67701
348.26        20.78293
348.72        20.99039
349.17        21.18404
349.62        21.18017
350.07        20.94757
350.52        20.53879
350.97        20.12587
351.42        19.98409
351.87        20.16457
352.32        20.57573
352.77        21.01392
353.22        21.16768
353.67        20.96976
354.13        20.53287
354.58        20.01504
355.03        19.71917
355.48        19.72653
355.93        19.94905
356.38        20.23607
356.83         20.3552
357.28        20.25047
357.73              20
358.18        19.72998
358.63        19.63176
359.08        19.73833
359.53        19.96565
359.98        20.19257
360.43        20.23768
360.88        20.05927
361.33        19.72697
361.78        19.31317
362.23        18.96926
362.68        18.75239
363.13        18.55176
363.58        18.34986
364.03        18.49415
364.48        18.36135
364.93         18.4387
365.38        18.50109
365.83        18.48827
366.28        18.37901
366.73        18.19475
367.18        17.97481
367.63        17.77463
368.08        17.61589
368.53        17.48279
368.98         17.3692
369.43        17.26276
369.88        17.15838
370.33        17.06704
370.78        16.97782
371.23        16.86995
371.68        16.73853
372.13        16.58145
372.58        16.42523
373.03        16.31511
373.48        16.26132
373.93        16.25868
374.38        16.26014
374.83        16.18936
375.28        16.03593
375.72        15.81448
376.17        15.61961
376.62        15.56117
377.07        15.65248
377.52          15.841
377.97        16.03668
378.42        16.10078
378.87        16.00134
379.32        15.79207
379.77        15.52682
380.22         15.2857
380.67        15.09887
381.11         14.9429
381.56        14.82931
382.01        14.77576
382.46        14.77979
382.91        14.84209
383.36        14.91543
383.81        14.92185
384.26         14.8443
384.71        14.69711
385.15        14.52737
385.60        14.44257
386.05        14.45489
386.50        14.54116
386.95          14.639
387.40        14.65117
387.85        14.56326
388.29        14.40139
388.74        14.25627
389.19        14.22238
389.64        14.30754
390.09        14.46308
390.54        14.61444
390.98        14.64242
391.43        14.52822
391.88        14.32454
392.33        14.07442
392.78        13.86038
393.23        13.71392
393.67        13.55059
394.12        13.40146
394.57        13.46446
395.02        13.49339
395.47         13.4591
395.91        13.31601
396.36        13.25299
396.81        13.28011
397.26        13.29237
397.71        13.26884
398.15        13.23155
398.60        13.19378
399.05         13.1001
399.50        12.99579
399.95          13.029
400.39        13.16352
400.84         13.1891
401.29        13.09059
401.74        12.97392
402.18        12.87245
402.63        12.82058
403.08        12.80947
403.53        12.75215
403.97        12.65362
404.42        12.59152
404.87        12.57354
405.32        12.58522
405.76        12.62196
406.21        12.64869
406.66        12.67136
407.11        12.76174
407.55        12.88033
408.00         12.8883
408.45        12.77198
408.90        12.55931
409.34          12.321
409.79        12.22754
410.24        12.26531
410.68        12.25346
411.13        12.18507
411.58        12.18341
412.03        12.24978
412.47        12.31795
412.92        12.36772
413.37        12.41643
413.81        12.44472
414.26        12.43514
414.71        12.38349
415.15         12.2938
415.60        12.18553
416.05        12.10047
416.49        12.05404
416.94        12.03424
417.39        12.02841
417.83        12.01488
418.28        11.98134
418.73        11.93194
419.17        11.87343
419.62        11.81793
420.07        11.77645
420.51        11.75483
420.96        11.73999
421.41        11.72687
421.85        11.71068
422.30        11.63612
422.74        11.55732
423.19         11.7038
423.64         12.0239
424.08        12.19383
424.53        12.13391
424.98        12.07227
425.42        12.01354
425.87        11.74076
426.31        11.36086
426.76        11.28606
427.21        11.47098
427.65        11.48978
428.10        11.33897
428.54         11.3009
428.99        11.36753
429.44        11.48196
429.88        11.56762
430.33        11.37115
430.77        11.01888
431.22        10.99131
431.66        11.26481
432.11         11.4477
432.56        11.47237
433.00         11.4488
433.45        11.30307
433.89        11.02168
434.34        10.83904
434.78        10.37096
435.23        10.90684
435.67         11.3582
436.12        11.55381
436.57        11.62321
437.01        11.49611
437.46        11.41676
437.90        11.45553
438.35        11.54058
438.79        11.29585
439.24        11.16763
439.68        11.06605
440.13         10.9712
440.57        10.89671
441.02        10.96057
441.46        11.13258
441.91        11.13388
442.35        11.01877
442.80         11.2319
443.24         11.6685
443.69        11.68166
444.13        11.29313
444.58        11.08131
445.02        11.05746
445.47        10.92886
445.91         10.7231
446.36        10.63675
446.80        10.67654
447.24        10.78494
447.69         10.9174
448.13         11.0338
448.58        11.09729
449.02        11.06999
449.47        10.98399
449.91        10.94404
450.36         10.9659
450.80         10.9917
451.25        11.01345
451.69        11.04032
452.13        11.06193
452.58        11.06893
453.02        11.04897
453.47        10.98698
453.91        10.88329
454.36         10.7651
454.80        10.64114
455.24        10.51605
455.69        10.42637
456.13        10.38137
456.58        10.39123
457.02        10.50722
457.46        10.65966
457.91        10.65899
458.35        10.56451
458.79        10.53256
459.24        10.58359
459.68         10.6131
460.13        10.61716
460.57        10.57351
461.01         10.5311
461.46        10.50387
461.90        10.45422
462.34         10.4369
462.79        10.61513
463.23        10.69652
463.68        10.71296
464.12        10.69683
464.56        10.65585
465.01        10.63008
465.45        10.59395
465.89        10.50868
466.34        10.41653
466.78        10.36076
467.22        10.33088
467.67        10.52547
468.11        10.46743
468.55        10.43055
468.99        10.30755
469.44        10.25287
469.88        10.27314
470.32        10.27907
470.77        10.27595
471.21        10.30405
471.65        10.36381
472.10        10.44756
472.54        10.51918
472.98        10.53662
473.42         10.4983
473.87        10.38982
474.31        10.26991
474.75        10.32747
475.20        10.53812
475.64        10.67658
476.08        10.69969
476.52        10.75208
476.97        10.83464
477.41        10.74978
477.85        10.62926
478.29        10.66386
478.74        10.59956
479.18        10.54521
479.62        10.75337
480.06        10.80685
480.50         10.8103
480.95        10.77376
481.39         10.7037
481.83        10.83755
482.27        10.85792
482.72        10.85343
483.16        11.05023
483.60        11.10576
484.04        11.08795
484.48        11.09891
484.93        11.27279
485.37        11.20146
485.81        11.35152
486.25         11.9543
486.69        11.81522
487.14        11.39496
487.58        11.82372
488.02         11.7231
488.46        11.80768
488.90         12.0354
489.34        11.28005
489.79        11.11003
490.23        11.61417
490.67        11.95413
491.11        12.14553
491.55        12.12138
491.99        11.95691
492.43        11.95138
492.88        12.12691
493.32          12.249
493.76        12.29785
494.20         12.3998
494.64        12.56253
495.08        12.70955
495.52        12.83252
495.96        13.02252
496.41        13.27831
496.85        13.24011
497.29         13.0122
497.73        13.09945
498.17        13.44954
498.61        13.61088
499.05        13.53381
499.49        13.47955
499.93        13.49397
500.37        13.52697
500.82        13.58105
501.26        13.68745
501.70        13.85179
502.14        13.78294
502.58        13.95979
503.02        13.99658
503.46          13.979
503.90        13.93326
504.34        13.87906
504.78        13.89386
505.22        13.98341
505.66        14.10056
506.10        14.22283
506.54        14.35262
506.98        14.47964
507.42        14.53126
507.86        14.61787
508.30        14.64485
508.74        14.64935
509.18        14.62875
509.62        14.59991
510.06        14.58946
510.50        14.60444
510.94        14.64135
511.38         14.6902
511.82        14.73282
512.26        14.76225
512.70        14.78269
513.14         14.7982
513.58        14.80911
514.02        14.81659
514.46        14.83163
514.90        14.85207
515.34        14.82266
515.78        14.83051
516.22         14.8106
516.66        14.80467
517.10        14.83544
517.54        14.90489
517.98        15.00003
518.42        15.09519
518.86        15.15192
519.30        15.15845
519.74        15.12551
520.18        15.06774
520.62        15.00844
521.06        14.95879
521.50        14.91676
521.93        14.88336
522.37        14.85248
522.81        14.82497
523.25        14.79837
523.69        14.78013
524.13        14.78017
524.57        14.79535
525.01         14.8214
525.45        14.82841
525.89        14.76974
526.32        14.63976
526.76        14.46496
527.20        14.29166
527.64        14.19614
528.08        14.19526
528.52        14.26102
528.96        14.35886
529.40        14.43364
529.83        14.46429
530.27        14.46535
530.71        14.43525
531.15        14.37175
531.59        14.28197
532.03        14.16827
532.46        14.05229
532.90        13.98178
533.34        13.96471
533.78        13.99196
534.22        14.04471
534.66        14.09081
535.09        14.11871
535.53        14.13708
535.97        14.14868
536.41        14.16082
536.85         14.1747
537.28         14.1847
537.72        14.19038
538.16        14.19034
538.60        14.18801
539.04        14.19455
539.47        14.20463
539.91         14.2174
540.35        14.23073
540.79        14.24551
541.22        14.27945
541.66        14.36067
542.10         14.4884
542.54        14.65137
542.97        14.80647
543.41        14.89704
543.85        14.91083
544.29        14.86695
544.72         14.8092
545.16        14.82021
545.60         14.9134
546.04        15.06694
546.47        15.24084
546.91        15.36466
547.35          15.421
547.79        15.44005
548.22        15.45137
548.66        15.49841
549.10          15.601
549.53        15.79654
549.97        16.04337
550.41        16.22174
550.84        16.31048
551.28         16.3669
551.72        16.41401
552.15        16.46835
552.59        16.54514
553.03        16.63073
553.46        16.71866
553.90        16.81315
554.34        16.90921
554.77        17.01536
555.21        17.11768
555.65        17.19273
556.08        17.22096
556.52        17.24892
556.96         17.2852
557.39        17.36969
557.83        17.49321
558.27        17.57014
558.70        17.60096
559.14        17.65204
559.57        17.71782
560.01        17.78052
560.45        17.82417
560.88        17.81542
561.32         17.7923
561.75        17.80803
562.19        17.86741
562.63        17.96962
563.06        18.07117
563.50        18.03869
563.93        17.91425
564.37        17.92495
564.80        18.07665
565.24        18.25537
565.68        18.42312
566.11        18.56136
566.55        18.66104
566.98        18.74356
567.42        18.81676
567.85        18.84194
568.29        18.86265
568.72        18.92316
569.16        19.02803
569.60        19.20772
570.03        19.47821
570.47        19.56951
570.90        19.67054
571.34        20.20388
571.77         20.1283
572.21        20.09016
572.64        20.24044
573.08         20.2156
573.51        20.58736
573.95        20.68356
574.38        20.59175
574.82        20.78197
