SpectraSmart Spectrum 2.9.0.0
--------- Device Information -----------
Spectrum Name :  反射率_0
Saving Time :  2024/04/27 22:17:00
Spectro-Module Model Name : SE2030-DUVN
Spectro-Module Serial Number : OS361AC55029948
Wavelength Start : 200
Wavelength End : 1025
Wavelength Unit : Wavelength(nm)
Spectrum Unit : Reflectance(%)
-----------Spectrum Setting ------------
Integration Time : 20ms
Average : 10
Boxcar : 0
Background removal :  enabled
linearity correction :  enabled
SC :  disabled
Intensity correction :  disabled
DWT denoise :  enabled
savitzky-golay :  disabled
FFT :  disabled
Running average :  disabled
Kalman :  disabled
High pass :  disabled
---------------BEGIN--------------------
Wavelength(nm)             Reflectance(%)
200.29               0
200.75        61.49464
201.21        48.69904
201.67        38.91648
202.13        35.48444
202.58        36.11264
203.04        39.19133
203.50        44.27447
203.96        50.14565
204.42        55.69212
204.88        60.84011
205.34        65.34611
205.80        69.71444
206.26        74.52486
206.72        80.03584
207.18        86.14948
207.64        88.21005
208.10        83.77453
208.55        78.25957
209.01         72.4911
209.47        64.64682
209.93        50.93496
210.39         18.2762
210.85       -75.97958
211.31       -178.1862
211.77       -33.44807
212.23        55.15218
212.69        84.98468
213.14        92.89842
213.60        90.19925
214.06        78.37016
214.52        54.31559
214.98        32.05118
215.44        32.32253
215.90        43.35663
216.36        54.11721
216.81        60.42873
217.27        63.28011
217.73        65.35497
218.19        66.25952
218.65        64.55182
219.11        60.08842
219.57         52.5897
220.02        44.19831
220.48        41.92762
220.94        47.28297
221.40        57.05749
221.86        66.89692
222.32        72.67565
222.77        74.35684
223.23        73.62761
223.69        71.87354
224.15        70.35926
224.61        69.37988
225.06        68.47298
225.52        67.62851
225.98        66.62755
226.44        65.61472
226.90        64.67406
227.36        64.13351
227.81         64.1611
228.27        64.65408
228.73        65.47153
229.19        65.78203
229.65        64.08418
230.10        60.17621
230.56        55.11851
231.02        50.42186
231.48        48.13108
231.93        48.40768
232.39        50.53676
232.85        53.47086
233.31        55.82386
233.77        57.20745
234.22        58.08001
234.68        58.57378
235.14        58.96087
235.60        59.38028
236.05        59.66002
236.51        60.00245
236.97        60.79584
237.43        62.06517
237.88        63.81638
238.34        65.38618
238.80        66.53613
239.26        67.26662
239.71        67.64799
240.17        67.53048
240.63        67.11134
241.08        66.88489
241.54        66.77779
242.00        66.60024
242.46        65.85933
242.91        64.31175
243.37        61.05266
243.83        55.35665
244.28        51.83254
244.74        60.03405
245.20        74.01615
245.66        82.81998
246.11         85.3268
246.57        83.57996
247.03        77.12696
247.48         64.8911
247.94        52.50393
248.40        48.94062
248.85        52.57314
249.31         59.9633
249.77         67.4127
250.22        73.37147
250.68           78.34
251.14        81.80605
251.59        83.37244
252.05        83.40889
252.51        81.54002
252.96        77.53899
253.42        73.93502
253.88        72.64767
254.33        73.36282
254.79        74.52415
255.25        74.16135
255.70        72.46655
256.16        70.77113
256.62        70.13759
257.07        71.65204
257.53          74.887
257.99        78.27275
258.44        80.43529
258.90        80.77417
259.35        79.27261
259.81        77.16622
260.27        74.94746
260.72        73.24583
261.18        72.49442
261.63        71.98946
262.09        71.75301
262.55        71.32889
263.00        70.56526
263.46        69.80542
263.91        68.93678
264.37         68.2382
264.83        67.65238
265.28        67.06868
265.74        66.56762
266.19        65.97012
266.65        65.35281
267.11        64.68544
267.56        63.96613
268.02        63.31417
268.47         62.6903
268.93        62.08615
269.38        61.45515
269.84          60.773
270.30        60.02015
270.75        59.21024
271.21        58.33477
271.66        57.31824
272.12        56.19277
272.57        54.93283
273.03        53.69538
273.48        52.61415
273.94        51.78441
274.39        51.11999
274.85        50.52476
275.31        49.73214
275.76        48.68947
276.22        47.53933
276.67        46.41574
277.13        45.65455
277.58        45.21601
278.04        45.03897
278.49        44.84892
278.95        44.40704
279.40        43.60596
279.86        42.63602
280.31        41.61923
280.77        40.88671
281.22        40.44274
281.68        40.24323
282.13        40.11745
282.59        39.92445
283.04        39.58551
283.50        39.17356
283.95        38.74425
284.41        38.44513
284.86        38.27081
285.32        38.20259
285.77         38.1039
286.22        37.84286
286.68        37.42686
287.13         36.8772
287.59        36.36287
288.04        36.04186
288.50        35.98103
288.95        36.07747
289.41        36.24018
289.86        36.26593
290.32        36.14358
290.77        35.93211
291.22        35.72017
291.68        35.62744
292.13        35.67802
292.59        35.85099
293.04        36.13185
293.50        36.53632
293.95        37.03609
294.40        37.63535
294.86        38.28746
295.31        38.90419
295.77        39.47358
296.22        39.99474
296.68        40.51398
297.13        41.08426
297.58        41.72041
298.04        42.40105
298.49        43.08075
298.95         43.7268
299.40        44.32289
299.85        44.89065
300.31        45.47531
300.76        46.09828
301.21        46.76739
301.67         47.4724
302.12        48.13617
302.58        48.71413
303.03        49.16985
303.48        49.54156
303.94        49.90788
304.39        50.32028
304.84        50.81189
305.30        51.36393
305.75        51.89106
306.20        52.32628
306.66        52.66869
307.11        52.91247
307.57        53.12384
308.02        53.31733
308.47        53.52319
308.93        53.73122
309.38        53.90481
309.83        54.04096
310.29        54.14624
310.74        54.20879
311.19        54.23616
311.65        54.22808
312.10        54.16708
312.55        54.06363
313.00        53.93738
313.46        53.82067
313.91        53.71202
314.36        53.61146
314.82        53.49333
315.27        53.31142
315.72        53.06248
316.18        52.77466
316.63        52.47611
317.08        52.23652
317.53        52.06945
317.99        51.94534
318.44        51.84096
318.89        51.70022
319.35        51.50624
319.80        51.28199
320.25        51.02919
320.70        50.75855
321.16        50.46756
321.61         50.1528
322.06        49.83769
322.51        49.56713
322.97        49.34126
323.42        49.17674
323.87        48.99892
324.32        48.69301
324.78        48.23695
325.23        47.67738
325.68        47.13198
326.13        46.80837
326.59        46.73377
327.04        46.86809
327.49        47.04605
327.94         47.0079
328.39        46.68079
328.85        46.12686
329.30        45.49081
329.75        44.98743
330.20        44.70022
330.66         44.5525
331.11        44.50563
331.56        44.42889
332.01        44.27822
332.46        44.09611
332.92        43.88866
333.37         43.7135
333.82        43.56783
334.27        43.42463
334.72        43.28074
335.17        43.14251
335.63        42.99699
336.08        42.87215
336.53        42.73567
336.98        42.54882
337.43        42.31075
337.88        42.03745
338.34        41.77268
338.79         41.6012
339.24        41.53699
339.69        41.55389
340.14        41.60376
340.59        41.60637
341.05        41.53902
341.50        41.43498
341.95        41.30485
342.40        41.17708
342.85        41.06248
343.30        40.93904
343.75        40.83304
344.20        40.78929
344.66        40.81276
345.11        40.89428
345.56        40.95522
346.01        40.86586
346.46         40.6087
346.91        40.22271
347.36        39.83662
347.81        39.64763
348.26        39.69173
348.72        39.91005
349.17        40.15614
349.62        40.19725
350.07        39.97997
350.52        39.57497
350.97        39.13145
351.42        38.88877
351.87         38.8992
352.32        39.07798
352.77        39.28273
353.22        39.29852
353.67         39.0763
354.13        38.70692
354.58        38.27327
355.03        37.95675
355.48        37.81176
355.93        37.78484
356.38        37.80968
356.83        37.78611
357.28        37.68181
357.73        37.52749
358.18        37.35894
358.63        37.22818
359.08        37.14165
359.53        37.06967
359.98        36.97147
360.43        36.79034
360.88        36.51806
361.33        36.18081
361.78        35.80951
362.23        35.48244
362.68        35.22827
363.13        34.97373
363.58         34.7045
364.03        34.69492
364.48        34.45061
364.93        34.36375
365.38        34.26487
365.83        34.12683
366.28         33.9364
366.73        33.70113
367.18         33.4527
367.63        33.23376
368.08        33.05642
368.53        32.91045
368.98         32.7644
369.43        32.56554
369.88        32.30671
370.33        32.01078
370.78        31.71892
371.23        31.49732
371.68        31.35883
372.13        31.27423
372.58        31.21489
373.03        31.13245
373.48         31.0121
373.93        30.88076
374.38        30.72465
374.83        30.52073
375.28        30.27672
375.72        29.98378
376.17        29.73943
376.62        29.65542
377.07        29.73603
377.52        29.92579
377.97        30.10597
378.42        30.09061
378.87        29.84342
379.32        29.43933
379.77        28.96281
380.22        28.53973
380.67        28.21595
381.11        27.95775
381.56        27.77561
382.01        27.68725
382.46        27.68222
382.91         27.7558
383.36        27.84386
383.81         27.8395
384.26        27.72051
384.71        27.51521
385.15        27.26786
385.60          27.091
386.05        27.00252
386.50        26.97303
386.95        26.98383
387.40        27.00567
387.85        27.02235
388.29        27.02378
388.74        27.02774
389.19        26.99671
389.64        26.92329
390.09        26.80219
390.54         26.6533
390.98         26.5091
391.43         26.3993
391.88        26.32354
392.33        26.24281
392.78        26.14294
393.23        26.03253
393.67        25.80081
394.12        25.54103
394.57         25.6883
395.02        25.79328
395.47         25.7831
395.91        25.54285
396.36        25.40169
396.81        25.37823
397.26         25.2907
397.71        25.15958
398.15        25.10811
398.60         25.1633
399.05        25.18178
399.50        25.17154
399.95        25.30667
400.39        25.49854
400.84        25.38121
401.29        24.98848
401.74        24.63232
402.18        24.41332
402.63        24.35614
403.08        24.43072
403.53        24.44683
403.97        24.38642
404.42        24.40254
404.87        24.46373
405.32        24.46737
405.76        24.39996
406.21        24.22592
406.66        24.01975
407.11        24.01678
407.55         24.1736
408.00        24.20818
408.45         24.0796
408.90        23.80366
409.34        23.48702
409.79        23.45337
410.24        23.65878
410.68        23.72335
411.13        23.62431
411.58        23.60466
412.03        23.67373
412.47        23.72143
412.92        23.73072
413.37        23.74145
413.81        23.73962
414.26        23.72213
414.71        23.68429
415.15        23.62642
415.60        23.56453
416.05        23.54393
416.49        23.57498
416.94        23.64075
417.39        23.70388
417.83        23.70718
418.28        23.63229
418.73         23.4875
419.17        23.32229
419.62         23.2209
420.07        23.21218
420.51        23.28135
420.96        23.36083
421.41        23.37176
421.85        23.29378
422.30        23.05167
422.74        22.77248
423.19        22.92822
423.64        23.42957
424.08        23.63522
424.53        23.44573
424.98        23.36921
425.42        23.42547
425.87        23.16578
426.31        22.72239
426.76        22.78398
427.21        23.23853
427.65        23.24308
428.10        22.85193
428.54        22.74455
428.99        22.93227
429.44        23.23173
429.88        23.45846
430.33        23.12029
430.77        22.43009
431.22        22.23358
431.66        22.53915
432.11        22.82858
432.56        23.00927
433.00        23.10125
433.45        22.91568
433.89         22.5865
434.34         22.4628
434.78        21.38736
435.23        22.11324
435.67        22.81491
436.12        23.21009
436.57        23.33911
437.01        23.03469
437.46        22.85819
437.90        22.93943
438.35        23.11563
438.79        22.66313
439.24        22.50793
439.68        22.46887
440.13        22.48541
440.57        22.50781
441.02        22.65746
441.46        22.85779
441.91        22.60349
442.35         22.1115
442.80        22.40056
443.24        23.27672
443.69        23.41098
444.13        22.80215
444.58        22.54252
445.02        22.63704
445.47         22.5022
445.91        22.17486
446.36        22.01835
446.80        22.05133
447.24        22.16123
447.69        22.30712
448.13         22.4775
448.58        22.61747
449.02        22.62214
449.47        22.53153
449.91         22.5089
450.36        22.57323
450.80        22.62509
451.25        22.64503
451.69        22.64054
452.13          22.601
452.58        22.51316
453.02        22.39503
453.47        22.28409
453.91        22.19202
454.36        22.14781
454.80        22.12112
455.24        22.03617
455.69        21.93926
456.13        21.87115
456.58        21.87326
457.02        22.09001
457.46        22.38721
457.91        22.35979
458.35        22.12922
458.79        22.02813
459.24        22.09757
459.68        22.12393
460.13        22.10138
460.57        21.98869
461.01        21.88584
461.46        21.82627
461.90        21.71766
462.34        21.65452
462.79        21.97683
463.23        22.07818
463.68         22.0609
464.12        22.03539
464.56         22.0249
465.01        22.08819
465.45        22.13549
465.89        22.02149
466.34        21.82404
466.78        21.66027
467.22        21.53686
467.67        21.91938
468.11        21.82911
468.55        21.81421
468.99        21.63946
469.44        21.61097
469.88        21.73561
470.32        21.83477
470.77        21.89001
471.21        21.94245
471.65        21.98785
472.10         22.0208
472.54        22.02697
472.98        22.01948
473.42        22.00997
473.87        21.93575
474.31        21.84121
474.75        21.99615
475.20        22.32754
475.64          22.404
476.08        22.22711
476.52        22.22725
476.97        22.43062
477.41        22.38832
477.85        22.31601
478.29        22.51965
478.74        22.43137
479.18        22.31005
479.62        22.71528
480.06        22.80391
480.50        22.81131
480.95        22.74126
481.39        22.60312
481.83        22.89021
482.27        22.92812
482.72        22.90334
483.16        23.29452
483.60        23.40862
484.04        23.41709
484.48        23.43136
484.93        23.65867
485.37        23.54589
485.81         24.1649
486.25        24.70859
486.69        24.49155
487.14        24.05523
487.58         24.7497
488.02        24.46785
488.46        24.57966
488.90        25.43353
489.34        24.63775
489.79         24.3329
490.23        24.81431
490.67        25.20204
491.11         25.6448
491.55        25.69944
491.99        25.46397
492.43        25.49475
492.88        25.81826
493.32        26.05986
493.76        26.18468
494.20        26.38821
494.64        26.68611
495.08        26.93656
495.52        27.13549
495.96        27.52019
496.41        28.02389
496.85        27.97522
497.29        27.55468
497.73        27.72327
498.17        28.39891
498.61        28.81542
499.05        28.84137
499.49        28.81521
499.93        28.82341
500.37        28.87991
500.82        28.99234
501.26        29.19495
501.70        29.50212
502.14        29.30039
502.58        29.64407
503.02        29.76901
503.46        29.86024
503.90         29.9531
504.34        30.01652
504.78        30.09597
505.22        30.17757
505.66        30.20103
506.10         30.2061
506.54        30.31346
506.98        30.53405
507.42        30.72714
507.86        31.08847
508.30        31.11002
508.74        31.23026
509.18        31.15804
509.62        31.06773
510.06        31.04238
510.50        31.10809
510.94        31.23428
511.38        31.37717
511.82        31.47783
512.26        31.51616
512.70        31.51468
513.14        31.49644
513.58        31.48333
514.02        31.48516
514.46        31.51617
514.90        31.57154
515.34        31.53379
515.78        31.58179
516.22        31.57433
516.66        31.58187
517.10        31.62304
517.54        31.70003
517.98        31.80024
518.42        31.89193
518.86        31.93047
519.30        31.90592
519.74        31.83318
520.18        31.74334
520.62        31.68501
521.06        31.67215
521.50        31.69198
521.93        31.72561
522.37        31.73255
522.81         31.7039
523.25        31.64637
523.69        31.57632
524.13        31.51859
524.57        31.47766
525.01        31.44673
525.45        31.40043
525.89        31.29918
526.32        31.13761
526.76        30.94368
527.20        30.75815
527.64        30.64844
528.08        30.62763
528.52        30.66842
528.96        30.73571
529.40        30.77434
529.83        30.76235
530.27        30.71898
530.71        30.64215
531.15        30.53206
531.59        30.39742
532.03        30.24043
532.46        30.08559
532.90        29.98835
533.34        29.95601
533.78        29.97629
534.22        30.02183
534.66        30.04753
535.09         30.0367
535.53         30.0072
535.97        29.96679
536.41        29.93438
536.85        29.91744
537.28        29.91261
537.72        29.91677
538.16        29.92127
538.60        29.92881
539.04        29.95305
539.47        29.99606
539.91        30.07742
540.35        30.19001
540.79        30.32965
541.22        30.48208
541.66        30.62697
542.10        30.75557
542.54        30.87501
542.97        30.98117
543.41        31.08704
543.85        31.19362
544.29        31.30143
544.72        31.41939
545.16         31.5824
545.60        31.78479
546.04        32.01468
546.47        32.25264
546.91        32.46234
547.35         32.6297
547.79        32.78092
548.22        32.91302
548.66        33.01099
549.10        33.10305
549.53        33.30731
549.97        33.61117
550.41        33.87616
550.84        34.08741
551.28        34.32811
551.72        34.58104
552.15         34.7776
552.59        34.91954
553.03        35.01014
553.46        35.08353
553.90        35.22137
554.34        35.42973
554.77        35.70126
555.21        35.96848
555.65        36.12306
556.08         36.1117
556.52        36.05528
556.96        36.01492
557.39        36.13213
557.83          36.403
558.27        36.63931
558.70        36.79613
559.14        36.94581
559.57        37.06549
560.01         37.1068
560.45         37.0893
560.88        37.10688
561.32        37.20646
561.75        37.27612
562.19        37.33604
562.63        37.55431
563.06        37.83845
563.50        37.80536
563.93        37.52737
564.37        37.49567
564.80        37.72636
565.24        37.98325
565.68        38.21376
566.11        38.42487
566.55        38.60696
566.98        38.77485
567.42        38.93085
567.85        38.99603
568.29        39.03596
568.72        39.10616
569.16        39.21865
569.60        39.43991
570.03        39.79876
570.47        39.80457
570.90        39.91158
571.34        40.66704
571.77        40.65094
572.21        40.63449
572.64        41.04343
573.08        40.98283
573.51        41.29934
573.95        41.42009
574.38        41.50863
574.82        41.46255
