SpectraSmart Spectrum 2.9.0.0
--------- Device Information -----------
Spectrum Name :  反射率_0
Saving Time :  2024/04/27 22:17:18
Spectro-Module Model Name : SE2030-DUVN
Spectro-Module Serial Number : OS361AC55029948
Wavelength Start : 200
Wavelength End : 1025
Wavelength Unit : Wavelength(nm)
Spectrum Unit : Reflectance(%)
-----------Spectrum Setting ------------
Integration Time : 20ms
Average : 10
Boxcar : 0
Background removal :  enabled
linearity correction :  enabled
SC :  disabled
Intensity correction :  disabled
DWT denoise :  enabled
savitzky-golay :  disabled
FFT :  disabled
Running average :  disabled
Kalman :  disabled
High pass :  disabled
---------------BEGIN--------------------
Wavelength(nm)             Reflectance(%)
200.29               0
200.75       -113.3662
201.21       -56.24836
201.67        -8.56928
202.13        13.05607
202.58         18.0289
203.04        15.12595
203.50          11.445
203.96        15.11484
204.42        25.62298
204.88        38.22836
205.34        48.67822
205.80        53.95505
206.26        53.91171
206.72          48.114
207.18        36.36798
207.64        27.14357
208.10        28.36536
208.55         36.1384
209.01        40.01409
209.47        34.82055
209.93          16.998
210.39       -31.11657
210.85       -177.4014
211.31       -354.5849
211.77       -142.4209
212.23       -3.566745
212.69        45.08525
213.14        59.30154
213.60        57.65869
214.06        44.30074
214.52        15.93801
214.98       -10.45981
215.44       -9.809281
215.90        3.293028
216.36        16.51962
216.81        25.84994
217.27        32.05602
217.73        38.10761
218.19        42.92754
218.65        43.51232
219.11        39.28006
219.57        30.53943
220.02        19.67705
220.48        14.94828
220.94        18.76164
221.40        27.46943
221.86        37.70269
222.32        46.23422
222.77        52.42465
223.23        57.19179
223.69        59.97627
224.15        59.94592
224.61         57.4693
225.06        52.66751
225.52        47.70277
225.98        46.44548
226.44        49.06298
226.90        53.19761
227.36        56.62943
227.81        57.63383
228.27        56.37179
228.73        53.47531
229.19        49.53294
229.65        45.92157
230.10        43.41693
230.56        42.07257
231.02         41.4768
231.48        41.11246
231.93        40.75661
232.39        40.59921
232.85        41.02789
233.31         42.5695
233.77        45.06433
234.22        48.20806
234.68        50.89246
235.14        51.79254
235.60         50.7013
236.05        47.73091
236.51        44.14299
236.97        42.84746
237.43         44.9801
237.88        49.96728
238.34        55.18978
238.80        57.75098
239.26        56.81382
239.71        51.79641
240.17        42.98888
240.63        38.42959
241.08        44.79691
241.54        56.02285
242.00        64.61653
242.46        67.42078
242.91        64.95552
243.37        56.00515
243.83        35.22639
244.28        5.012255
244.74       -4.580662
245.20        12.41121
245.66        32.02055
246.11        41.99042
246.57         44.8666
247.03        44.66968
247.48        42.35775
247.94        42.37638
248.40        47.37712
248.85        53.07151
249.31        57.22407
249.77        59.33239
250.22         59.8829
250.68        59.50954
251.14        58.91355
251.59        58.46017
252.05        58.10855
252.51        57.36658
252.96        55.21083
253.42        51.31937
253.88        46.95169
254.33        44.46548
254.79        43.67827
255.25        43.31776
255.70        43.19285
256.16        43.56739
256.62        45.49084
257.07        49.94912
257.53        55.85127
257.99        61.52086
258.44        65.20514
258.90        65.84013
259.35        63.79944
259.81        60.64421
260.27        57.39797
260.72        55.27719
261.18        54.63528
261.63        54.58954
262.09        54.82737
262.55         54.6576
263.00        53.93789
263.46        53.08466
263.91          52.152
264.37        51.52788
264.83        51.18507
265.28        50.95494
265.74        50.78725
266.19        50.43169
266.65        49.93273
267.11        49.31759
267.56        48.66266
268.02        48.18344
268.47        47.86578
268.93        47.65195
269.38        47.42775
269.84        47.05264
270.30        46.48417
270.75        45.77775
271.21        44.97996
271.66        44.11096
272.12        43.22806
272.57        42.29166
273.03        41.41438
273.48        40.67829
273.94        40.14619
274.39        39.74732
274.85        39.41185
275.31        38.93957
275.76        38.28154
276.22        37.53894
276.67        36.77691
277.13        36.20381
277.58        35.79119
278.04        35.52106
278.49        35.23876
278.95        34.84943
279.40         34.2781
279.86        33.64085
280.31        32.97932
280.77        32.48282
281.22        32.13474
281.68        31.92591
282.13        31.74799
282.59        31.51446
283.04         31.1829
283.50        30.81012
283.95        30.44099
284.41         30.1908
284.86        30.05847
285.32        30.02308
285.77        30.00286
286.22        29.92612
286.68        29.79272
287.13        29.59774
287.59        29.40914
288.04        29.24687
288.50        29.15347
288.95        29.08377
289.41        29.04499
289.86        28.99676
290.32        28.95403
290.77        28.92107
291.22        28.91137
291.68        28.93464
292.13        28.98693
292.59        29.08228
293.04        29.23222
293.50        29.48323
293.95        29.82948
294.40        30.26926
294.86        30.76659
295.31        31.25527
295.77        31.72734
296.22        32.18031
296.68        32.66299
297.13        33.22813
297.58        33.88424
298.04         34.6058
298.49        35.32072
298.95        35.94717
299.40        36.46838
299.85         36.9175
300.31        37.38669
300.76        37.97613
301.21        38.70855
301.67        39.54458
302.12        40.36077
302.58        41.03099
303.03        41.50445
303.48        41.83379
303.94        42.13407
304.39        42.52122
304.84        43.03734
305.30        43.64502
305.75         44.2167
306.20        44.61284
306.66        44.82336
307.11        44.87152
307.57        44.89164
308.02        45.01142
308.47        45.27548
308.93        45.63214
309.38        45.96399
309.83        46.13469
310.29        46.12804
310.74        45.98446
311.19        45.78762
311.65         45.6613
312.10        45.62189
312.55        45.63299
313.00           45.67
313.46        45.69773
313.91        45.69173
314.36        45.67481
314.82        45.61395
315.27        45.44943
315.72        45.18172
316.18        44.83574
316.63        44.48049
317.08        44.25239
317.53        44.17785
317.99        44.21388
318.44        44.28215
318.89        44.23537
319.35         44.0351
319.80        43.72716
320.25        43.37698
320.70        43.09731
321.16        42.91099
321.61        42.78703
322.06        42.67716
322.51        42.50945
322.97        42.25911
323.42        41.97481
323.87        41.66996
324.32        41.37308
324.78        41.09513
325.23        40.83186
325.68        40.60357
326.13        40.45575
326.59        40.37358
327.04        40.36596
327.49        40.35077
327.94        40.20406
328.39        39.89644
328.85        39.45119
329.30        38.96513
329.75        38.58097
330.20        38.35268
330.66        38.23336
331.11        38.19001
331.56        38.10283
332.01        37.93677
332.46        37.72554
332.92        37.49456
333.37         37.3317
333.82        37.24174
334.27        37.18661
334.72        37.13951
335.17        37.06291
335.63        36.93505
336.08        36.80214
336.53        36.63878
336.98        36.41544
337.43         36.1449
337.88        35.84103
338.34        35.58833
338.79        35.53537
339.24        35.69839
339.69        36.01902
340.14        36.37448
340.59        36.56361
341.05         36.5286
341.50        36.33665
341.95        36.04152
342.40        35.74405
342.85        35.48996
343.30        35.24817
343.75        35.05746
344.20        34.98013
344.66        35.02198
345.11        35.17172
345.56        35.33828
346.01        35.36428
346.46        35.21716
346.91        34.93681
347.36        34.63352
347.81        34.48042
348.26        34.51711
348.72        34.69641
349.17        34.90847
349.62        34.98034
350.07        34.86957
350.52        34.62156
350.97        34.36093
351.42        34.28508
351.87        34.42689
352.32        34.71413
352.77        34.98449
353.22          34.994
353.67        34.69854
354.13        34.19851
354.58        33.63373
355.03         33.2795
355.48        33.20678
355.93        33.33164
356.38         33.5261
356.83        33.58913
357.28        33.46658
357.73         33.2292
358.18         32.9508
358.63        32.74172
359.08        32.63188
359.53        32.57281
359.98        32.53211
360.43         32.4676
360.88        32.36382
361.33        32.23941
361.78        32.08539
362.23        31.91502
362.68        31.73947
363.13        31.49553
363.58        31.19621
364.03        31.18299
364.48        30.94879
364.93        30.88741
365.38        30.81347
365.83        30.68574
366.28        30.48899
366.73        30.25122
367.18        29.99287
367.63        29.73289
368.08        29.48801
368.53        29.25386
368.98        29.05371
369.43        28.92383
369.88        28.86558
370.33        28.86612
370.78        28.87814
371.23         28.8256
371.68        28.68183
372.13        28.45401
372.58        28.18209
373.03        27.93569
373.48        27.74001
373.93        27.59392
374.38        27.44893
374.83        27.22382
375.28        26.91563
375.72        26.54778
376.17        26.24827
376.62        26.17056
377.07        26.32636
377.52        26.63607
377.97        26.95956
378.42        27.08117
378.87        26.95021
379.32        26.64732
379.77        26.24846
380.22        25.86963
380.67        25.55703
381.11        25.27477
381.56        25.05755
382.01        24.96342
382.46        24.99173
382.91         25.1335
383.36        25.28665
383.81        25.28396
384.26        25.09316
384.71        24.75779
385.15        24.38297
385.60        24.17416
386.05        24.16633
386.50        24.30433
386.95        24.48662
387.40        24.55444
387.85        24.47456
388.29        24.28885
388.74        24.11253
389.19        24.05102
389.64        24.11751
390.09        24.25338
390.54        24.38843
390.98        24.41045
391.43         24.3091
391.88        24.13555
392.33        23.91596
392.78        23.72428
393.23        23.59274
393.67         23.3931
394.12        23.18728
394.57        23.33995
395.02         23.4336
395.47        23.41272
395.91        23.18724
396.36        23.07447
396.81        23.09294
397.26        23.06792
397.71         22.9924
398.15        22.94377
398.60        22.94739
399.05        22.89154
399.50        22.81556
399.95        22.92301
400.39        23.14132
400.84        23.11888
401.29        22.86771
401.74        22.63914
402.18        22.51007
402.63        22.51699
403.08        22.61413
403.53        22.59729
403.97        22.45511
404.42        22.33899
404.87        22.27798
405.32        22.26992
405.76        22.31647
406.21        22.35507
406.66        22.38478
407.11        22.51492
407.55        22.67698
408.00        22.63589
408.45        22.40375
408.90        22.08509
409.34        21.80668
409.79        21.84021
410.24        22.11583
410.68        22.23489
411.13        22.16145
411.58        22.13895
412.03        22.19204
412.47        22.24087
412.92        22.27409
413.37        22.31713
413.81        22.34003
414.26        22.31713
414.71        22.24175
415.15        22.12637
415.60        22.00261
416.05        21.94055
416.49         21.9598
416.94        22.03415
417.39        22.12514
417.83        22.17382
418.28        22.15549
418.73        22.07737
419.17        21.96655
419.62        21.87138
420.07        21.81593
420.51        21.79837
420.96        21.78224
421.41        21.73617
421.85        21.65224
422.30        21.44898
422.74        21.23072
423.19        21.41677
423.64        21.91921
424.08        22.14692
424.53        22.00537
424.98        21.97047
425.42        22.06101
425.87        21.84909
426.31        21.46212
426.76        21.56057
427.21        22.03889
427.65        22.09539
428.10        21.76406
428.54        21.65937
428.99        21.78853
429.44        22.01861
429.88        22.19607
430.33         21.8143
430.77        21.12786
431.22        21.08376
431.66        21.63085
432.11        22.06284
432.56        22.25889
433.00        22.26141
433.45        21.96267
433.89        21.78507
434.34        21.98102
434.78        20.94733
435.23        21.40874
435.67        21.96327
436.12        22.36553
436.57        22.42185
437.01         22.0027
437.46        21.80564
437.90        21.96625
438.35         22.2875
438.79        22.02357
439.24        21.99482
439.68        21.99974
440.13        21.99287
440.57        21.96359
441.02        22.06601
441.46        22.23624
441.91        22.04893
442.35        21.65005
442.80         21.7901
443.24        22.34304
443.69        22.42389
444.13        22.03248
444.58        21.88011
445.02        21.96679
445.47        21.92594
445.91        21.76345
446.36        21.69072
446.80         21.7137
447.24        21.75852
447.69         21.8241
448.13        21.96174
448.58        22.13161
449.02        22.20874
449.47         22.1952
449.91         22.1957
450.36        22.21856
450.80        22.18936
451.25        22.12218
451.69        22.07478
452.13        22.04862
452.58        22.00953
453.02        21.95774
453.47        21.90387
453.91        21.84738
454.36        21.82524
454.80        21.79878
455.24        21.67934
455.69        21.51581
456.13        21.35455
456.58        21.26269
457.02        21.42047
457.46        21.70676
457.91        21.72064
458.35        21.55499
458.79        21.49426
459.24        21.57067
459.68        21.58657
460.13        21.55622
460.57        21.47064
461.01        21.43171
461.46        21.45765
461.90        21.43508
462.34        21.42235
462.79        21.74606
463.23        21.81677
463.68        21.75277
464.12        21.68978
464.56        21.66204
465.01        21.72458
465.45        21.78118
465.89        21.67742
466.34        21.48712
466.78        21.32639
467.22        21.21676
467.67        21.64075
468.11        21.63366
468.55        21.72616
468.99        21.64563
469.44        21.63901
469.88        21.70398
470.32        21.67945
470.77        21.59668
471.21        21.57888
471.65        21.64184
472.10        21.75411
472.54        21.85937
472.98        21.90364
473.42         21.8822
473.87        21.75839
474.31        21.59843
474.75        21.70119
475.20        22.00484
475.64        22.07219
476.08        21.90927
476.52        21.93403
476.97        22.16745
477.41        22.19557
477.85        22.21999
478.29        22.38141
478.74        22.33536
479.18         22.1646
479.62        22.51687
480.06        22.58871
480.50        22.62384
480.95        22.61123
481.39        22.53169
481.83        22.84257
482.27        22.85917
482.72        22.77347
483.16        23.09207
483.60         23.1655
484.04        23.16113
484.48        23.23193
484.93         23.5835
485.37        23.40654
485.81        23.69618
486.25        24.41943
486.69        24.19411
487.14        23.30999
487.58        24.44538
488.02        24.27093
488.46        24.45851
488.90        25.00053
489.34        24.17821
489.79        23.97322
490.23        24.75286
490.67        24.99529
491.11        24.96065
491.55        25.02198
491.99        25.23495
492.43        25.45976
492.88        25.68257
493.32        25.90951
493.76        26.11483
494.20        26.33652
494.64        26.58946
495.08        26.77233
495.52        26.89066
495.96        27.19507
496.41        27.62844
496.85        27.53122
497.29        27.08913
497.73        27.23575
498.17        27.89695
498.61        28.36543
499.05        28.48537
499.49        28.49349
499.93        28.46266
500.37        28.47844
500.82        28.56552
501.26        28.69457
501.70        28.92594
502.14        28.82952
502.58        29.38656
503.02        29.60191
503.46        29.63485
503.90        29.64616
504.34        29.64163
504.78        29.67716
505.22        29.75587
505.66        29.80942
506.10        29.85693
506.54        30.01103
506.98        30.27783
507.42         30.4769
507.86        30.78766
508.30        30.92475
508.74        30.93958
509.18        30.85042
509.62        30.72577
510.06        30.67594
510.50        30.72944
510.94        30.85774
511.38        31.01256
511.82        31.11471
512.26         31.1425
512.70        31.12571
513.14         31.0973
513.58        31.09516
514.02        31.13167
514.46        31.21184
514.90        31.32298
515.34        31.33684
515.78        31.42459
516.22        31.44784
516.66        31.47112
517.10          31.505
517.54          31.553
517.98        31.60649
518.42        31.64712
518.86        31.65251
519.30         31.6185
519.74        31.55398
520.18        31.48212
520.62        31.43715
521.06        31.42867
521.50        31.45051
521.93        31.48267
522.37        31.48227
522.81        31.44313
523.25        31.37289
523.69        31.29952
524.13         31.2674
524.57        31.28159
525.01        31.32477
525.45        31.35575
525.89        31.31009
526.32        31.17425
526.76        30.98366
527.20        30.77993
527.64        30.63342
528.08        30.56258
528.52        30.54057
528.96        30.54895
529.40        30.55806
529.83        30.55101
530.27        30.54296
530.71        30.51073
531.15        30.41913
531.59        30.26965
532.03        30.07444
532.46        29.88169
532.90         29.7852
533.34        29.79922
533.78        29.89635
534.22        30.02382
534.66        30.09918
535.09        30.09733
535.53        30.04862
535.97        29.97849
536.41        29.93403
536.85        29.92958
537.28        29.95004
537.72        29.98089
538.16        29.99674
538.60        29.99389
539.04         29.9922
539.47        29.99706
539.91        30.03065
540.35        30.09117
540.79        30.17961
541.22        30.28474
541.66        30.39158
542.10        30.49429
542.54        30.59599
542.97        30.70487
543.41        30.85186
543.85         31.0345
544.29        31.24421
544.72        31.45226
545.16        31.63582
545.60        31.78002
546.04        31.89143
546.47        31.99617
546.91        32.13268
547.35        32.30548
547.79        32.51783
548.22        32.73097
548.66        32.87327
549.10        32.95887
549.53        33.12601
549.97        33.38214
550.41        33.61919
550.84        33.82667
551.28        34.08468
551.72        34.37448
552.15        34.58205
552.59        34.69662
553.03        34.90783
553.46        34.92968
553.90        35.06523
554.34        35.22973
554.77        35.42622
555.21        35.62292
555.65         35.7764
556.08        35.84396
556.52        35.92012
556.96        36.00674
557.39        36.15744
557.83         36.3503
558.27        36.42175
558.70         36.3927
559.14        36.43716
559.57        36.55514
560.01        36.68721
560.45        36.80283
560.88        36.85089
561.32        36.88609
561.75        36.98592
562.19        37.15548
562.63        37.35291
563.06        37.52141
563.50        37.52066
563.93        37.39993
564.37        37.43492
564.80        37.63228
565.24         37.8686
565.68        38.09841
566.11        38.29051
566.55        38.43803
566.98        38.57484
567.42        38.70957
567.85        38.74841
568.29        38.76937
568.72        38.88257
569.16        39.07562
569.60        39.30491
570.03        39.58504
570.47        39.53499
570.90        39.59366
571.34        40.18641
571.77        40.21247
572.21        40.20093
572.64        40.61188
573.08        40.57563
573.51         40.6567
573.95         40.8399
574.38        41.09819
574.82        41.33103
