SpectraSmart Spectrum 2.9.0.0
--------- Device Information -----------
Spectrum Name :  反射率_0
Saving Time :  2024/04/27 22:51:45
Spectro-Module Model Name : SE2030-DUVN
Spectro-Module Serial Number : OS361AC55029948
Wavelength Start : 200
Wavelength End : 1025
Wavelength Unit : Wavelength(nm)
Spectrum Unit : Reflectance(%)
-----------Spectrum Setting ------------
Integration Time : 20ms
Average : 10
Boxcar : 0
Background removal :  enabled
linearity correction :  enabled
SC :  disabled
Intensity correction :  disabled
DWT denoise :  enabled
savitzky-golay :  disabled
FFT :  disabled
Running average :  disabled
Kalman :  disabled
High pass :  disabled
---------------BEGIN--------------------
Wavelength(nm)             Reflectance(%)
200.29               0
200.75        39.56844
201.21        59.93363
201.67        73.33961
202.13        77.16627
202.58        75.16677
203.04        70.49919
203.50        66.30489
203.96        67.01022
204.42        72.18555
204.88        78.83371
205.34        85.10367
205.80        90.05386
206.26        93.92939
206.72        97.74502
207.18        99.99505
207.64        94.78204
208.10        83.52779
208.55        73.94724
209.01        66.86727
209.47        59.70992
209.93        48.69738
210.39        23.81422
210.85       -45.60121
211.31       -113.3186
211.77       -1.553813
212.23        62.72247
212.69        83.19682
213.14        87.44775
213.60        83.05199
214.06        70.36576
214.52        46.58397
214.98        26.73592
215.44        30.30119
215.90        43.69079
216.36        56.12542
216.81         64.2445
217.27        69.25803
217.73        73.69093
218.19        76.32241
218.65        74.26904
219.11         66.8484
219.57        53.79979
220.02        38.51122
220.48        31.66739
220.94        36.41787
221.40        48.38613
221.86        60.92559
222.32        67.36182
222.77         67.7394
223.23        64.97892
223.69        61.30384
224.15        58.76353
224.61         57.7526
225.06        57.36699
225.52        57.73423
225.98         58.6414
226.44        59.66838
226.90        60.61411
227.36        61.43716
227.81        62.12631
228.27        62.75579
228.73        63.29035
229.19        63.26914
229.65        61.89492
230.10        59.07476
230.56        55.53768
231.02        52.17529
231.48        50.23186
231.93        49.78109
232.39        50.44944
232.85        51.66309
233.31        52.66154
233.77         53.2459
234.22        53.76961
234.68        54.07246
235.14        54.02456
235.60        53.66277
236.05        52.81622
236.51        52.18262
236.97        53.19765
237.43        56.16816
237.88        60.72344
238.34         65.0414
238.80        67.47161
239.26        67.65834
239.71        65.35632
240.17        60.47979
240.63         57.2944
241.08        59.84226
241.54        65.18771
242.00         69.6265
242.46        71.45974
242.91        71.08405
243.37        68.36378
243.83        61.84768
244.28        53.17347
244.74        52.09716
245.20        58.73599
245.66        65.04714
246.11        67.68212
246.57        67.48684
247.03        65.56631
247.48        61.45405
247.94        56.61805
248.40        54.19487
248.85        53.61247
249.31        55.42635
249.77        60.02139
250.22         65.7879
250.68        71.48131
251.14        75.77925
251.59        77.66573
252.05         77.3663
252.51        74.67159
252.96        69.22656
253.42        63.88594
253.88        61.28593
254.33        61.34266
254.79        62.14844
255.25        61.39246
255.70        59.32435
256.16        57.37774
256.62        56.74158
257.07        58.61978
257.53        62.35252
257.99        66.17585
258.44        68.73967
258.90        69.40067
259.35        68.14874
259.81        66.13361
260.27        63.75781
260.72        61.52099
261.18        59.93549
261.63        58.57417
262.09        57.54142
262.55        56.54598
263.00        55.46978
263.46        54.51944
263.91         53.6992
264.37        53.35833
264.83        53.38334
265.28        53.58552
265.74        53.75139
266.19        53.39523
266.65        52.56605
267.11        51.37498
267.56        50.08192
268.02        49.20315
268.47        48.79774
268.93        48.71699
269.38        48.72594
269.84        48.49043
270.30        47.90803
270.75        47.09665
271.21        46.15176
271.66        45.16169
272.12        44.20554
272.57        43.21044
273.03        42.26921
273.48        41.44433
273.94        40.79649
274.39        40.26947
274.85        39.81599
275.31        39.25876
275.76        38.55268
276.22        37.79319
276.67        37.01905
277.13        36.40351
277.58        35.91314
278.04        35.53873
278.49        35.16236
278.95        34.74189
279.40        34.20749
279.86        33.65819
280.31         33.0834
280.77        32.59668
281.22        32.17527
281.68        31.84048
282.13        31.54707
282.59        31.29542
283.04        31.05212
283.50        30.83756
283.95        30.63402
284.41        30.46398
284.86        30.30315
285.32        30.15835
285.77        29.99592
286.22        29.81321
286.68        29.62486
287.13        29.40696
287.59        29.18787
288.04        28.92891
288.50        28.66879
288.95        28.39234
289.41        28.16144
289.86        28.01505
290.32        27.98001
290.77        28.03046
291.22        28.12856
291.68        28.20723
292.13        28.24445
292.59        28.27853
293.04        28.34896
293.50        28.54742
293.95        28.87844
294.40        29.31653
294.86         29.8166
295.31         30.3007
295.77        30.75466
296.22        31.18842
296.68         31.6321
297.13        32.10594
297.58        32.62296
298.04        33.17121
298.49        33.72961
298.95        34.29296
299.40        34.84941
299.85        35.39321
300.31        35.95865
300.76        36.55511
301.21        37.18029
301.67        37.82946
302.12        38.39966
302.58        38.79107
303.03        38.97898
303.48        39.01743
303.94        39.05922
304.39        39.28096
304.84        39.72645
305.30        40.33207
305.75        40.92676
306.20        41.29766
306.66        41.41209
307.11        41.31464
307.57        41.14845
308.02        41.06235
308.47        41.11709
308.93        41.26121
309.38        41.39949
309.83        41.42344
310.29        41.31978
310.74        41.12064
311.19        40.89788
311.65        40.75383
312.10        40.69505
312.55         40.6895
313.00        40.69667
313.46        40.65816
313.91        40.55077
314.36        40.40344
314.82        40.21729
315.27        39.98929
315.72        39.73224
316.18         39.4544
316.63        39.19084
317.08        39.02082
317.53        38.95588
317.99        38.97086
318.44        39.00998
318.89        38.96327
319.35        38.80375
319.80        38.56341
320.25        38.29539
320.70         38.0947
321.16        37.97683
321.61        37.91376
322.06        37.86111
322.51        37.75232
322.97        37.56347
323.42        37.33782
323.87        37.08086
324.32        36.80865
324.78        36.53296
325.23        36.25651
325.68        36.01589
326.13        35.87977
326.59        35.84403
327.04        35.91378
327.49        36.00201
327.94        35.97422
328.39        35.79449
328.85        35.48413
329.30        35.13778
329.75        34.90141
330.20        34.82219
330.66        34.84748
331.11        34.91835
331.56        34.88118
332.01        34.69857
332.46        34.41849
332.92        34.10991
333.37        33.92932
333.82        33.90649
334.27        33.98824
334.72        34.11306
335.17        34.18366
335.63        34.15459
336.08        34.07681
336.53        33.94421
336.98        33.76012
337.43         33.5456
337.88        33.30835
338.34        33.09705
338.79        33.00223
339.24        33.04016
339.69        33.18145
340.14        33.38267
340.59        33.56729
341.05        33.69986
341.50        33.79977
341.95        33.83718
342.40        33.78005
342.85        33.63372
343.30        33.40529
343.75        33.16595
344.20         33.0337
344.66        33.04121
345.11        33.16193
345.56        33.32101
346.01        33.38833
346.46        33.33332
346.91         33.1925
347.36        33.04642
347.81        33.01833
348.26        33.13113
348.72        33.34044
349.17        33.55458
349.62        33.63375
350.07         33.5422
350.52        33.31706
350.97         33.0537
351.42        32.90449
351.87        32.90187
352.32        32.99792
352.77        33.08519
353.22        33.00031
353.67        32.71511
354.13          32.305
354.58        31.86118
355.03         31.5773
355.48        31.50399
355.93        31.58619
356.38        31.72452
356.83        31.76466
357.28        31.66351
357.73        31.46432
358.18        31.23933
358.63        31.10032
359.08        31.06763
359.53        31.09441
359.98        31.10609
360.43        30.99306
360.88        30.73357
361.33        30.36838
361.78        29.96162
362.23        29.64549
362.68        29.46189
363.13        29.31884
363.58        29.15927
364.03        29.21689
364.48        28.94407
364.93        28.78359
365.38        28.61094
365.83        28.48931
366.28        28.41978
366.73        28.38032
367.18        28.32945
367.63        28.19196
368.08        27.95576
368.53        27.65127
368.98        27.32197
369.43        27.03538
369.88        26.81715
370.33        26.65214
370.78        26.52813
371.23        26.42517
371.68        26.32605
372.13        26.22488
372.58        26.11823
373.03        25.99781
373.48        25.86245
373.93         25.7261
374.38        25.55765
374.83        25.30962
375.28        24.98977
375.72        24.60684
376.17        24.28739
376.62        24.18664
377.07        24.31544
377.52        24.59913
377.97        24.89102
378.42        24.96165
378.87        24.76077
379.32        24.37647
379.77        23.89926
380.22         23.4653
380.67        23.12767
381.11        22.84859
381.56        22.65254
382.01        22.58062
382.46        22.62464
382.91        22.77201
383.36        22.93659
383.81        22.97676
384.26        22.86034
384.71        22.62296
385.15        22.32541
385.60        22.10434
386.05        21.98895
386.50        21.95038
386.95        21.95862
387.40        21.96535
387.85        21.95548
388.29        21.93038
388.74        21.92978
389.19        21.95912
389.64        22.00968
390.09        22.05272
390.54         22.0617
390.98        21.99775
391.43        21.86685
391.88        21.69316
392.33        21.47329
392.78        21.23464
393.23        21.00545
393.67        20.69989
394.12        20.39563
394.57        20.43775
395.02        20.46625
395.47        20.41951
395.91        20.22996
396.36        20.19077
396.81        20.30997
397.26        20.42277
397.71        20.47135
398.15        20.45209
398.60        20.38122
399.05        20.18595
399.50        19.95951
399.95        19.96203
400.39        20.14921
400.84        20.19757
401.29        20.07522
401.74        19.92816
402.18        19.80194
402.63        19.74617
403.08        19.76575
403.53        19.75504
403.97        19.71633
404.42        19.75448
404.87        19.82885
405.32        19.83781
405.76        19.76602
406.21        19.59335
406.66        19.39803
407.11        19.39388
407.55        19.55082
408.00         19.6356
408.45        19.58734
408.90        19.37288
409.34        19.07195
409.79        18.96412
410.24        19.04928
410.68        19.07873
411.13        19.04613
411.58        19.12664
412.03        19.29488
412.47        19.40307
412.92        19.41705
413.37        19.38906
413.81        19.32804
414.26        19.26074
414.71        19.19444
415.15        19.12066
415.60        19.05384
416.05        19.03323
416.49        19.06596
416.94        19.13793
417.39        19.21506
417.83        19.24293
418.28        19.20262
418.73        19.10267
419.17        18.97694
419.62        18.88494
420.07        18.85326
420.51        18.87761
420.96        18.91937
421.41         18.9401
421.85        18.92523
422.30        18.79871
422.74        18.65353
423.19        18.86429
423.64        19.35407
424.08        19.60027
424.53        19.49737
424.98        19.43615
425.42         19.4317
425.87         19.1231
426.31        18.66287
426.76        18.68624
427.21        19.11286
427.65         19.2299
428.10        19.03617
428.54        19.01985
428.99        19.17463
429.44        19.40279
429.88        19.56149
430.33        19.19535
430.77        18.53169
431.22        18.39818
431.66        18.78389
432.11        19.11716
432.56        19.30458
433.00         19.4418
433.45        19.35928
433.89        19.12263
434.34        19.01068
434.78        18.01757
435.23        18.50662
435.67        19.04226
436.12        19.40891
436.57        19.59303
437.01        19.42209
437.46        19.32816
437.90        19.41101
438.35        19.54909
438.79        19.14545
439.24         19.0087
439.68        18.98684
440.13        19.01174
440.57        19.04564
441.02        19.17845
441.46         19.3398
441.91        19.17101
442.35          18.811
442.80        18.93444
443.24        19.43103
443.69        19.50116
444.13         19.1468
444.58        19.01423
445.02        19.10331
445.47        19.08149
445.91        18.94971
446.36        18.89299
446.80        18.91414
447.24         18.9493
447.69        18.99536
448.13        19.09483
448.58        19.21477
449.02        19.25205
449.47        19.21492
449.91        19.20418
450.36        19.22919
450.80        19.22085
451.25        19.19125
451.69        19.19113
452.13        19.21654
452.58        19.23372
453.02        19.22817
453.47        19.18675
453.91         19.1067
454.36        19.03108
454.80        18.94087
455.24        18.78436
455.69        18.61359
456.13        18.46088
456.58        18.38746
457.02        18.55268
457.46        18.84786
457.91        18.92198
458.35         18.8316
458.79        18.79016
459.24        18.82187
459.68        18.76355
460.13        18.65553
460.57        18.53355
461.01        18.49606
461.46        18.54735
461.90         18.5662
462.34        18.56394
462.79        18.81399
463.23        18.81929
463.68        18.70585
464.12        18.62869
464.56        18.62243
465.01        18.71716
465.45         18.8084
465.89        18.73375
466.34        18.55069
466.78        18.37185
467.22        18.22296
467.67        18.52858
468.11        18.46983
468.55        18.49972
468.99        18.39675
469.44        18.38742
469.88        18.47032
470.32        18.50417
470.77        18.49686
471.21        18.52076
471.65         18.5803
472.10        18.65596
472.54        18.71246
472.98         18.7254
473.42        18.69614
473.87        18.58456
474.31        18.44201
474.75        18.51778
475.20        18.75572
475.64          18.786
476.08        18.60935
476.52         18.5827
476.97        18.72701
477.41        18.67436
477.85        18.59933
478.29        18.74613
478.74        18.64189
479.18        18.50291
479.62        18.81448
480.06        18.91133
480.50        18.99026
480.95        19.03919
481.39        19.02212
481.83        19.29682
482.27        19.27693
482.72        19.12363
483.16        19.29051
483.60        19.28374
484.04        19.26175
484.48        19.33753
484.93        19.61767
485.37        19.47603
485.81        19.75569
486.25        20.18282
486.69        19.59186
487.14        19.34756
487.58        20.34879
488.02        19.97713
488.46        19.86609
488.90        20.31822
489.34        19.77778
489.79         19.6693
490.23        20.19852
490.67        20.53655
491.11        20.80007
491.55        20.79865
491.99        20.63141
492.43        20.65488
492.88         20.8933
493.32        21.10491
493.76         21.2364
494.20        21.37344
494.64        21.52047
495.08        21.58974
495.52        21.61552
495.96        21.82904
496.41        22.20259
496.85        22.19956
497.29        21.93469
497.73        22.07358
498.17        22.56196
498.61        22.92167
499.05        23.03306
499.49        23.03349
499.93        22.98646
500.37        22.97119
500.82        23.01356
501.26        23.14046
501.70        23.37096
502.14        23.22146
502.58         23.5085
503.02        23.59478
503.46        23.62115
503.90        23.62512
504.34        23.60527
504.78        23.63612
505.22        23.71628
505.66        23.78387
506.10        23.84181
506.54        23.96018
506.98        24.14124
507.42        24.24735
507.86        24.44146
508.30        24.52958
508.74        24.55952
509.18        24.53528
509.62        24.49162
510.06        24.48297
510.50         24.5232
510.94        24.60152
511.38        24.69019
511.82        24.74356
512.26         24.7507
512.70        24.72756
513.14        24.70293
513.58        24.71206
514.02        24.76252
514.46        24.85725
514.90        24.97118
515.34        24.97668
515.78        25.00705
516.22        24.96172
516.66        24.91155
517.10        24.89643
517.54         24.9278
517.98        24.98912
518.42        25.05642
518.86        25.09572
519.30        25.09628
519.74        25.06944
520.18        25.02987
520.62        24.99885
521.06        24.98436
521.50        24.98215
521.93        24.98545
522.37        24.97507
522.81        24.95054
523.25        24.91425
523.69         24.8806
524.13        24.87193
524.57        24.88782
525.01        24.91657
525.45        24.93025
525.89        24.88546
526.32        24.77244
526.76        24.61782
527.20        24.44735
527.64        24.30596
528.08        24.20837
528.52        24.13955
528.96        24.09835
529.40        24.08085
529.83        24.07893
530.27        24.09861
530.71        24.11022
531.15        24.06732
531.59        23.96498
532.03         23.8156
532.46        23.66495
532.90        23.60176
533.34        23.63819
533.78        23.74627
534.22        23.87115
534.66        23.92886
535.09        23.89761
535.53         23.8088
535.97        23.69888
536.41        23.62977
536.85        23.61935
537.28        23.64907
537.72        23.69567
538.16        23.71918
538.60        23.71177
539.04         23.6966
539.47        23.68562
539.91        23.70817
540.35        23.76485
540.79        23.84938
541.22        23.94985
541.66        24.05023
542.10        24.14328
542.54        24.23399
542.97        24.32226
543.41        24.42245
543.85        24.53276
544.29        24.64912
544.72        24.76447
545.16        24.88676
545.60         25.0082
546.04        25.12745
546.47        25.24545
546.91        25.35864
547.35        25.46496
547.79        25.57903
548.22         25.6909
548.66        25.77794
549.10        25.85714
549.53        26.02419
549.97        26.26933
550.41        26.48538
550.84        26.65981
551.28        26.85479
551.72        27.05571
552.15        27.20767
552.59        27.31412
553.03        27.38233
553.46        27.43861
553.90        27.54589
554.34        27.70917
554.77        27.91898
555.21        28.13431
555.65        28.28933
556.08        28.34044
556.52        28.37369
556.96        28.40329
557.39        28.49224
557.83        28.62847
558.27        28.67575
558.70        28.64738
559.14        28.67195
559.57        28.74911
560.01        28.84788
560.45        28.93973
560.88        28.96398
561.32        28.97571
561.75        29.05511
562.19        29.20868
562.63        29.42971
563.06        29.64249
563.50        29.62535
563.93        29.43478
564.37        29.42241
564.80        29.59991
565.24        29.79091
565.68        29.95916
566.11        30.11372
566.55        30.24822
566.98        30.38297
567.42        30.51081
567.85        30.53642
568.29        30.51907
568.72         30.5498
569.16        30.65026
569.60        30.82955
570.03        31.10699
570.47        31.16719
570.90        31.35505
571.34        31.84452
571.77         31.8708
572.21        31.78532
572.64        32.06241
573.08        31.93226
573.51        32.31607
573.95        32.46203
574.38        32.51648
574.82        32.60945
