SpectraSmart Spectrum 2.9.0.0
--------- Device Information -----------
Spectrum Name :  反射率_0
Saving Time :  2024/04/27 23:00:24
Spectro-Module Model Name : SE2030-DUVN
Spectro-Module Serial Number : OS361AC55029948
Wavelength Start : 200
Wavelength End : 1025
Wavelength Unit : Wavelength(nm)
Spectrum Unit : Reflectance(%)
-----------Spectrum Setting ------------
Integration Time : 20ms
Average : 10
Boxcar : 0
Background removal :  enabled
linearity correction :  enabled
SC :  disabled
Intensity correction :  disabled
DWT denoise :  enabled
savitzky-golay :  disabled
FFT :  disabled
Running average :  disabled
Kalman :  disabled
High pass :  disabled
---------------BEGIN--------------------
Wavelength(nm)             Reflectance(%)
200.29               0
200.75       -86.27756
201.21       -47.39652
201.67       -12.69091
202.13        4.402548
202.58        9.811613
203.04        10.15894
203.50        9.961434
203.96        13.52318
204.42        20.55797
204.88        28.68689
205.34         34.9397
205.80        37.05444
206.26        34.66748
206.72        26.25022
207.18        12.90203
207.64        7.910221
208.10        18.14197
208.55         34.2742
209.01        43.26933
209.47         40.9458
209.93        25.18566
210.39       -20.85024
210.85       -164.4169
211.31       -344.8163
211.77       -140.5902
212.23       -2.951041
212.69        45.69119
213.14        59.40305
213.60        56.58324
214.06        40.89827
214.52        9.840255
214.98       -14.47406
215.44       -6.514756
215.90        13.53989
216.36        30.06348
216.81        38.22662
217.27        40.18381
217.73        39.85456
218.19        37.79555
218.65        34.06499
219.11        29.08315
219.57        22.09471
220.02        14.97127
220.48        14.11408
220.94        20.35773
221.40        30.68069
221.86        40.57007
222.32        45.69294
222.77        46.39161
223.23        44.60922
223.69        42.06853
224.15        40.34063
224.61        39.79747
225.06        39.81933
225.52        40.73424
225.98        42.42061
226.44        44.27073
226.90        45.84617
227.36        47.01978
227.81        47.81175
228.27         48.2649
228.73        48.35965
229.19        47.67984
229.65        45.55437
230.10        42.03293
230.56        37.97008
231.02        34.14334
231.48        31.58192
231.93        30.41083
232.39        30.30639
232.85        31.12704
233.31        32.67746
233.77        34.66933
234.22        37.11203
234.68        39.16861
235.14        39.88214
235.60        39.10033
236.05        36.75344
236.51        33.91311
236.97        33.00347
237.43        34.92467
237.88          39.258
238.34        43.56921
238.80        45.11181
239.26        42.95458
239.71        36.03241
240.17         24.5542
240.63        17.79107
241.08         24.1924
241.54        37.28101
242.00        47.64193
242.46        50.93009
242.91        47.53468
243.37        35.61377
243.83         8.49361
244.28       -28.68402
244.74       -35.78012
245.20       -8.875253
245.66        17.54678
246.11        27.49493
246.57        24.14011
247.03        10.36127
247.48       -13.69674
247.94       -30.59068
248.40       -22.31376
248.85      0.07931082
249.31        22.90804
249.77        36.40538
250.22        41.17076
250.68        41.46933
251.14        40.47091
251.59        40.56212
252.05        42.29374
252.51        45.05316
252.96        47.38331
253.42        46.21438
253.88        40.78769
254.33         35.0785
254.79         31.4926
255.25         30.2345
255.70        30.64534
256.16        32.16349
256.62        34.75734
257.07        38.38411
257.53        42.36356
257.99        45.86678
258.44        48.04722
258.90        48.43987
259.35          47.221
259.81         45.3112
260.27        43.17884
260.72        41.40129
261.18        40.33594
261.63         39.5673
262.09        39.06851
262.55         38.5453
263.00        37.89201
263.46        37.28545
263.91        36.71115
264.37        36.38699
264.83        36.24515
265.28        36.17541
265.74        36.06366
266.19        35.64173
266.65        34.94338
267.11        34.03251
267.56        33.05336
268.02        32.31642
268.47        31.85472
268.93        31.58967
269.38        31.39789
269.84        31.10054
270.30        30.64081
270.75        30.08038
271.21        29.46006
271.66        28.80164
272.12        28.15294
272.57        27.48285
273.03        26.85772
273.48        26.31597
273.94        25.90194
274.39        25.56269
274.85        25.29659
275.31        25.03899
275.76        24.74903
276.22        24.45656
276.67        24.11035
277.13        23.70971
277.58        23.23171
278.04        22.73409
278.49         22.2212
278.95        21.78675
279.40        21.41191
279.86        21.12459
280.31        20.89317
280.77        20.76309
281.22        20.69275
281.68        20.69282
282.13        20.69754
282.59        20.64594
283.04        20.51464
283.50        20.31993
283.95        20.10139
284.41        19.94853
284.86        19.86645
285.32        19.84619
285.77        19.81288
286.22        19.67956
286.68        19.45338
287.13        19.14589
287.59        18.86789
288.04        18.72017
288.50        18.74484
288.95        18.87911
289.41        19.04975
289.86        19.11194
290.32        19.05186
290.77        18.91161
291.22        18.76966
291.68        18.74044
292.13        18.84255
292.59        19.04312
293.04        19.29206
293.50        19.53251
293.95        19.74024
294.40        19.95353
294.86        20.18413
295.31        20.44018
295.77        20.73772
296.22        21.05484
296.68        21.42832
297.13        21.89695
297.58        22.45726
298.04        23.07957
298.49        23.68833
298.95        24.17758
299.40        24.52913
299.85        24.77653
300.31        25.00359
300.76        25.30886
301.21        25.72598
301.67        26.22023
302.12        26.71788
302.58        27.13866
303.03         27.4493
303.48        27.68224
303.94        27.90053
304.39        28.15746
304.84        28.47725
305.30        28.84133
305.75        29.17515
306.20        29.39975
306.66        29.51237
307.11        29.51532
307.57        29.50116
308.02        29.55501
308.47        29.70413
308.93        29.90976
309.38        30.07757
309.83        30.08334
310.29        29.91857
310.74        29.62794
311.19        29.29756
311.65        29.05956
312.10        28.93885
312.55        28.90022
313.00        28.92182
313.46        28.97017
313.91        29.01752
314.36        29.07308
314.82        29.08923
315.27        28.98379
315.72        28.74933
316.18        28.41705
316.63        28.05231
317.08        27.78439
317.53        27.64582
317.99        27.59782
318.44        27.59688
318.89        27.55339
319.35        27.43765
319.80        27.27664
320.25        27.08613
320.70         26.8954
321.16        26.70901
321.61        26.51988
322.06        26.32087
322.51        26.10798
322.97         25.8802
323.42        25.65772
323.87        25.44055
324.32        25.23165
324.78        25.03157
325.23        24.83966
325.68        24.66828
326.13        24.54248
326.59        24.45003
327.04        24.39886
327.49        24.33356
327.94        24.17241
328.39        23.89772
328.85        23.52809
329.30        23.13243
329.75        22.82976
330.20        22.66139
330.66        22.59258
331.11        22.57985
331.56        22.50216
332.01        22.32804
332.46        22.09343
332.92        21.85243
333.37        21.71785
333.82        21.71218
334.27         21.7896
334.72        21.89766
335.17        21.95663
335.63        21.92924
336.08        21.85163
336.53        21.71787
336.98        21.52914
337.43         21.3031
337.88         21.0489
338.34        20.81079
338.79        20.66272
339.24        20.62408
339.69        20.67466
340.14        20.78191
340.59        20.88695
341.05        20.96081
341.50        21.01583
341.95        21.02793
342.40        20.97225
342.85        20.84867
343.30        20.65936
343.75        20.44654
344.20        20.28219
344.66        20.19168
345.11        20.16388
345.56        20.15977
346.01        20.10909
346.46        19.99618
346.91         19.8379
347.36        19.69328
347.81        19.64997
348.26        19.72105
348.72        19.87942
349.17        20.03486
349.62        20.04439
350.07        19.88001
350.52        19.58027
350.97        19.26994
351.42        19.14921
351.87        19.25467
352.32        19.51883
352.77        19.79177
353.22        19.84458
353.67        19.63194
354.13        19.24659
354.58        18.80378
355.03        18.53647
355.48        18.50924
355.93        18.65496
356.38        18.86754
356.83        18.98344
357.28        18.95549
357.73        18.83156
358.18         18.6855
358.63        18.62864
359.08        18.68164
359.53        18.79823
359.98        18.89847
360.43        18.86561
360.88        18.67791
361.33        18.37679
361.78        18.03919
362.23        17.82315
362.68        17.77346
363.13        17.77885
363.58        17.75533
364.03        17.94719
364.48        17.71318
364.93        17.57179
365.38        17.39992
365.83        17.30516
366.28         17.2984
366.73        17.34875
367.18        17.38647
367.63         17.2882
368.08        17.03414
368.53        16.67209
368.98        16.28531
369.43        16.00388
369.88         15.8672
370.33        15.83997
370.78        15.86922
371.23        15.86849
371.68        15.80309
372.13        15.68844
372.58        15.55308
373.03          15.441
373.48        15.36684
373.93         15.3265
374.38        15.27023
374.83        15.12383
375.28        14.88409
375.72        14.56776
376.17        14.30731
376.62        14.26793
377.07         14.4667
377.52        14.83383
377.97        15.20963
378.42        15.34562
378.87        15.19113
379.32        14.83463
379.77         14.4085
380.22         14.1145
380.67        14.00707
381.11        14.02099
381.56        14.09983
382.01        14.15022
382.46        14.13693
382.91        14.09614
383.36        14.02789
383.81        13.92544
384.26        13.79501
384.71        13.63243
385.15        13.46029
385.60        13.34893
386.05        13.30375
386.50        13.31785
386.95         13.3612
387.40        13.38135
387.85        13.36829
388.29        13.32868
388.74        13.30749
389.19        13.34081
389.64        13.42728
390.09        13.53527
390.54        13.63167
390.98        13.66477
391.43        13.62547
391.88        13.53888
392.33         13.4029
392.78        13.23552
393.23        13.05926
393.67        12.82078
394.12        12.58656
394.57        12.59103
395.02        12.61708
395.47        12.62507
395.91        12.55434
396.36          12.552
396.81        12.61588
397.26        12.65183
397.71           12.65
398.15        12.64706
398.60        12.65529
399.05        12.61185
399.50        12.54264
399.95        12.56655
400.39        12.64704
400.84        12.59467
401.29        12.41803
401.74        12.25513
402.18        12.15017
402.63        12.12516
403.08        12.16503
403.53        12.17467
403.97        12.14671
404.42        12.15304
404.87        12.18642
405.32        12.21058
405.76        12.21827
406.21         12.1841
406.66        12.12802
407.11        12.14081
407.55         12.1949
408.00         12.1583
408.45        12.02637
408.90        11.83555
409.34        11.65008
409.79         11.6241
410.24        11.73468
410.68        11.79174
411.13        11.77996
411.58         11.8212
412.03        11.90758
412.47        11.96144
412.92        11.96568
413.37        11.94427
413.81        11.90698
414.26        11.87883
414.71        11.86359
415.15        11.85501
415.60        11.84657
416.05        11.83043
416.49         11.8065
416.94        11.77752
417.39        11.75011
417.83        11.73417
418.28        11.72679
418.73        11.71971
419.17          11.712
419.62          11.705
420.07        11.70311
420.51        11.71531
420.96        11.72475
421.41         11.7192
421.85        11.69487
422.30        11.60047
422.74        11.49662
423.19        11.62157
423.64        11.92599
424.08        12.08535
424.53        12.02358
424.98        11.96943
425.42        11.92752
425.87        11.68486
426.31        11.33354
426.76        11.26332
427.21        11.42494
427.65        11.39638
428.10         11.2042
428.54        11.17123
428.99        11.29541
429.44        11.51007
429.88          11.698
430.33        11.53775
430.77         11.1483
431.22        11.03741
431.66        11.22523
432.11        11.39682
432.56        11.50691
433.00        11.64683
433.45        11.67807
433.89        11.46534
434.34        11.22094
434.78        10.59445
435.23        10.97516
435.67        11.34579
436.12        11.56762
436.57         11.7423
437.01        11.73762
437.46        11.70731
437.90        11.70363
438.35        11.68226
438.79        11.32099
439.24        11.16048
439.68        11.12581
440.13        11.16141
440.57        11.22495
441.02        11.34839
441.46        11.48105
441.91        11.37725
442.35        11.13699
442.80        11.25723
443.24        11.63994
443.69        11.62215
444.13        11.23455
444.58        11.06256
445.02        11.11339
445.47        11.09267
445.91        10.99145
446.36        10.95145
446.80        10.97039
447.24        11.00578
447.69        11.05113
448.13         11.1286
448.58        11.21486
449.02        11.24955
449.47        11.24014
449.91        11.25298
450.36        11.29277
450.80        11.31789
451.25        11.32291
451.69        11.32012
452.13        11.30488
452.58        11.26385
453.02        11.20675
453.47        11.15499
453.91        11.11234
454.36        11.09565
454.80         11.0752
455.24        10.99125
455.69        10.86864
456.13        10.73821
456.58        10.65023
457.02        10.71731
457.46        10.88272
457.91        10.93405
458.35         10.9022
458.79        10.90532
459.24        10.95507
459.68        10.95871
460.13        10.93075
460.57        10.87503
461.01        10.84898
461.46        10.85801
461.90        10.84883
462.34        10.85683
462.79        11.04553
463.23        11.11475
463.68        11.11376
464.12        11.10045
464.56        11.08632
465.01         11.1049
465.45        11.10593
465.89        11.01427
466.34        10.87076
466.78        10.73282
467.22        10.61981
467.67         10.7855
468.11        10.75378
468.55        10.79095
468.99        10.75184
469.44        10.74152
469.88        10.75526
470.32        10.71844
470.77        10.66467
471.21        10.68222
471.65        10.78301
472.10        10.93857
472.54        11.09511
472.98        11.18621
473.42        11.19998
473.87        11.12824
474.31        11.02457
474.75        11.07614
475.20        11.25859
475.64        11.33742
476.08        11.29318
476.52        11.31663
476.97        11.41511
477.41        11.37051
477.85        11.30287
478.29        11.38156
478.74        11.32577
479.18        11.26351
479.62        11.47219
480.06        11.51942
480.50        11.52193
480.95        11.48142
481.39        11.41189
481.83        11.58255
482.27        11.65443
482.72        11.71036
483.16        11.97359
483.60        12.06439
484.04         12.0603
484.48        12.02031
484.93        12.10462
485.37        12.07014
485.81         12.3714
486.25        12.81896
486.69        12.39413
487.14        11.96337
487.58        12.95911
488.02        12.67118
488.46        12.88564
488.90        13.10639
489.34        12.49659
489.79        12.36514
490.23         12.8386
490.67        13.19631
491.11         13.4603
491.55        13.50846
491.99        13.40633
492.43        13.46261
492.88        13.69291
493.32        13.85289
493.76        13.92894
494.20        14.06758
494.64        14.28141
495.08        14.48246
495.52        14.65296
495.96         14.8902
496.41        15.18326
496.85        15.13168
497.29        14.86782
497.73        14.99252
498.17        15.45025
498.61         15.7144
499.05        15.70387
499.49        15.68501
499.93        15.70485
500.37        15.71983
500.82         15.7458
501.26        15.84187
501.70        16.02368
502.14        15.94662
502.58        16.17321
503.02        16.27093
503.46        16.33568
503.90        16.39178
504.34        16.43278
504.78        16.50006
505.22        16.58885
505.66        16.65802
506.10        16.71086
506.54        16.79926
506.98         16.9275
507.42        16.99997
507.86        17.13395
508.30        17.19789
508.74        17.22723
509.18        17.22489
509.62        17.21543
510.06        17.23614
510.50        17.29502
510.94        17.38308
511.38        17.47731
511.82         17.5407
512.26        17.56415
512.70        17.56002
513.14        17.54975
513.58        17.56052
514.02        17.59929
514.46        17.66811
514.90        17.75151
515.34        17.76263
515.78        17.79602
516.22        17.77752
516.66        17.75417
517.10         17.7489
517.54        17.76773
517.98        17.80074
518.42        17.82931
518.86        17.82693
519.30        17.78836
519.74        17.72503
520.18        17.65563
520.62        17.60767
521.06        17.58941
521.50        17.59365
521.93        17.61058
522.37          17.616
522.81        17.60539
523.25        17.58166
523.69        17.55278
524.13        17.53157
524.57        17.51875
525.01        17.50807
525.45        17.48491
525.89        17.42702
526.32        17.32994
526.76        17.21226
527.20         17.0921
527.64        17.00028
528.08        16.94523
528.52        16.91475
528.96        16.90227
529.40        16.89756
529.83         16.8911
530.27        16.88356
530.71        16.85914
531.15        16.79222
531.59        16.68376
532.03        16.54881
532.46        16.40866
532.90        16.31016
533.34        16.26349
533.78        16.25467
534.22        16.28345
534.66         16.3475
535.09        16.43582
535.53        16.54911
535.97        16.65079
536.41        16.68554
536.85        16.64498
537.28        16.54464
537.72        16.43347
538.16        16.39063
538.60        16.43638
539.04        16.55194
539.47        16.68943
539.91        16.78415
540.35        16.81694
540.79        16.81423
541.22        16.80765
541.66        16.84722
542.10        16.94451
542.54        17.07963
542.97        17.22666
543.41        17.35847
543.85        17.46295
544.29        17.55122
544.72        17.63061
545.16        17.72562
545.60        17.83706
546.04        17.95914
546.47        18.08746
546.91        18.21087
547.35         18.3259
547.79        18.44466
548.22        18.56781
548.66        18.69289
549.10        18.83182
549.53        19.04962
549.97        19.32128
550.41        19.53988
550.84         19.6905
551.28        19.82821
551.72        19.96445
552.15        20.09425
552.59        20.22827
553.03        20.35914
553.46        20.48735
553.90        20.63116
554.34        20.78699
554.77        20.95689
555.21        21.12014
555.65        21.24315
556.08        21.29824
556.52        21.34542
556.96        21.39022
557.39        21.47287
557.83        21.58426
558.27        21.62641
558.70        21.61601
559.14        21.65907
559.57        21.75621
560.01          21.879
560.45        21.99872
560.88        22.05981
561.32        22.10019
561.75        22.18259
562.19        22.31213
562.63        22.48623
563.06        22.64813
563.50         22.6292
563.93        22.47331
564.37        22.45142
564.80        22.57531
565.24         22.7144
565.68        22.84448
566.11        22.97645
566.55        23.10586
566.98        23.24595
567.42        23.39452
567.85        23.48048
568.29        23.54616
568.72        23.66318
569.16        23.83742
569.60        24.02985
570.03        24.24191
570.47        24.29921
570.90         24.5038
571.34        24.77428
571.77        24.91601
572.21        25.04334
572.64        25.18831
573.08        25.33304
573.51        25.42093
573.95        25.57391
574.38        25.67557
574.82        25.89069
