SpectraSmart Spectrum 2.9.0.0
--------- Device Information -----------
Spectrum Name :  反射率_0
Saving Time :  2024/04/27 22:15:06
Spectro-Module Model Name : SE2030-DUVN
Spectro-Module Serial Number : OS361AC55029948
Wavelength Start : 200
Wavelength End : 1025
Wavelength Unit : Wavelength(nm)
Spectrum Unit : Reflectance(%)
-----------Spectrum Setting ------------
Integration Time : 20ms
Average : 10
Boxcar : 0
Background removal :  enabled
linearity correction :  enabled
SC :  disabled
Intensity correction :  disabled
DWT denoise :  enabled
savitzky-golay :  disabled
FFT :  disabled
Running average :  disabled
Kalman :  disabled
High pass :  disabled
---------------BEGIN--------------------
Wavelength(nm)             Reflectance(%)
200.29               0
200.75       -62.47171
201.21       -10.48867
201.67        34.68687
202.13        56.57343
202.58        63.30567
203.04        63.15237
203.50        60.76208
203.96        61.46133
204.42        65.54364
204.88        70.23196
205.34        73.76013
205.80        74.83977
206.26        73.09484
206.72        68.03659
207.18        58.84189
207.64        49.89084
208.10        47.74087
208.55        51.50507
209.01        53.79996
209.47        50.92804
209.93        40.61158
210.39        11.99746
210.85       -73.93752
211.31       -168.6616
211.77       -37.11714
212.23        43.65751
212.69         69.9561
213.14        74.67398
213.60         67.4345
214.06        48.53009
214.52        14.86656
214.98       -9.846269
215.44       0.8379972
215.90        24.51857
216.36        44.63143
216.81        56.76023
217.27        63.37374
217.73        68.09593
218.19        70.49239
218.65        68.73615
219.11        62.56999
219.57        51.73455
220.02        38.78502
220.48        32.47049
220.94         35.4962
221.40        44.38294
221.86        54.64699
222.32        61.69987
222.77        65.07049
223.23        66.39252
223.69        66.07021
224.15         64.2512
224.61        61.25488
225.06        56.80684
225.52        52.45076
225.98         51.0074
226.44        52.65491
226.90        55.67684
227.36        58.38649
227.81        59.46362
228.27        59.01492
228.73         57.4604
229.19        55.10029
229.65        52.67244
230.10        50.59971
230.56        49.04686
231.02         47.8362
231.48         46.7975
231.93        45.83088
232.39        45.10601
232.85        44.88246
233.31        45.52564
233.77        46.93078
234.22        48.91767
234.68         50.6716
235.14        51.23307
235.60        50.44529
236.05        48.36991
236.51        45.96658
236.97        45.37556
237.43        47.40081
237.88        51.63504
238.34        56.00497
238.80        58.42019
239.26        58.34018
239.71        55.39436
240.17        49.97702
240.63        47.94534
241.08        53.57071
241.54        62.11841
242.00        68.21835
242.46        69.64735
242.91        66.67624
243.37        57.66243
243.83        37.71221
244.28          10.516
244.74        5.183127
245.20        24.99622
245.66        45.01839
246.11        53.89363
246.57        54.42545
247.03        49.48402
247.48        39.35997
247.94        32.04362
248.40        35.68151
248.85          44.867
249.31        54.43411
249.77         60.9821
250.22         64.3843
250.68        66.04984
251.14        66.88015
251.59         67.5049
252.05        68.24084
252.51        68.77574
252.96        68.14697
253.42        65.56611
253.88         61.4526
254.33        57.81694
254.79        55.69033
255.25        54.43621
255.70        53.64888
256.16        53.62158
256.62        54.43093
257.07        56.21498
257.53        58.65017
257.99        60.79122
258.44        61.99044
258.90        62.09033
259.35        60.99095
259.81        59.47513
260.27         57.6101
260.72        55.52868
261.18        53.74014
261.63        52.03986
262.09        50.73937
262.55        49.81482
263.00        49.13465
263.46        48.74098
263.91        48.46202
264.37         48.3814
264.83        48.36698
265.28        48.35145
265.74        48.24897
266.19        47.75767
266.65        46.94655
267.11        45.87105
267.56          44.721
268.02        43.90141
268.47        43.45309
268.93        43.27349
269.38         43.1895
269.84         42.9501
270.30        42.47396
270.75        41.84502
271.21        41.11427
271.66        40.31212
272.12        39.49605
272.57        38.61319
273.03        37.77143
273.48        37.05849
273.94        36.54165
274.39        36.16529
274.85        35.86346
275.31        35.44791
275.76        34.87074
276.22        34.21461
276.67        33.55448
277.13        33.10331
277.58        32.82674
278.04        32.69459
278.49        32.51323
278.95        32.12356
279.40        31.45517
279.86        30.65359
280.31        29.82507
280.77        29.24275
281.22        28.91314
281.68        28.79415
282.13        28.74039
282.59        28.60548
283.04        28.33083
283.50        27.97537
283.95        27.60611
284.41        27.36488
284.86        27.25615
285.32        27.25079
285.77        27.22514
286.22        27.04312
286.68        26.70654
287.13        26.24191
287.59        25.80401
288.04        25.54723
288.50        25.53019
288.95        25.66328
289.41        25.84754
289.86        25.88868
290.32        25.76576
290.77        25.53268
291.22        25.28901
291.68        25.17447
292.13        25.21712
292.59        25.38914
293.04          25.627
293.50        25.86121
293.95        26.06045
294.40        26.25533
294.86        26.49359
295.31        26.83763
295.77        27.30146
296.22        27.84199
296.68        28.39866
297.13        28.85476
297.58        29.19184
298.04         29.4478
298.49        29.68139
298.95        29.99604
299.40        30.41143
299.85        30.89028
300.31        31.41811
300.76        31.93121
301.21        32.41141
301.67        32.87894
302.12        33.28505
302.58        33.59742
303.03        33.80205
303.48        33.91925
303.94        34.03767
304.39        34.24775
304.84        34.57767
305.30        34.99712
305.75        35.39721
306.20        35.65075
306.66        35.74251
307.11        35.68787
307.57         35.5898
308.02        35.54187
308.47        35.58743
308.93        35.69592
309.38        35.78627
309.83        35.76289
310.29        35.61801
310.74        35.37464
311.19        35.11456
311.65        34.96057
312.10        34.91988
312.55         34.9546
313.00        34.99396
313.46         34.9314
313.91        34.73666
314.36        34.45205
314.82        34.11575
315.27        33.78445
315.72        33.48842
316.18        33.22298
316.63        32.99041
317.08        32.81525
317.53        32.69606
317.99        32.62205
318.44         32.5758
318.89        32.50942
319.35        32.40604
319.80         32.2739
320.25        32.11201
320.70         31.9302
321.16        31.72659
321.61        31.50113
322.06        31.26526
322.51        31.04254
322.97        30.83558
323.42        30.65804
323.87        30.47712
324.32        30.24371
324.78        29.94743
325.23        29.60599
325.68         29.2748
326.13        29.05128
326.59         28.9423
327.04        28.93943
327.49        28.94544
327.94        28.80888
328.39        28.49231
328.85        28.03195
329.30        27.53521
329.75         27.1811
330.20        27.02707
330.66        27.01245
331.11        27.06386
331.56        27.00903
332.01        26.80128
332.46        26.49615
332.92        26.15694
333.37        25.91932
333.82        25.81721
334.27        25.79853
334.72        25.83178
335.17        25.87084
335.63        25.88108
336.08        25.89444
336.53        25.86167
336.98         25.7108
337.43         25.4401
337.88        25.07343
338.34         24.7019
338.79        24.48264
339.24        24.45579
339.69        24.57927
340.14        24.77165
340.59        24.89369
341.05        24.89917
341.50        24.82999
341.95        24.71497
342.40        24.61011
342.85        24.53496
343.30        24.46466
343.75        24.39454
344.20        24.32368
344.66        24.25397
345.11        24.19065
345.56        24.12988
346.01        24.05695
346.46        23.97027
346.91         23.8721
347.36        23.77955
347.81        23.71809
348.26        23.69253
348.72        23.69772
349.17        23.70794
349.62        23.68065
350.07        23.60711
350.52        23.49616
350.97        23.39221
351.42        23.36586
351.87        23.42792
352.32        23.55483
352.77        23.67812
353.22        23.69714
353.67        23.59081
354.13        23.39782
354.58        23.16961
355.03        23.03933
355.48        23.03918
355.93        23.13974
356.38        23.24754
356.83        23.21752
357.28        23.02245
357.73        22.70625
358.18        22.38765
358.63        22.24937
359.08        22.32097
359.53         22.5382
359.98        22.75971
360.43        22.76517
360.88        22.51044
361.33        22.06967
361.78        21.57145
362.23        21.25968
362.68        21.20026
363.13        21.24871
363.58        21.29691
364.03        21.53521
364.48        21.33394
364.93        21.21222
365.38        21.03661
365.83        20.88191
366.28        20.76427
366.73        20.66109
367.18        20.56808
367.63        20.47004
368.08        20.36313
368.53        20.25903
368.98        20.15384
369.43         20.0344
369.88        19.90317
370.33        19.76691
370.78        19.63802
371.23        19.54049
371.68        19.47396
372.13        19.41747
372.58        19.36924
373.03        19.32487
373.48        19.27918
373.93        19.24677
374.38        19.17843
374.83         18.9962
375.28        18.70087
375.72          18.308
376.17        17.96218
376.62        17.85082
377.07        17.99533
377.52        18.31811
377.97        18.65665
378.42        18.75505
378.87        18.56048
379.32        18.17035
379.77        17.70248
380.22        17.33524
380.67        17.12354
381.11         17.0076
381.56        16.97406
382.01        17.00067
382.46        17.06417
382.91        17.17926
383.36        17.28155
383.81        17.26358
384.26        17.11135
384.71        16.85068
385.15        16.56723
385.60        16.43432
386.05        16.47672
386.50        16.64662
386.95        16.85678
387.40        16.96712
387.85        16.94657
388.29        16.83548
388.74        16.71466
389.19        16.65981
389.64        16.68305
390.09        16.73726
390.54        16.79391
390.98        16.80997
391.43        16.77662
391.88        16.71784
392.33        16.60883
392.78         16.4374
393.23        16.22353
393.67        15.90924
394.12        15.58796
394.57        15.57019
395.02        15.59046
395.47        15.59138
395.91        15.49157
396.36        15.46288
396.81        15.50286
397.26        15.50738
397.71        15.46732
398.15         15.4292
398.60        15.41075
399.05        15.33181
399.50        15.23823
399.95        15.29642
400.39        15.46217
400.84        15.49725
401.29        15.37573
401.74        15.20713
402.18        15.03416
402.63        14.90255
403.08        14.83477
403.53        14.78399
403.97        14.76048
404.42        14.82959
404.87        14.95578
405.32        15.05264
405.76        15.09631
406.21        15.06843
406.66        14.99796
407.11        15.00307
407.55        15.05362
408.00        14.98274
408.45        14.79026
408.90        14.53304
409.34        14.29483
409.79        14.26443
410.24        14.41056
410.68        14.49317
411.13        14.48935
411.58        14.54688
412.03         14.6576
412.47        14.72806
412.92        14.73751
413.37        14.71608
413.81        14.66397
414.26        14.59446
414.71        14.51199
415.15        14.41485
415.60        14.32285
416.05        14.27634
416.49        14.28635
416.94        14.34156
417.39        14.41016
417.83        14.44174
418.28        14.41737
418.73        14.34208
419.17        14.24888
419.62         14.1958
420.07        14.20226
420.51        14.26043
420.96        14.31846
421.41        14.31395
421.85        14.23476
422.30        14.03984
422.74        13.83382
423.19        13.94316
423.64        14.31913
424.08        14.56201
424.53        14.55929
424.98        14.55072
425.42        14.53022
425.87        14.24078
426.31        13.81682
426.76        13.76501
427.21        14.03316
427.65        14.09246
428.10        13.92727
428.54        13.87119
428.99        13.91729
429.44        14.00657
429.88        14.06074
430.33        13.79252
430.77        13.36237
431.22        13.34492
431.66        13.71107
432.11        13.98754
432.56        14.08735
433.00        14.14202
433.45        14.03793
433.89        13.72592
434.34        13.48337
434.78        12.83229
435.23        13.40126
435.67        13.89949
436.12        14.13558
436.57        14.25278
437.01        14.13738
437.46         14.0512
437.90        14.07224
438.35        14.12391
438.79        13.77992
439.24         13.6366
439.68         13.5903
440.13        13.59214
440.57        13.61605
441.02        13.74151
441.46          13.916
441.91         13.8239
442.35        13.56731
442.80        13.73124
443.24        14.19191
443.69        14.15018
444.13        13.64959
444.58        13.40734
445.02        13.43677
445.47         13.3801
445.91         13.2359
446.36        13.18656
446.80        13.23031
447.24        13.30928
447.69        13.40851
448.13        13.54091
448.58        13.67401
449.02        13.73681
449.47        13.73354
449.91        13.73762
450.36        13.75711
450.80        13.74387
451.25        13.70908
451.69        13.69446
452.13        13.69987
452.58        13.70206
453.02        13.69337
453.47        13.66777
453.91        13.62176
454.36        13.58362
454.80        13.53369
455.24        13.42573
455.69        13.29549
456.13        13.17073
456.58        13.09646
457.02        13.18757
457.46        13.36951
457.91        13.39215
458.35        13.30912
458.79        13.28732
459.24         13.3453
459.68        13.36276
460.13        13.34736
460.57        13.29052
461.01         13.2566
461.46        13.25497
461.90        13.22516
462.34        13.21772
462.79        13.43526
463.23        13.51263
463.68          13.503
464.12        13.46368
464.56        13.41088
465.01        13.39023
465.45        13.36361
465.89        13.27074
466.34        13.16298
466.78        13.09958
467.22        13.07387
467.67         13.3493
468.11        13.32132
468.55        13.32792
468.99        13.22218
469.44        13.18693
469.88        13.22854
470.32        13.24096
470.77        13.22822
471.21        13.23927
471.65         13.2789
472.10        13.33769
472.54        13.39632
472.98        13.44352
473.42         13.4782
473.87        13.46373
474.31        13.42824
474.75        13.54275
475.20        13.76261
475.64        13.82075
476.08        13.71053
476.52        13.68733
476.97        13.76824
477.41        13.68223
477.85        13.58041
478.29        13.67824
478.74        13.63675
479.18        13.60377
479.62        13.90147
480.06        13.98372
480.50        13.98716
480.95        13.92461
481.39        13.81281
481.83        13.97716
482.27        14.00769
482.72         13.9989
483.16        14.24725
483.60        14.33299
484.04        14.35235
484.48        14.40802
484.93        14.62444
485.37        14.51282
485.81        14.68017
486.25        15.08194
486.69        14.76156
487.14          14.248
487.58        15.43099
488.02        15.04755
488.46        14.94976
488.90        15.33653
489.34        15.00708
489.79        14.88451
490.23        15.12207
490.67        15.42151
491.11        15.83348
491.55        15.91564
491.99        15.73201
492.43        15.75066
492.88        15.99121
493.32        16.14955
493.76        16.20772
494.20        16.32581
494.64        16.51749
495.08        16.68953
495.52        16.83378
495.96        17.07726
496.41        17.40008
496.85        17.35871
497.29        17.08484
497.73        17.21605
498.17        17.69515
498.61        17.98635
499.05        17.99842
499.49        17.98413
499.93        17.99737
500.37        18.01623
500.82        18.06665
501.26        18.21546
501.70         18.4785
502.14        18.45659
502.58        18.77597
503.02        18.89947
503.46        18.93235
503.90        18.91351
504.34         18.8663
504.78        18.89038
505.22        18.99521
505.66        19.12125
506.10        19.24557
506.54        19.38356
506.98        19.52872
507.42        19.58416
507.86        19.70732
508.30        19.78244
508.74        19.85736
509.18         19.9196
509.62        19.97491
510.06        20.03203
510.50        20.09101
510.94        20.15439
511.38        20.20986
511.82        20.23669
512.26         20.2329
512.70        20.20625
513.14        20.18141
513.58        20.18979
514.02        20.23729
514.46        20.32728
514.90        20.43479
515.34        20.44668
515.78        20.46954
516.22        20.42242
516.66         20.3676
517.10        20.34469
517.54        20.36617
517.98        20.41907
518.42        20.47948
518.86        20.51286
519.30        20.50905
519.74        20.47711
520.18        20.44045
520.62        20.43418
521.06        20.46559
521.50        20.52499
521.93        20.58198
522.37        20.58029
522.81        20.51268
523.25        20.39373
523.69        20.26835
524.13        20.20687
524.57        20.22117
525.01        20.28724
525.45        20.35246
525.89        20.33311
526.32        20.21015
526.76        20.02337
527.20        19.82033
527.64        19.67889
528.08        19.62104
528.52        19.61839
528.96         19.6489
529.40        19.67896
529.83        19.69067
530.27        19.69358
530.71        19.67438
531.15        19.61134
531.59        19.50552
532.03        19.36551
532.46        19.21418
532.90        19.10305
533.34        19.04391
533.78        19.02722
534.22        19.04254
534.66        19.07069
535.09        19.10066
535.53        19.13899
535.97        19.17729
536.41        19.20502
536.85        19.21968
537.28        19.22211
537.72        19.21769
538.16        19.21517
538.60         19.2196
539.04        19.23426
539.47        19.25488
539.91        19.28592
540.35        19.32224
540.79        19.36765
541.22        19.41885
541.66        19.47049
542.10        19.52135
542.54        19.57493
542.97        19.63068
543.41        19.69957
543.85        19.78124
544.29        19.87451
544.72        19.97856
545.16        20.10724
545.60        20.25452
546.04        20.41665
546.47        20.58519
546.91        20.74184
547.35        20.87955
547.79        21.01006
548.22        21.13382
548.66        21.24879
549.10        21.37057
549.53        21.57413
549.97        21.83532
550.41        22.03909
550.84         22.1722
551.28        22.29811
551.72        22.42881
552.15        22.55651
552.59        22.69178
553.03        22.82533
553.46        22.96034
553.90        23.12101
554.34        23.30298
554.77        23.50845
555.21         23.7038
555.65        23.83475
556.08        23.86958
556.52        23.88163
556.96          23.897
557.39        23.99116
557.83        24.15749
558.27         24.2738
558.70        24.33471
559.14        24.42147
559.57        24.52417
560.01        24.62237
560.45        24.69801
560.88         24.7106
561.32        24.71187
561.75        24.76791
562.19        24.88369
562.63        25.05401
563.06        25.21562
563.50        25.18339
563.93        25.00964
564.37        24.99825
564.80        25.16055
565.24        25.34667
565.68        25.52091
566.11        25.68363
566.55        25.82684
566.98        25.96762
567.42        26.10732
567.85        26.17545
568.29        26.22406
568.72        26.32577
569.16        26.47598
569.60        26.67343
570.03        26.93465
570.47        26.94566
570.90        27.02395
571.34        27.56574
571.77        27.54842
572.21        27.57605
572.64        27.92264
573.08        27.82061
573.51        28.03911
573.95        28.15896
574.38         28.3296
574.82        28.22301
