SpectraSmart Spectrum 2.9.0.0
--------- Device Information -----------
Spectrum Name :  反射率_0
Saving Time :  2024/04/27 22:50:51
Spectro-Module Model Name : SE2030-DUVN
Spectro-Module Serial Number : OS361AC55029948
Wavelength Start : 200
Wavelength End : 1025
Wavelength Unit : Wavelength(nm)
Spectrum Unit : Reflectance(%)
-----------Spectrum Setting ------------
Integration Time : 20ms
Average : 10
Boxcar : 0
Background removal :  enabled
linearity correction :  enabled
SC :  disabled
Intensity correction :  disabled
DWT denoise :  enabled
savitzky-golay :  disabled
FFT :  disabled
Running average :  disabled
Kalman :  disabled
High pass :  disabled
---------------BEGIN--------------------
Wavelength(nm)             Reflectance(%)
200.29               0
200.75       -20.70516
201.21        24.43416
201.67        57.98366
202.13         70.0954
202.58        68.40644
203.04         59.8604
203.50        50.19943
203.96        47.12408
204.42        51.14013
204.88        58.32206
205.34        64.90475
205.80        67.90479
206.26        66.84548
206.72         61.2332
207.18        51.60817
207.64        46.63206
208.10        51.88981
208.55        61.78124
209.01        67.08479
209.47         64.3698
209.93          51.502
210.39         14.7346
210.85       -98.52647
211.31       -235.8787
211.77       -71.66774
212.23        36.05916
212.69        72.92476
213.14          81.323
213.60        75.00684
214.06        55.56947
214.52        19.46679
214.98        -8.99704
215.44      -0.4978756
215.90        22.47328
216.36        42.51644
216.81        54.62933
217.27        61.07761
217.73        65.62408
218.19        67.92607
218.65        66.18685
219.11        60.17178
219.57        49.71522
220.02        36.88879
220.48        29.57116
220.94        30.57726
221.40        37.03444
221.86        45.83729
222.32        53.66903
222.77        59.60809
223.23        64.33566
223.69        67.02782
224.15        66.59991
224.61        63.33786
225.06          57.402
225.52        51.00238
225.98        48.38041
226.44         50.0681
226.90        53.69971
227.36        56.94235
227.81        57.93346
228.27        56.77108
228.73        54.08609
229.19        50.47754
229.65        47.30288
230.10        45.25501
230.56        44.30979
231.02        43.92601
231.48        43.45279
231.93        42.67732
232.39        41.87086
232.85        41.55521
233.31        42.44629
233.77        44.44201
234.22        47.21012
234.68        49.58418
235.14        50.13291
235.60        48.62092
236.05        45.18254
236.51        41.14618
236.97        39.60587
237.43        41.76185
237.88        46.93065
238.34         52.3976
238.80        55.15308
239.26        54.32521
239.71        49.42286
240.17        40.52613
240.63        34.97958
241.08        39.71263
241.54        49.57194
242.00        57.65851
242.46        61.02758
242.91        60.33385
243.37        55.18563
243.83        42.93272
244.28        27.41782
244.74        27.72367
245.20         43.0195
245.66        56.01229
246.11        60.06249
246.57         56.9973
247.03         47.5547
247.48        32.04707
247.94         22.4822
248.40        30.15746
248.85        47.17781
249.31        63.38218
249.77        71.15314
250.22        71.69265
250.68        69.07288
251.14        65.60002
251.59        62.69319
252.05        60.32968
252.51        57.08862
252.96        52.57203
253.42        49.40523
253.88        48.97795
254.33        50.82969
254.79        52.49955
255.25        51.62273
255.70        48.79788
256.16         45.6673
256.62        43.68001
257.07        44.39046
257.53        47.22762
257.99        50.45085
258.44        52.81455
258.90          53.621
259.35        52.84355
259.81        51.42098
260.27        49.65911
260.72        47.92366
261.18        46.63505
261.63        45.47656
262.09        44.53313
262.55        43.58694
263.00        42.55896
263.46        41.61689
263.91        40.79973
264.37        40.43126
264.83        40.41872
265.28        40.59002
265.74        40.73149
266.19        40.41774
266.65        39.68174
267.11        38.65058
267.56        37.53049
268.02        36.73703
268.47        36.32876
268.93        36.17613
269.38        36.16272
269.84        36.12885
270.30        35.98921
270.75        35.78577
271.21         35.4439
271.66        34.80799
272.12        33.90241
272.57        32.74659
273.03        31.56388
273.48        30.63181
273.94        30.06569
274.39         29.7608
274.85        29.59275
275.31        29.30107
275.76        28.81966
276.22        28.25723
276.67        27.69667
277.13        27.33645
277.58        27.15513
278.04        27.11081
278.49        27.03881
278.95        26.81308
279.40        26.36452
279.86         25.8057
280.31        25.21263
280.77        24.80085
281.22        24.56971
281.68         24.4916
282.13        24.43792
282.59        24.27068
283.04        23.95188
283.50        23.54108
283.95        23.13372
284.41        22.90459
284.86        22.86601
285.32        22.97026
285.77         23.0761
286.22        23.01205
286.68        22.76738
287.13         22.3791
287.59        21.99708
288.04        21.77621
288.50         21.7766
288.95        21.91432
289.41        22.10173
289.86        22.16839
290.32        22.09686
290.77        21.93901
291.22        21.78323
291.68        21.75484
292.13        21.87348
292.59        22.10243
293.04        22.38579
293.50        22.66134
293.95        22.90232
294.40        23.15034
294.86        23.41832
295.31        23.71583
295.77         24.0583
296.22        24.41765
296.68        24.83264
297.13        25.34509
297.58        25.94921
298.04        26.61627
298.49        27.25491
298.95        27.73945
299.40        28.05193
299.85        28.23901
300.31        28.41176
300.76         28.7106
301.21         29.1767
301.67         29.7588
302.12        30.36052
302.58        30.87255
303.03        31.24973
303.48        31.53902
303.94        31.79834
304.39        32.07013
304.84        32.38163
305.30        32.71055
305.75         33.0129
306.20        33.26332
306.66        33.46342
307.11        33.60013
307.57        33.70691
308.02        33.76942
308.47         33.8077
308.93        33.82682
309.38        33.81129
309.83        33.76026
310.29        33.68886
310.74        33.59388
311.19        33.50214
311.65        33.45009
312.10        33.42534
312.55         33.4169
313.00        33.41446
313.46        33.40366
313.91        33.36979
314.36        33.31981
314.82        33.22039
315.27        33.01622
315.72         32.7113
316.18        32.33834
316.63        31.96617
317.08        31.72315
317.53        31.63741
317.99        31.66917
318.44         31.7565
318.89        31.77928
319.35        31.70083
319.80        31.55458
320.25        31.37554
320.70        31.22759
321.16        31.12284
321.61        31.04218
322.06        30.96318
322.51        30.85759
322.97        30.71436
323.42        30.56166
323.87        30.40027
324.32        30.23612
324.78        30.07055
325.23        29.90146
325.68        29.74654
326.13        29.64161
326.59        29.57881
327.04        29.57347
327.49         29.5602
327.94        29.43999
328.39        29.19347
328.85        28.83959
329.30        28.47895
329.75        28.27475
330.20        28.27222
330.66        28.41516
331.11        28.60822
331.56        28.64462
332.01         28.4696
332.46        28.13655
332.92        27.74552
333.37        27.50266
333.82        27.45979
334.27        27.55624
334.72        27.70153
335.17        27.74754
335.63        27.64372
336.08        27.45987
336.53        27.24164
336.98        27.07248
337.43        26.98813
337.88         26.9635
338.34        26.99029
338.79        27.06281
339.24        27.16858
339.69        27.30573
340.14        27.45562
340.59        27.58558
341.05        27.68122
341.50         27.7479
341.95        27.77046
342.40         27.7419
342.85         27.6649
343.30        27.53778
343.75        27.39797
344.20        27.30456
344.66        27.27648
345.11         27.3075
345.56        27.34337
346.01        27.29008
346.46        27.13503
346.91        26.90733
347.36        26.70402
347.81        26.67151
348.26        26.83337
348.72        27.14239
349.17        27.47314
349.62        27.62673
350.07        27.55531
350.52        27.31069
350.97        27.02814
351.42        26.92573
351.87        27.04925
352.32         27.3266
352.77        27.60775
353.22        27.66757
353.67        27.45872
354.13        27.06731
354.58        26.61651
355.03        26.35084
355.48        26.33225
355.93        26.49386
356.38        26.69234
356.83         26.7047
357.28        26.48622
357.73        26.11612
358.18        25.73983
358.63        25.57901
359.08        25.67419
359.53        25.93646
359.98        26.22952
360.43        26.34506
360.88         26.2298
361.33        25.95312
361.78        25.59088
362.23        25.30124
362.68        25.13618
363.13         24.9787
363.58        24.79834
364.03        24.89438
364.48        24.69396
364.93        24.66791
365.38        24.61677
365.83        24.49508
366.28         24.2933
366.73        24.02545
367.18        23.76464
367.63        23.61958
368.08        23.60924
368.53        23.69656
368.98        23.79146
369.43        23.74615
369.88          23.529
370.33        23.19264
370.78        22.81644
371.23        22.53212
371.68        22.37674
372.13         22.3006
372.58        22.27456
373.03        22.24877
373.48        22.20088
373.93        22.16173
374.38        22.09042
374.83        21.91804
375.28        21.64495
375.72        21.27463
376.17        20.93964
376.62        20.81295
377.07        20.91428
377.52        21.17427
377.97        21.44337
378.42        21.48444
378.87         21.2524
379.32        20.84228
379.77        20.36856
380.22        20.00326
380.67        19.79782
381.11        19.69229
381.56        19.67338
382.01        19.71895
382.46        19.80295
382.91         19.9367
383.36        20.04561
383.81        20.00919
384.26        19.81078
384.71        19.47851
385.15        19.11352
385.60        18.91405
386.05         18.9121
386.50        19.05886
386.95        19.24822
387.40         19.3101
387.85        19.21142
388.29        19.00175
388.74        18.79726
389.19        18.71773
389.64        18.77751
390.09        18.91167
390.54        19.04895
390.98        19.07663
391.43        18.97817
391.88         18.8085
392.33        18.58467
392.78        18.35829
393.23        18.16035
393.67        17.89437
394.12         17.6395
394.57        17.71472
395.02        17.80744
395.47        17.86535
395.91        17.77688
396.36        17.71091
396.81        17.66765
397.26        17.53837
397.71        17.36639
398.15        17.28283
398.60         17.3159
399.05        17.34806
399.50        17.37427
399.95        17.50196
400.39         17.6636
400.84        17.61073
401.29        17.35629
401.74        17.09719
402.18        16.90345
402.63        16.80323
403.08        16.79361
403.53        16.77534
403.97        16.74556
404.42        16.79611
404.87         16.9039
405.32        16.99497
405.76        17.04998
406.21        17.03983
406.66        16.98757
407.11        17.01445
407.55        17.08288
408.00        17.00699
408.45        16.79524
408.90        16.52593
409.34        16.29352
409.79        16.30403
410.24        16.50862
410.68        16.61146
411.13        16.58355
411.58        16.60602
412.03        16.67847
412.47        16.71092
412.92         16.6894
413.37        16.64176
413.81        16.58038
414.26        16.53767
414.71        16.51746
415.15        16.51514
415.60         16.5159
416.05        16.50173
416.49        16.46968
416.94        16.42192
417.39        16.37536
417.83        16.35703
418.28        16.36467
418.73        16.38201
419.17        16.39132
419.62        16.36729
420.07        16.31334
420.51         16.2528
420.96         16.1867
421.41        16.13441
421.85        16.09869
422.30        15.99675
422.74        15.89334
423.19        16.08937
423.64        16.51176
424.08        16.72069
424.53        16.62641
424.98        16.56318
425.42        16.54474
425.87        16.26549
426.31        15.85141
426.76        15.83959
427.21        16.16248
427.65         16.2223
428.10        16.03848
428.54        16.04877
428.99        16.25004
429.44        16.55141
429.88        16.80356
430.33        16.57108
430.77        16.03143
431.22        15.90757
431.66        16.21432
432.11        16.47653
432.56        16.61789
433.00        16.77355
433.45        16.75772
433.89         16.4077
434.34        16.03641
434.78        15.14197
435.23        15.68484
435.67        16.17188
436.12        16.40337
436.57        16.53874
437.01        16.43796
437.46        16.39161
437.90         16.4799
438.35        16.61524
438.79        16.28025
439.24        16.14965
439.68        16.09794
440.13        16.07497
440.57        16.05761
441.02        16.15633
441.46        16.32006
441.91        16.17924
442.35        15.86926
442.80        16.09431
443.24         16.7122
443.69        16.77682
444.13        16.30298
444.58         16.0961
445.02        16.16385
445.47        16.08407
445.91        15.87553
446.36        15.78988
446.80        15.83665
447.24        15.94043
447.69        16.06986
448.13        16.21691
448.58         16.3414
449.02        16.36691
449.47        16.32607
449.91        16.34576
450.36        16.43917
450.80        16.53077
451.25        16.59543
451.69        16.62345
452.13        16.60282
452.58        16.52683
453.02        16.41736
453.47        16.31722
453.91        16.23771
454.36         16.1953
454.80        16.15987
455.24        16.06377
455.69        15.94176
456.13        15.83457
456.58        15.78044
457.02        15.89227
457.46        16.07884
457.91        16.04682
458.35        15.89204
458.79        15.86298
459.24         15.9866
459.68        16.10032
460.13        16.18028
460.57        16.16629
461.01        16.12359
461.46        16.08084
461.90         15.9813
462.34         15.9143
462.79        16.13553
463.23        16.19767
463.68        16.16826
464.12        16.11823
464.56         16.0658
465.01        16.06483
465.45        16.06228
465.89        15.97126
466.34         15.8498
466.78        15.77221
467.22         15.7337
467.67        16.05854
468.11        16.02203
468.55        16.02862
468.99        15.90081
469.44        15.85739
469.88        15.90567
470.32         15.9186
470.77         15.9007
471.21        15.91068
471.65        15.95282
472.10        16.01451
472.54        16.07168
472.98        16.10991
473.42        16.12933
473.87        16.08993
474.31        16.02399
474.75        16.13212
475.20         16.3614
475.64        16.39262
476.08        16.23345
476.52        16.20798
476.97        16.33714
477.41        16.29449
477.85        16.22857
478.29        16.34631
478.74        16.23499
479.18        16.09058
479.62        16.33404
480.06        16.38466
480.50        16.41558
480.95        16.41642
481.39         16.3717
481.83        16.61255
482.27        16.63873
482.72        16.58349
483.16         16.8082
483.60         16.8429
484.04        16.82178
484.48        16.81488
484.93        16.96136
485.37        16.86689
485.81        17.24872
486.25        17.55629
486.69        17.18354
487.14        16.82505
487.58        17.71752
488.02        17.48251
488.46         17.7199
488.90        17.77188
489.34        17.44321
489.79        17.19522
490.23        17.60468
490.67        17.92794
491.11        18.25621
491.55        18.32916
491.99        18.19629
492.43        18.22877
492.88        18.43788
493.32        18.55663
493.76        18.57915
494.20        18.68056
494.64        18.88088
495.08        19.07214
495.52        19.23306
495.96        19.50001
496.41         19.8387
496.85        19.74361
497.29        19.37654
497.73        19.50958
498.17        20.06657
498.61        20.36463
499.05        20.31147
499.49        20.27136
499.93         20.3061
500.37        20.34897
500.82        20.40647
501.26        20.53673
501.70        20.75194
502.14        20.61313
502.58        20.84955
503.02        20.90404
503.46        20.90592
503.90        20.88837
504.34         20.8577
504.78        20.89061
505.22        20.98656
505.66        21.08735
506.10        21.18254
506.54        21.31205
506.98         21.4732
507.42        21.55153
507.86        21.69978
508.30        21.75919
508.74        21.77778
509.18         21.7536
509.62         21.7219
510.06        21.73875
510.50        21.81361
510.94        21.93252
511.38        22.05414
511.82        22.11052
512.26        22.08799
512.70        22.01276
513.14        21.92624
513.58        21.88552
514.02        21.90851
514.46        21.99225
514.90        22.11772
515.34        22.17588
515.78        22.27939
516.22        22.33244
516.66        22.38019
517.10        22.43028
517.54        22.48442
517.98        22.53401
518.42        22.56347
518.86        22.55458
519.30        22.50691
519.74        22.43196
520.18        22.35439
520.62        22.30966
521.06        22.30822
521.50        22.34278
521.93        22.39713
522.37        22.43485
522.81        22.44684
523.25        22.43561
523.69        22.41473
524.13        22.40699
524.57        22.41409
525.01        22.42655
525.45        22.41686
525.89        22.34332
526.32        22.19936
526.76        22.01168
527.20        21.82014
527.64        21.68959
528.08        21.63633
528.52        21.63974
528.96        21.67097
529.40        21.68306
529.83        21.65942
530.27        21.61548
530.71        21.55559
531.15         21.4878
531.59        21.41752
532.03        21.34011
532.46        21.26293
532.90        21.21226
533.34        21.18956
533.78        21.19298
534.22        21.20793
534.66        21.20948
535.09          21.191
535.53        21.16323
535.97        21.13913
536.41         21.1437
536.85        21.18023
537.28        21.23753
537.72         21.2994
538.16        21.33693
538.60        21.34519
539.04        21.34253
539.47        21.33116
539.91        21.32692
540.35        21.33145
540.79        21.34438
541.22        21.37811
541.66        21.45332
542.10         21.5694
542.54        21.72054
542.97        21.87484
543.41        21.99517
543.85        22.07016
544.29        22.11177
544.72        22.14616
545.16        22.23232
545.60        22.37507
546.04         22.5567
546.47        22.74921
546.91        22.90327
547.35        23.00457
547.79        23.07986
548.22        23.14369
548.66        23.21209
549.10        23.30785
549.53         23.5053
549.97        23.77345
550.41        23.98044
550.84        24.10846
551.28        24.22848
551.72          24.352
552.15        24.46754
552.59        24.58687
553.03        24.70145
553.46        24.81645
553.90        24.96117
554.34         25.1317
554.77        25.32835
555.21        25.51728
555.65        25.64455
556.08        25.67427
556.52        25.68122
556.96        25.68498
557.39         25.7534
557.83        25.87739
558.27         25.9334
558.70        25.92279
559.14        25.94305
559.57        25.99149
560.01        26.04703
560.45        26.09908
560.88        26.11629
561.32        26.15143
561.75        26.26666
562.19        26.45317
562.63        26.68382
563.06        26.88314
563.50        26.85606
563.93        26.66014
564.37        26.62477
564.80        26.76549
565.24         26.9215
565.68        27.05954
566.11         27.1897
566.55        27.30735
566.98        27.42395
567.42        27.53899
567.85          27.594
568.29        27.63281
568.72        27.68802
569.16        27.77477
569.60         27.9602
570.03        28.26823
570.47        28.33344
570.90        28.45676
571.34        29.06308
571.77        29.01905
572.21        28.97174
572.64        29.24059
573.08        29.17116
573.51        29.58091
573.95        29.75148
574.38        29.82305
574.82        29.75299
