SpectraSmart Spectrum 2.9.0.0
--------- Device Information -----------
Spectrum Name :  反射率_0
Saving Time :  2024/04/27 23:07:54
Spectro-Module Model Name : SE2030-DUVN
Spectro-Module Serial Number : OS361AC55029948
Wavelength Start : 200
Wavelength End : 1025
Wavelength Unit : Wavelength(nm)
Spectrum Unit : Reflectance(%)
-----------Spectrum Setting ------------
Integration Time : 20ms
Average : 10
Boxcar : 0
Background removal :  enabled
linearity correction :  enabled
SC :  disabled
Intensity correction :  disabled
DWT denoise :  enabled
savitzky-golay :  disabled
FFT :  disabled
Running average :  disabled
Kalman :  disabled
High pass :  disabled
---------------BEGIN--------------------
Wavelength(nm)             Reflectance(%)
200.29               0
200.75        44.86504
201.21        71.07904
201.67        86.35901
202.13        86.14745
202.58        75.84275
203.04        60.63145
203.50        46.50732
203.96        42.43619
204.42        48.31961
204.88        58.61998
205.34        68.74597
205.80        75.43693
206.26         78.7369
206.72        79.87727
207.18        78.53077
207.64        74.88171
208.10        71.35956
208.55        69.45837
209.01        67.38127
209.47        63.56462
209.93        55.97415
210.39        37.94492
210.85       -13.21033
211.31       -64.88484
211.77        17.01789
212.23        64.89527
212.69        81.26632
213.14        87.41262
213.60        89.41116
214.06        89.36047
214.52        86.78677
214.98        82.60825
215.44        79.89729
215.90        78.51546
216.36        77.79414
216.81        76.94884
217.27        75.61856
217.73        74.15623
218.19         72.0588
218.65        68.23512
219.11        62.72041
219.57        55.99908
220.02        49.37504
220.48        47.44482
220.94        51.28414
221.40        58.39727
221.86        67.27179
222.32        76.78655
222.77        85.81544
223.23        93.87038
223.69         99.4591
224.15        101.0278
224.61        98.90008
225.06        93.82169
225.52        87.50006
225.98         83.3461
226.44          82.564
226.90          83.663
227.36        85.38297
227.81        86.68324
228.27        87.60629
228.73         88.4157
229.19         88.9927
229.65        88.95442
230.10        88.14955
230.56        86.94521
231.02         85.5098
231.48         84.2683
231.93        83.25706
232.39        82.48999
232.85        82.11864
233.31        82.45011
233.77        83.36904
234.22        84.75008
234.68        85.88772
235.14        85.76976
235.60        84.23589
236.05        81.42042
236.51        78.10356
236.97        76.41104
237.43        77.20422
237.88        80.02624
238.34         83.1573
238.80         84.8381
239.26        84.48179
239.71        82.06067
240.17        76.83005
240.63        71.46219
241.08        70.16283
241.54         71.9178
242.00         74.0271
242.46        74.44475
242.91        72.90392
243.37        68.74857
243.83        60.15853
244.28        49.92484
244.74         50.8977
245.20        61.96854
245.66        71.19998
246.11        74.51911
246.57        73.41287
247.03        68.46399
247.48        59.72022
247.94         53.5797
248.40        56.59064
248.85        64.82533
249.31        73.30421
249.77        78.08012
250.22        79.43273
250.68         79.2924
251.14        78.56184
251.59        77.81971
252.05        77.18121
252.51        75.86751
252.96        73.56473
253.42        71.75144
253.88        71.13409
254.33        71.67206
254.79        72.10474
255.25        70.67329
255.70        67.76936
256.16        64.80349
256.62        63.04299
257.07        63.87032
257.53        66.76147
257.99        69.94147
258.44        72.02419
258.90        72.33846
259.35        70.82828
259.81        68.64883
260.27        66.18536
260.72        63.93074
261.18        62.38451
261.63        61.08015
262.09        60.13088
262.55        59.23305
263.00        58.27714
263.46          57.511
263.91        56.88317
264.37        56.68935
264.83        56.80722
265.28        57.03009
265.74        57.28759
266.19        57.27346
266.65        57.03087
267.11         56.6024
267.56        55.98798
268.02        55.30114
268.47         54.5516
268.93        53.75276
269.38         53.0069
269.84        52.51121
270.30        52.27525
270.75        52.23047
271.21        52.19895
271.66        51.84399
272.12        51.12309
272.57        50.09057
273.03        48.96124
273.48        47.97353
273.94        47.26201
274.39        46.70663
274.85        46.24038
275.31        45.65672
275.76        44.89874
276.22        44.08596
276.67        43.28245
277.13        42.70487
277.58        42.30338
278.04         42.0546
278.49        41.75202
278.95        41.24954
279.40        40.46254
279.86        39.54103
280.31        38.57576
280.77        37.84472
281.22        37.34454
281.68        37.05127
282.13         36.8092
282.59        36.48149
283.04        36.00142
283.50        35.43739
283.95         34.8591
284.41         34.4325
284.86        34.15706
285.32         33.9983
285.77        33.81653
286.22        33.46381
286.68         32.9391
287.13        32.27524
287.59        31.62007
288.04        31.10696
288.50        30.80629
288.95        30.63396
289.41        30.54046
289.86        30.39729
290.32         30.1911
290.77        29.94274
291.22        29.69126
291.68         29.4846
292.13        29.32405
292.59         29.2071
293.04        29.11075
293.50         29.0343
293.95        28.96963
294.40         28.9387
294.86        28.96187
295.31        29.05572
295.77        29.23144
296.22         29.4665
296.68        29.75852
297.13        30.07861
297.58        30.41777
298.04        30.77555
298.49         31.1281
298.95         31.4579
299.40        31.75844
299.85        32.03349
300.31        32.32986
300.76        32.68351
301.21        33.10841
301.67        33.59415
302.12         34.0643
302.58        34.44827
303.03        34.71297
303.48        34.88556
303.94        35.05683
304.39        35.31628
304.84        35.69169
305.30         36.1536
305.75        36.57785
306.20        36.81762
306.66        36.86501
307.11        36.75007
307.57        36.61674
308.02        36.62039
308.47        36.80735
308.93        37.11115
309.38         37.4096
309.83        37.54834
310.29        37.49964
310.74        37.30706
311.19        37.03999
311.65        36.80242
312.10          36.616
312.55        36.45886
313.00         36.3287
313.46        36.22399
313.91        36.13253
314.36        36.06471
314.82        35.99109
315.27        35.85433
315.72        35.64745
316.18        35.39291
316.63        35.12467
317.08         34.9218
317.53        34.80252
317.99         34.7397
318.44        34.70525
318.89        34.63719
319.35        34.51706
319.80        34.36424
320.25        34.19598
320.70         34.0458
321.16        33.91415
321.61         33.7908
322.06        33.65996
322.51        33.50238
322.97        33.30998
323.42         33.1103
323.87        32.89465
324.32        32.65525
324.78        32.39555
325.23        32.12396
325.68        31.88318
326.13         31.7499
326.59        31.72118
327.04        31.79312
327.49        31.87323
327.94        31.81837
328.39        31.59219
328.85        31.22629
329.30        30.81441
329.75        30.50804
330.20        30.36057
330.66        30.31945
331.11        30.34272
331.56        30.30733
332.01        30.17699
332.46        29.98939
332.92         29.7754
333.37        29.61865
333.82        29.53177
334.27        29.48065
334.72        29.44596
335.17        29.40078
335.63        29.32814
336.08        29.26713
336.53        29.18883
336.98        29.05529
337.43        28.87088
337.88        28.64414
338.34         28.4561
338.79        28.44622
339.24        28.63393
339.69        28.97292
340.14        29.33596
340.59        29.51414
341.05        29.45779
341.50        29.23872
341.95        28.95752
342.40        28.78721
342.85        28.77671
343.30          28.863
343.75          29.004
344.20        29.13284
344.66        29.22091
345.11        29.29245
345.56        29.31693
346.01        29.23874
346.46         29.0595
346.91        28.79323
347.36        28.52595
347.81        28.39245
348.26        28.42124
348.72         28.5822
349.17        28.78053
349.62        28.85962
350.07        28.78017
350.52        28.57877
350.97        28.36137
351.42         28.2992
351.87        28.42094
352.32        28.66343
352.77        28.88831
353.22        28.88937
353.67        28.62871
354.13        28.19274
354.58        27.69991
355.03        27.38807
355.48        27.32251
355.93        27.44076
356.38        27.62451
356.83        27.68798
357.28        27.58352
357.73        27.36759
358.18        27.13881
358.63        27.04744
359.08        27.11933
359.53         27.2922
359.98        27.45954
360.43        27.46234
360.88        27.26718
361.33        26.92925
361.78        26.53644
362.23        26.26337
362.68        26.15929
363.13        26.10706
363.58        26.03367
364.03        26.16339
364.48        25.91741
364.93        25.77112
365.38        25.58369
365.83        25.40069
366.28        25.23226
366.73        25.07089
367.18        24.92175
367.63        24.78273
368.08        24.65493
368.53        24.54199
368.98        24.44271
369.43        24.35079
369.88        24.26376
370.33        24.18136
370.78        24.09645
371.23        24.00201
371.68        23.89087
372.13        23.75293
372.58        23.60229
373.03        23.46177
373.48        23.34042
373.93        23.25185
374.38        23.15285
374.83        22.97099
375.28        22.70684
375.72        22.37485
376.17        22.10905
376.62        22.07791
377.07        22.29271
377.52        22.66996
377.97        23.04975
378.42        23.18453
378.87        23.01976
379.32        22.64897
379.77        22.17445
380.22        21.75072
380.67         21.4355
381.11         21.1863
381.56        21.02025
382.01        20.96441
382.46        21.00969
382.91        21.15414
383.36        21.31763
383.81        21.36678
384.26        21.27204
384.71        21.06058
385.15         20.8002
385.60         20.6404
386.05        20.60318
386.50        20.64784
386.95        20.71262
387.40        20.70043
387.85        20.59526
388.29        20.43011
388.74        20.27609
389.19        20.18214
389.64        20.15555
390.09        20.15852
390.54        20.17728
390.98        20.19012
391.43        20.19299
391.88        20.19593
392.33        20.15426
392.78        20.03604
393.23        19.85603
393.67        19.54419
394.12        19.20822
394.57        19.22486
395.02        19.26796
395.47        19.26968
395.91          19.133
396.36           19.08
396.81        19.11075
397.26        19.09241
397.71        19.02422
398.15        18.97618
398.60        18.97064
399.05        18.91009
399.50        18.82391
399.95        18.87694
400.39        19.00968
400.84        18.93767
401.29        18.68007
401.74        18.45584
402.18        18.33296
402.63        18.33907
403.08        18.43457
403.53        18.44852
403.97        18.36574
404.42        18.30533
404.87        18.28464
405.32        18.29269
405.76        18.32798
406.21        18.34175
406.66          18.332
407.11        18.38656
407.55        18.45133
408.00        18.33674
408.45        18.07058
408.90        17.76697
409.34        17.53418
409.79        17.58283
410.24        17.83653
410.68        17.94036
411.13        17.85711
411.58        17.79402
412.03        17.78376
412.47        17.78687
412.92        17.80213
413.37        17.83953
413.81         17.8715
414.26        17.87351
414.71        17.83542
415.15        17.76754
415.60        17.68471
416.05        17.62227
416.49        17.59376
416.94        17.58704
417.39        17.58795
417.83        17.57514
418.28        17.53709
418.73        17.47459
419.17        17.40627
419.62        17.36439
420.07        17.36203
420.51        17.39693
420.96        17.43106
421.41        17.42642
421.85        17.37258
422.30        17.20471
422.74        17.01132
423.19        17.13821
423.64        17.51464
424.08        17.66387
424.53        17.50784
424.98        17.42296
425.42        17.42524
425.87        17.18852
426.31        16.81243
426.76         16.8119
427.21        17.10224
427.65        17.06143
428.10        16.75014
428.54        16.68592
428.99        16.87499
429.44        17.20336
429.88        17.48767
430.33         17.2298
430.77        16.61018
431.22         16.4016
431.66        16.63119
432.11        16.83435
432.56        16.94539
433.00         17.0926
433.45        17.09259
433.89        16.78784
434.34        16.48716
434.78        15.66049
435.23        16.30694
435.67        16.84463
436.12        17.05501
436.57        17.11877
437.01        16.91787
437.46        16.79573
437.90        16.84822
438.35        16.97494
438.79        16.64639
439.24        16.54816
439.68        16.54533
440.13        16.58525
440.57        16.62739
441.02        16.75803
441.46         16.9176
441.91         16.7316
442.35        16.35497
442.80        16.53154
443.24        17.11654
443.69        17.13695
444.13        16.61647
444.58        16.38312
445.02        16.44559
445.47        16.37704
445.91        16.18862
446.36        16.12211
446.80        16.18286
447.24        16.29225
447.69        16.43018
448.13        16.60894
448.58        16.78745
449.02        16.87771
449.47        16.88561
449.91        16.89991
450.36        16.92995
450.80        16.91688
451.25         16.8683
451.69        16.82532
452.13        16.78927
452.58         16.7373
453.02        16.67668
453.47        16.62532
453.91         16.5844
454.36        16.58033
454.80        16.57413
455.24        16.48315
455.69        16.34283
456.13         16.1944
456.58        16.10017
457.02        16.21337
457.46        16.44539
457.91        16.48346
458.35        16.38996
458.79        16.36871
459.24        16.44061
459.68        16.45885
460.13        16.43207
460.57        16.34843
461.01        16.28812
461.46        16.26703
461.90         16.2106
462.34        16.18114
462.79        16.42879
463.23        16.50432
463.68        16.48524
464.12        16.45776
464.56        16.43991
465.01        16.47653
465.45        16.49775
465.89        16.39352
466.34        16.22255
466.78        16.07245
467.22        15.95449
467.67        16.22282
468.11        16.15554
468.55        16.15699
468.99        16.04404
469.44        16.02888
469.88        16.11383
470.32        16.17125
470.77        16.19941
471.21        16.24753
471.65        16.31632
472.10        16.39351
472.54        16.45605
472.98        16.49431
473.42        16.51144
473.87        16.46607
474.31        16.39699
474.75        16.51737
475.20        16.77486
475.64        16.84159
476.08        16.71559
476.52        16.71647
476.97        16.86354
477.41        16.82157
477.85        16.75328
478.29        16.88922
478.74        16.80369
479.18        16.69012
479.62        16.97101
480.06        17.02037
480.50        17.01733
480.95        16.96811
481.39         16.8673
481.83         17.0705
482.27        17.06762
482.72        16.98545
483.16         17.2101
483.60        17.29419
484.04        17.36783
484.48        17.51565
484.93        17.81314
485.37        17.83145
485.81        17.82376
486.25         18.3397
486.69        17.83674
487.14        17.45895
487.58        18.57165
488.02        18.41033
488.46        18.37675
488.90        18.82245
489.34        18.14009
489.79        17.96142
490.23        18.44936
490.67        18.75447
491.11        18.97546
491.55        18.96547
491.99        18.81318
492.43        18.84951
492.88        19.09251
493.32        19.29113
493.76        19.41517
494.20        19.59487
494.64        19.83938
495.08         20.0472
495.52        20.20376
495.96        20.47016
496.41         20.8137
496.85        20.69915
497.29        20.30107
497.73        20.43809
498.17          21.031
498.61        21.36472
499.05         21.3301
499.49        21.28761
499.93        21.29937
500.37        21.30297
500.82        21.31994
501.26        21.43622
501.70        21.67008
502.14        21.55297
502.58        21.83728
503.02        21.92524
503.46        21.94654
503.90        21.94236
504.34        21.91549
504.78         21.9401
505.22        22.01718
505.66        22.08646
506.10        22.15426
506.54        22.29087
506.98        22.49719
507.42        22.64381
507.86        22.86767
508.30        22.96265
508.74        22.97068
509.18        22.90452
509.62        22.81837
510.06        22.79961
510.50        22.86789
510.94        22.99682
511.38        23.14402
511.82        23.24055
512.26        23.26611
512.70         23.2462
513.14        23.20152
513.58        23.15426
514.02        23.11816
514.46        23.10425
514.90        23.12103
515.34        23.10186
515.78        23.17933
516.22         23.2416
516.66        23.32387
517.10        23.41354
517.54         23.5019
517.98        23.58344
518.42        23.63717
518.86        23.63613
519.30        23.57834
519.74        23.47662
520.18        23.35902
520.62        23.26889
521.06         23.2211
521.50        23.20796
521.93        23.22205
522.37        23.23961
522.81         23.2534
523.25        23.26369
523.69        23.26929
524.13        23.26834
524.57        23.25823
525.01        23.23763
525.45        23.19581
525.89        23.11777
526.32        23.00378
526.76        22.87249
527.20        22.74975
527.64        22.67902
528.08        22.66828
528.52          22.699
528.96        22.75134
529.40        22.79327
529.83        22.80947
530.27        22.80994
530.71        22.78121
531.15        22.70468
531.59        22.58403
532.03        22.42738
532.46        22.26972
532.90        22.18059
533.34        22.17181
533.78        22.22748
534.22        22.31056
534.66         22.3618
535.09        22.36337
535.53        22.33462
535.97        22.29798
536.41        22.29336
536.85        22.33004
537.28        22.39484
537.72        22.46384
538.16        22.49684
538.60        22.48897
539.04        22.46327
539.47        22.44174
539.91        22.46993
540.35        22.55063
540.79        22.67078
541.22        22.80947
541.66        22.93499
542.10        23.03455
542.54        23.11869
542.97        23.18643
543.41        23.24976
543.85        23.31172
544.29        23.37277
544.72        23.43955
545.16        23.54078
545.60        23.67284
546.04        23.82664
546.47        23.99391
546.91        24.15479
547.35        24.29918
547.79        24.44369
548.22        24.57219
548.66         24.6545
549.10        24.70792
549.53        24.82664
549.97        25.01565
550.41         25.1979
550.84        25.36719
551.28        25.57518
551.72        25.79485
552.15        25.95166
552.59        26.04235
553.03         26.0813
553.46        26.09989
553.90        26.16653
554.34         26.2911
554.77        26.46461
555.21        26.64969
555.65        26.78686
556.08        26.83583
556.52         26.8766
556.96        26.92565
557.39        27.04719
557.83        27.22696
558.27        27.33017
558.70        27.35398
559.14        27.39763
559.57        27.45678
560.01        27.51109
560.45        27.54736
560.88        27.52993
561.32        27.51878
561.75        27.58446
562.19        27.73242
562.63        27.95484
563.06        28.17713
563.50        28.18932
563.93        28.03599
564.37        28.03762
564.80        28.20316
565.24        28.36824
565.68        28.50815
566.11        28.64792
566.55        28.78508
566.98        28.93387
567.42        29.08166
567.85         29.1272
568.29        29.12608
568.72        29.16918
569.16        29.26966
569.60        29.45545
570.03        29.74938
570.47        29.78703
570.90        29.89568
571.34        30.52201
571.77        30.47836
572.21        30.47033
572.64        30.77324
573.08        30.69234
573.51        30.93007
573.95        31.07822
574.38        31.16114
574.82        31.52149
