SpectraSmart Spectrum 2.9.0.0
--------- Device Information -----------
Spectrum Name :  反射率_0
Saving Time :  2024/04/27 23:06:27
Spectro-Module Model Name : SE2030-DUVN
Spectro-Module Serial Number : OS361AC55029948
Wavelength Start : 200
Wavelength End : 1025
Wavelength Unit : Wavelength(nm)
Spectrum Unit : Reflectance(%)
-----------Spectrum Setting ------------
Integration Time : 20ms
Average : 10
Boxcar : 0
Background removal :  enabled
linearity correction :  enabled
SC :  disabled
Intensity correction :  disabled
DWT denoise :  enabled
savitzky-golay :  disabled
FFT :  disabled
Running average :  disabled
Kalman :  disabled
High pass :  disabled
---------------BEGIN--------------------
Wavelength(nm)             Reflectance(%)
200.29               0
200.75       -32.56179
201.21        -17.9359
201.67      -0.4097263
202.13        10.86537
202.58        17.69635
203.04         22.9611
203.50        29.56591
203.96        39.58528
204.42        51.12249
204.88        62.05967
205.34        69.83897
205.80        72.49569
206.26        70.00379
206.72        61.32527
207.18        45.69903
207.64        33.37907
208.10        34.53313
208.55        43.72205
209.01        50.21896
209.47        49.94853
209.93        41.59132
210.39        16.48891
210.85       -63.23558
211.31       -169.4144
211.77       -60.82414
212.23        15.65646
212.69        42.80387
213.14        49.86305
213.60        46.39532
214.06        34.60044
214.52        12.85334
214.98       -2.723356
215.44        4.992748
215.90        20.43466
216.36        33.19844
216.81          40.785
217.27        44.71192
217.73        47.68282
218.19        49.05424
218.65        46.98536
219.11         41.2627
219.57        31.67209
220.02        21.28802
220.48         19.3007
220.94        27.38101
221.40        40.94777
221.86        53.79792
222.32        60.02671
222.77        60.10571
223.23        57.05758
223.69        52.99777
224.15         49.8007
224.61        47.92324
225.06        46.46829
225.52        46.43774
225.98         48.9422
226.44        52.99422
226.90        57.21453
227.36        60.38119
227.81        61.67492
228.27        61.38755
228.73         59.8377
229.19        57.24226
229.65        54.25793
230.10        51.38231
230.56        48.94718
231.02        47.05508
231.48        45.85011
231.93        45.19526
232.39        45.05247
232.85        45.42976
233.31        46.33305
233.77        47.60323
234.22        49.25624
234.68        50.48035
235.14        50.27942
235.60        48.52772
236.05        45.21011
236.51        41.66084
236.97         40.9295
237.43        44.07221
237.88        50.33447
238.34        56.83153
238.80        60.46963
239.26        60.46177
239.71        56.45661
240.17        48.39579
240.63         42.9417
241.08        46.60688
241.54        54.92297
242.00        61.82836
242.46        64.55141
242.91        63.54585
243.37        58.34557
243.83        46.19236
244.28        30.17388
244.74        28.48161
245.20        41.32523
245.66        52.66605
246.11        55.30798
246.57        50.36476
247.03        38.69725
247.48         19.2492
247.94        2.496075
248.40        2.470484
248.85        13.33165
249.31        29.04077
249.77        44.95081
250.22         58.3341
250.68        69.21719
251.14        76.63458
251.59        79.94173
252.05        79.86703
252.51        76.15486
252.96        68.60316
253.42        61.58232
253.88        58.87636
254.33        59.80774
254.79        61.58625
255.25        61.32062
255.70        59.24127
256.16        56.98738
256.62         55.8141
257.07        56.97699
257.53        59.96703
257.99        63.16275
258.44        65.18677
258.90        65.32485
259.35        63.62328
259.81        61.21466
260.27         58.6881
260.72        56.76198
261.18        55.80603
261.63         55.2083
262.09        54.80363
262.55        54.03526
263.00        52.81087
263.46        51.48872
263.91         50.2182
264.37        49.52826
264.83        49.35934
265.28        49.45296
265.74        49.58648
266.19        49.28817
266.65        48.57592
267.11        47.56456
267.56        46.42396
268.02        45.51877
268.47        44.89161
268.93        44.43807
269.38        44.04606
269.84        43.57724
270.30        42.97157
270.75        42.28415
271.21        41.50998
271.66        40.58163
272.12        39.54353
272.57         38.3969
273.03        37.29153
273.48        36.37593
273.94        35.74253
274.39        35.30986
274.85        35.02841
275.31        34.74014
275.76        34.37212
276.22        33.97145
276.67        33.53632
277.13        33.16965
277.58        32.82693
278.04        32.52966
278.49         32.1392
278.95        31.57681
279.40        30.80438
279.86        29.94594
280.31        29.12502
280.77        28.63693
281.22         28.4721
281.68        28.56582
282.13        28.71713
282.59        28.69993
283.04        28.44551
283.50        28.04306
283.95         27.5895
284.41        27.27662
284.86        27.12794
285.32        27.09681
285.77        27.07294
286.22        26.93988
286.68         26.6925
287.13        26.34963
287.59        26.02075
288.04        25.78868
288.50        25.70309
288.95        25.70055
289.41        25.73272
289.86        25.68271
290.32         25.5493
290.77        25.36434
291.22        25.19648
291.68        25.13892
292.13        25.20521
292.59        25.37953
293.04        25.61746
293.50        25.87645
293.95        26.13198
294.40        26.40876
294.86          26.726
295.31        27.10416
295.77        27.55236
296.22        28.03855
296.68        28.55336
297.13        29.06153
297.58        29.55122
298.04        30.02438
298.49        30.46531
298.95        30.86752
299.40        31.23163
299.85        31.56411
300.31        31.90917
300.76        32.29647
301.21        32.73928
301.67        33.22858
302.12        33.69894
302.58         34.0947
303.03        34.38312
303.48        34.58549
303.94        34.77305
304.39        35.00587
304.84        35.31025
305.30        35.67079
305.75        35.98661
306.20        36.14649
306.66        36.14758
307.11        36.00207
307.57        35.84335
308.02        35.81137
308.47        35.94564
308.93        36.19094
309.38        36.40949
309.83        36.41879
310.29        36.19672
310.74        35.80232
311.19        35.35464
311.65         35.0385
312.10        34.88913
312.55        34.85183
313.00        34.87303
313.46         34.8716
313.91        34.80821
314.36        34.71161
314.82        34.56171
315.27        34.31944
315.72        33.99159
316.18        33.59824
316.63        33.18915
317.08        32.86965
317.53        32.66508
317.99        32.54564
318.44        32.47832
318.89         32.3874
319.35        32.24784
319.80         32.0829
320.25         31.8978
320.70        31.70736
321.16        31.51022
321.61        31.29828
322.06        31.07801
322.51        30.86925
322.97        30.67037
323.42        30.49285
323.87          30.301
324.32        30.04172
324.78        29.70492
325.23        29.31203
325.68        28.92046
326.13        28.63076
326.59        28.45437
327.04        28.38493
327.49         28.3361
327.94        28.17209
328.39          27.858
328.85        27.42625
329.30        26.96774
329.75        26.63342
330.20        26.47066
330.66         26.4228
331.11        26.42929
331.56        26.34151
332.01         26.1195
332.46        25.81345
332.92        25.47406
333.37        25.21413
333.82        25.06482
334.27        24.98524
334.72        24.96476
335.17        24.98928
335.63        25.03232
336.08        25.11412
336.53        25.16772
336.98        25.09137
337.43        24.87075
337.88        24.53427
338.34         24.1758
338.79        23.95925
339.24        23.92699
339.69        24.03186
340.14        24.19371
340.59        24.27693
341.05        24.23873
341.50        24.12688
341.95        23.96881
342.40        23.81576
342.85        23.68792
343.30        23.56079
343.75        23.44387
344.20        23.35833
344.66        23.30763
345.11        23.28967
345.56        23.27166
346.01        23.19359
346.46        23.04593
346.91        22.84581
347.36        22.64704
347.81        22.53037
348.26        22.51553
348.72        22.58555
349.17        22.68045
349.62        22.70332
350.07        22.62953
350.52        22.47505
350.97        22.32539
351.42        22.31755
351.87        22.46876
352.32        22.73082
352.77        22.96284
353.22        22.95369
353.67        22.66926
354.13         22.1938
354.58        21.67049
355.03        21.37881
355.48        21.38761
355.93        21.61913
356.38        21.91562
356.83        22.02837
357.28        21.89856
357.73        21.60725
358.18        21.28659
358.63        21.13923
359.08        21.20763
359.53        21.41269
359.98        21.64032
360.43        21.71975
360.88         21.6079
361.33         21.3618
361.78        21.05469
362.23        20.83809
362.68        20.75844
363.13        20.70228
363.58        20.60922
364.03        20.75165
364.48        20.51905
364.93        20.41038
365.38        20.27841
365.83        20.17757
366.28        20.11314
366.73        20.07425
367.18        20.03777
367.63        19.95493
368.08        19.81852
368.53        19.64563
368.98        19.47021
369.43        19.34404
369.88        19.28193
370.33        19.27084
370.78        19.27749
371.23        19.25053
371.68        19.16968
372.13        19.03633
372.58        18.88725
373.03        18.78147
373.48        18.73379
373.93        18.74149
374.38        18.72967
374.83        18.58005
375.28        18.28358
375.72        17.87113
376.17        17.50982
376.62        17.41966
377.07         17.6282
377.52        18.04396
377.97        18.47907
378.42        18.64126
378.87        18.46726
379.32         18.0624
379.77        17.56826
380.22        17.19867
380.67        17.01735
381.11         16.9586
381.56        16.97846
382.01        17.00541
382.46        17.00792
382.91        17.01437
383.36        17.01218
383.81        16.97342
384.26         16.8942
384.71        16.77188
385.15        16.62126
385.60        16.50455
386.05        16.42701
386.50        16.38349
386.95        16.35785
387.40        16.32197
387.85        16.27138
388.29        16.20495
388.74        16.16133
389.19        16.15741
389.64        16.18999
390.09        16.23897
390.54        16.27567
390.98        16.25524
391.43        16.17589
391.88         16.0566
392.33        15.90846
392.78        15.77291
393.23        15.66922
393.67         15.5209
394.12        15.36018
394.57        15.40894
395.02        15.38982
395.47         15.2688
395.91        15.02504
396.36        14.92605
396.81        14.99225
397.26         15.0885
397.71        15.15057
398.15        15.14306
398.60        15.06931
399.05        14.88599
399.50        14.67412
399.95        14.64074
400.39        14.75584
400.84        14.77661
401.29        14.66969
401.74        14.52546
402.18        14.37728
402.63        14.27369
403.08        14.23468
403.53        14.21068
403.97        14.20801
404.42        14.28568
404.87        14.40698
405.32        14.48718
405.76        14.50549
406.21        14.44914
406.66        14.35028
407.11        14.32758
407.55        14.35501
408.00        14.27156
408.45        14.08461
408.90        13.85949
409.34        13.67247
409.79        13.69621
410.24        13.88188
410.68        13.96823
411.13        13.92727
411.58        13.91239
412.03        13.93064
412.47         13.9216
412.92        13.87987
413.37        13.82896
413.81        13.77071
414.26        13.71843
414.71        13.67245
415.15           13.63
415.60        13.59757
416.05        13.58959
416.49        13.60846
416.94         13.6474
417.39         13.6839
417.83        13.68503
418.28        13.63815
418.73        13.54415
419.17        13.43642
419.62        13.37305
420.07        13.37265
420.51        13.42929
420.96        13.48754
421.41        13.47726
421.85        13.38509
422.30        13.17486
422.74        12.95343
423.19        13.03982
423.64        13.38857
424.08        13.61997
424.53        13.61753
424.98        13.58778
425.42        13.52204
425.87        13.19284
426.31        12.73447
426.76        12.62719
427.21        12.82693
427.65        12.84609
428.10        12.68495
428.54        12.66615
428.99        12.77913
429.44        12.96052
429.88        13.10393
430.33        12.88782
430.77        12.45357
431.22        12.35563
431.66        12.59174
432.11        12.76944
432.56        12.82633
433.00        12.87478
433.45        12.79508
433.89        12.50361
434.34        12.24846
434.78        11.62391
435.23        12.11502
435.67        12.55201
436.12        12.76564
436.57        12.88707
437.01        12.80383
437.46         12.7355
437.90        12.74885
438.35        12.77637
438.79        12.44299
439.24        12.30531
439.68        12.27208
440.13        12.29603
440.57        12.33546
441.02        12.43315
441.46        12.54015
441.91        12.38669
442.35        12.09661
442.80        12.22864
443.24         12.6771
443.69        12.71598
444.13        12.35222
444.58        12.19001
445.02        12.23138
445.47        12.16175
445.91        11.99419
446.36        11.91898
446.80        11.94275
447.24        12.00844
447.69        12.09378
448.13        12.19839
448.58        12.29151
449.02        12.31567
449.47        12.28993
449.91        12.30298
450.36        12.36254
450.80        12.41342
451.25        12.44323
451.69         12.4558
452.13        12.44389
452.58        12.40064
453.02        12.33253
453.47        12.25544
453.91        12.17664
454.36        12.11653
454.80        12.06597
455.24        11.99756
455.69        11.93903
456.13        11.90521
456.58         11.9154
457.02        12.04102
457.46        12.20747
457.91          12.199
458.35        12.07451
458.79        12.00068
459.24        12.00308
459.68        11.96984
460.13        11.92618
460.57         11.8911
461.01        11.92352
461.46          12.024
461.90        12.10557
462.34        12.16014
462.79        12.36019
463.23        12.38184
463.68        12.30517
464.12         12.2358
464.56        12.20072
465.01        12.22531
465.45        12.24813
465.89        12.17597
466.34        12.04893
466.78        11.93487
467.22        11.85122
467.67        12.07314
468.11        12.06422
468.55        12.11964
468.99        12.07953
469.44         12.0699
469.88         12.0872
470.32        12.04548
470.77        11.97699
471.21        11.97231
471.65        12.04549
472.10         12.1718
472.54        12.30137
472.98        12.37435
473.42        12.38131
473.87         12.3088
474.31        12.21199
474.75        12.29098
475.20        12.51531
475.64        12.62442
476.08        12.59369
476.52        12.63275
476.97        12.75014
477.41        12.70387
477.85        12.62934
478.29        12.71864
478.74        12.66023
479.18        12.59643
479.62        12.84153
480.06        12.91919
480.50        12.95773
480.95        12.95165
481.39        12.90909
481.83        13.12398
482.27        13.21179
482.72        13.27082
483.16        13.55042
483.60        13.63413
484.04        13.61833
484.48        13.51542
484.93         13.5365
485.37        13.56188
485.81        14.04037
486.25        14.47711
486.69        13.95425
487.14        13.34035
487.58        14.48887
488.02        14.41345
488.46        14.47702
488.90        14.78687
489.34        14.15267
489.79        14.02359
490.23        14.51843
490.67        14.86549
491.11        15.10119
491.55        15.06483
491.99        14.86586
492.43        14.91319
492.88        15.23291
493.32         15.5325
493.76        15.74292
494.20        15.94334
494.64        16.12971
495.08        16.22924
495.52        16.26934
495.96        16.43848
496.41        16.73977
496.85        16.71266
497.29         16.4763
497.73          16.658
498.17         17.1859
498.61        17.49265
499.05         17.4846
499.49        17.44923
499.93        17.44167
500.37        17.41243
500.82        17.40051
501.26        17.51009
501.70        17.76322
502.14        17.76421
502.58        18.10616
503.02         18.2556
503.46        18.30797
503.90        18.30823
504.34        18.27361
504.78        18.29183
505.22        18.37187
505.66        18.45464
506.10          18.538
506.54        18.66993
506.98        18.84868
507.42        18.97247
507.86        19.16024
508.30         19.2441
508.74        19.26159
509.18        19.22161
509.62        19.17035
510.06        19.18247
510.50        19.27368
510.94        19.42106
511.38        19.58489
511.82        19.70084
512.26        19.74991
512.70        19.75374
513.14        19.73278
513.58        19.71155
514.02        19.70191
514.46        19.70984
514.90        19.73788
515.34        19.72206
515.78        19.77401
516.22        19.80177
516.66        19.83886
517.10        19.87891
517.54         19.9188
517.98        19.95666
518.42        19.97748
518.86        19.96236
519.30        19.91026
519.74        19.82885
520.18        19.74475
520.62        19.69849
521.06        19.70059
521.50         19.7432
521.93        19.80235
522.37        19.82923
522.81        19.81391
523.25        19.76425
523.69        19.70802
524.13        19.68992
524.57         19.7158
525.01        19.76882
525.45        19.80757
525.89        19.76806
526.32        19.63776
526.76        19.44996
527.20        19.25248
527.64        19.12298
528.08        19.08157
528.52         19.1021
528.96        19.15302
529.40        19.18433
529.83        19.17705
530.27        19.14611
530.71        19.09447
531.15        19.02648
531.59        18.94829
532.03        18.85946
532.46        18.76766
532.90        18.69934
533.34        18.65883
533.78        18.64412
534.22        18.65201
534.66        18.67507
535.09        18.70576
535.53        18.74475
535.97        18.78405
536.41        18.81434
536.85        18.83283
537.28         18.8432
537.72        18.84468
538.16        18.83444
538.60        18.81854
539.04        18.80638
539.47        18.80849
539.91         18.8518
540.35        18.93419
540.79        19.04911
541.22        19.18017
541.66        19.30057
542.10        19.40039
542.54        19.48841
542.97        19.56218
543.41        19.63111
543.85        19.69742
544.29        19.75954
544.72        19.82996
545.16        19.94418
545.60         20.1001
546.04        20.28953
546.47        20.48704
546.91         20.6456
547.35        20.75273
547.79        20.83039
548.22        20.89764
548.66         20.9805
549.10        21.10123
549.53        21.32536
549.97        21.61422
550.41        21.83115
550.84        21.95471
551.28          22.051
551.72        22.14525
552.15        22.25085
552.59        22.38269
553.03        22.52755
553.46        22.66565
553.90        22.78598
554.34        22.88186
554.77         22.9686
555.21        23.05274
555.65        23.14506
556.08        23.22487
556.52        23.33807
556.96         23.4643
557.39        23.60885
557.83        23.74912
558.27         23.7879
558.70         23.7486
559.14        23.75704
559.57        23.82042
560.01        23.90551
560.45        23.98928
560.88        24.02413
561.32        24.05494
561.75        24.14948
562.19        24.30615
562.63         24.5091
563.06        24.69162
563.50        24.66859
563.93        24.49548
564.37        24.48027
564.80          24.637
565.24         24.8179
565.68        24.97684
566.11        25.10422
566.55        25.19437
566.98          25.249
567.42        25.29619
567.85        25.36194
568.29        25.47555
568.72        25.57704
569.16        25.67429
569.60        25.86143
570.03        26.15026
570.47        26.20916
570.90        26.33794
571.34        26.77708
571.77        26.87969
572.21        26.86169
572.64        27.06715
573.08        27.19136
573.51        27.27286
573.95        27.44224
574.38        27.41979
574.82        27.60781
