SpectraSmart Spectrum 2.9.0.0
--------- Device Information -----------
Spectrum Name :  反射率_0
Saving Time :  2024/04/27 22:32:53
Spectro-Module Model Name : SE2030-DUVN
Spectro-Module Serial Number : OS361AC55029948
Wavelength Start : 200
Wavelength End : 1025
Wavelength Unit : Wavelength(nm)
Spectrum Unit : Reflectance(%)
-----------Spectrum Setting ------------
Integration Time : 20ms
Average : 10
Boxcar : 0
Background removal :  enabled
linearity correction :  enabled
SC :  disabled
Intensity correction :  disabled
DWT denoise :  enabled
savitzky-golay :  disabled
FFT :  disabled
Running average :  disabled
Kalman :  disabled
High pass :  disabled
---------------BEGIN--------------------
Wavelength(nm)             Reflectance(%)
200.29               0
200.75       -10.42075
201.21        21.33011
201.67        41.90825
202.13        46.38081
202.58        40.72903
203.04        29.38661
203.50        18.89595
203.96        18.32241
204.42        27.02207
204.88        39.67083
205.34        50.61884
205.80        55.17442
206.26        52.72323
206.72        42.48392
207.18        23.98485
207.64        10.31013
208.10        13.28013
208.55        25.44209
209.01        33.03276
209.47        30.49541
209.93         15.1137
210.39       -28.94944
210.85         -166.19
211.31       -341.7676
211.77       -149.1053
212.23       -17.13581
212.69         29.6612
213.14        42.54324
213.60        39.22416
214.06        23.66272
214.52       -5.077448
214.98       -21.95598
215.44       -5.291424
215.90        19.96281
216.36        39.30266
216.81        50.07426
217.27        55.01084
217.73        57.73184
218.19         57.3982
218.65        51.55665
219.11        39.89082
219.57        22.06533
220.02        2.440073
220.48       -5.671741
220.94          1.4979
221.40        18.16837
221.86         36.0043
222.32        46.69934
222.77        50.05895
223.23        49.38112
223.69        46.76251
224.15        44.06673
224.61        41.87223
225.06        39.31595
225.52        37.39784
225.98        37.70928
226.44        39.86498
226.90        42.57624
227.36        44.74931
227.81        45.54179
228.27         44.9879
228.73        43.40601
229.19        40.60535
229.65        36.52368
230.10        31.66051
230.56        26.77538
231.02        22.74848
231.48         20.7108
231.93        20.64038
232.39        22.03638
232.85        24.43391
233.31        27.15215
233.77        29.80184
234.22        32.55504
234.68        34.65427
235.14        35.28854
235.60        34.38779
236.05        31.82012
236.51        28.89013
236.97        28.46237
237.43        31.54848
237.88        37.61595
238.34        43.80105
238.80        46.94697
239.26        46.25404
239.71        41.04976
240.17        32.11416
240.63        28.94236
241.08        38.45588
241.54        52.97472
242.00        63.97013
242.46        68.65866
242.91        68.31615
243.37        62.41619
243.83        47.44078
244.28        26.77728
244.74        22.99397
245.20        38.14686
245.66        52.36251
246.11        55.99734
246.57        50.33094
247.03         36.1375
247.48         13.0979
247.94       -3.737074
248.40        2.206963
248.85        21.78698
249.31        42.51518
249.77        54.92922
250.22        59.32959
250.68        59.69335
251.14        58.61324
251.59        58.03471
252.05        58.29108
252.51        58.30664
252.96        56.90311
253.42        53.38744
253.88        48.50407
254.33         44.9744
254.79        42.93832
255.25        40.99756
255.70        39.16582
256.16        38.08435
256.62        38.73737
257.07        42.14682
257.53        47.23766
257.99        52.17796
258.44        55.65114
258.90        56.92231
259.35        56.11713
259.81        54.42936
260.27        52.16663
260.72        49.71342
261.18        47.63122
261.63        45.65363
262.09        44.17083
262.55         43.2963
263.00        42.87388
263.46        42.89326
263.91        42.97765
264.37        42.88735
264.83        42.50615
265.28         41.9094
265.74        41.27894
266.19        40.69342
266.65        40.22738
267.11        39.79264
267.56        39.30703
268.02        38.75061
268.47        38.07884
268.93        37.33214
269.38        36.57582
269.84        35.92413
270.30        35.39059
270.75        34.94172
271.21        34.46821
271.66        33.75967
272.12        32.81992
272.57        31.71058
273.03        30.63943
273.48         29.8446
273.94        29.42236
274.39        29.24311
274.85        29.20071
275.31        29.08071
275.76        28.80268
276.22        28.44013
276.67        28.00853
277.13        27.61448
277.58        27.23542
278.04        26.88431
278.49        26.47023
278.95        25.96719
279.40        25.34382
279.86        24.69584
280.31        24.08679
280.77        23.70703
281.22        23.54157
281.68        23.55687
282.13        23.62386
282.59        23.60166
283.04        23.44311
283.50        23.19868
283.95        22.92846
284.41        22.75502
284.86        22.69296
285.32        22.72395
285.77        22.76124
286.22         22.7129
286.68        22.58038
287.13        22.36526
287.59         22.1897
288.04        22.16485
288.50        22.33017
288.95        22.61556
289.41        22.90749
289.86        22.99604
290.32         22.8697
290.77        22.59632
291.22         22.3325
291.68        22.30543
292.13        22.55748
292.59        23.03159
293.04         23.6023
293.50        24.09705
293.95         24.4587
294.40        24.74766
294.86        25.05536
295.31        25.51477
295.77         26.1616
296.22        26.93238
296.68        27.74002
297.13        28.42661
297.58        28.95975
298.04        29.38735
298.49        29.79247
298.95        30.31639
299.40        30.98259
299.85        31.73627
300.31        32.52409
300.76         33.2202
301.21        33.79612
301.67         34.3009
302.12        34.72438
302.58        35.09385
303.03        35.41123
303.48        35.67805
303.94        35.97392
304.39        36.37268
304.84        36.89191
305.30        37.50442
305.75        38.08233
306.20        38.47289
306.66        38.65737
307.11        38.65444
307.57        38.58787
308.02         38.5827
308.47        38.69073
308.93        38.87443
309.38        39.03719
309.83        39.06228
310.29        38.94061
310.74        38.70724
311.19        38.45843
311.65        38.33669
312.10        38.35417
312.55        38.46471
313.00        38.59216
313.46        38.62346
313.91        38.52089
314.36        38.32387
314.82        38.06102
315.27        37.77586
315.72        37.49269
316.18        37.20699
316.63         36.9257
317.08        36.68242
317.53        36.48402
317.99        36.32868
318.44        36.19921
318.89        36.04523
319.35        35.85503
319.80        35.63905
320.25        35.42422
320.70        35.26315
321.16         35.1538
321.61        35.07747
322.06        34.98821
322.51        34.81751
322.97        34.54583
323.42        34.21504
323.87        33.84444
324.32        33.47581
324.78        33.12842
325.23        32.79715
325.68        32.51268
326.13        32.32969
326.59        32.23741
327.04        32.24345
327.49        32.25056
327.94        32.10622
328.39        31.77255
328.85        31.27609
329.30        30.73247
329.75        30.33426
330.20        30.14464
330.66        30.10593
331.11        30.13291
331.56        30.02849
332.01        29.74133
332.46        29.32891
332.92         28.8864
333.37        28.60929
333.82        28.54016
334.27        28.61003
334.72        28.72561
335.17        28.73835
335.63        28.59217
336.08        28.35468
336.53        28.05027
336.98        27.73105
337.43        27.43326
337.88        27.14709
338.34        26.91131
338.79         26.7957
339.24        26.80729
339.69        26.92484
340.14         27.0891
340.59        27.19689
341.05        27.21218
341.50        27.16145
341.95        27.05051
342.40        26.90515
342.85         26.7413
343.30         26.5475
343.75        26.35614
344.20        26.22232
344.66        26.15932
345.11        26.15576
345.56        26.16377
346.01        26.09756
346.46        25.94092
346.91        25.72099
347.36        25.49759
347.81        25.36112
348.26        25.33238
348.72        25.38437
349.17        25.46046
349.62        25.47126
350.07        25.39127
350.52        25.23875
350.97        25.07604
351.42        25.00261
351.87         25.0348
352.32        25.13921
352.77        25.22321
353.22        25.14897
353.67        24.89524
354.13        24.52333
354.58        24.12276
355.03        23.88631
355.48        23.86018
355.93        23.99127
356.38        24.16744
356.83        24.21137
357.28        24.08258
357.73        23.84031
358.18        23.57863
358.63        23.44322
359.08        23.46292
359.53        23.57512
359.98         23.7043
360.43        23.73923
360.88        23.64665
361.33        23.46239
361.78        23.21089
362.23        22.96529
362.68        22.75969
363.13        22.51641
363.58        22.22932
364.03        22.24737
364.48         21.9946
364.93        21.93287
365.38         21.8889
365.83        21.87191
366.28        21.86465
366.73        21.86148
367.18        21.83501
367.63        21.73004
368.08        21.54074
368.53        21.28853
368.98        21.00703
369.43        20.75099
369.88        20.54559
370.33        20.38458
370.78        20.27178
371.23        20.21044
371.68        20.18915
372.13        20.19444
372.58        20.20825
373.03         20.1984
373.48        20.15332
373.93        20.08844
374.38        19.97692
374.83        19.78127
375.28        19.50984
375.72        19.16578
376.17        18.86875
376.62        18.76564
377.07        18.87093
377.52         19.1246
377.97        19.38779
378.42         19.4401
378.87        19.23871
379.32         18.8687
379.77        18.43704
380.22        18.10598
380.67        17.92374
381.11        17.83517
381.56        17.82367
382.01        17.86174
382.46        17.92438
382.91        18.02365
383.36        18.10147
383.81        18.06217
384.26        17.89408
384.71        17.62182
385.15        17.32158
385.60        17.15079
386.05        17.13412
386.50        17.23256
386.95         17.3757
387.40        17.44941
387.85         17.4263
388.29        17.33388
388.74         17.2398
389.19        17.20022
389.64        17.22159
390.09        17.26442
390.54        17.29892
390.98         17.2799
391.43        17.20497
391.88         17.1024
392.33        16.96283
392.78        16.79722
393.23        16.62582
393.67        16.37614
394.12        16.12654
394.57        16.17495
395.02         16.2388
395.47        16.26286
395.91        16.15864
396.36        16.10305
396.81        16.09629
397.26         16.0318
397.71        15.91752
398.15        15.82544
398.60        15.78008
399.05        15.69852
399.50        15.61089
399.95        15.66134
400.39        15.79874
400.84        15.78235
401.29        15.61213
401.74        15.44396
402.18        15.32658
402.63         15.2903
403.08        15.31194
403.53        15.26785
403.97        15.15535
404.42        15.07125
404.87        15.03143
405.32        15.02847
405.76        15.06016
406.21        15.08477
406.66        15.09929
407.11        15.17308
407.55        15.25884
408.00        15.19909
408.45        15.00529
408.90        14.75504
409.34        14.53644
409.79        14.52985
410.24         14.6887
410.68         14.7478
411.13        14.68308
411.58        14.65766
412.03        14.68347
412.47        14.70084
412.92        14.70078
413.37        14.70209
413.81        14.69425
414.26        14.67413
414.71        14.63857
415.15           14.59
415.60        14.53746
416.05        14.50341
416.49         14.4948
416.94        14.50133
417.39         14.5115
417.83         14.5083
418.28        14.48082
418.73        14.42888
419.17        14.36181
419.62        14.29792
420.07        14.24983
420.51        14.22272
420.96        14.19851
421.41        14.16571
421.85        14.11913
422.30        13.99826
422.74        13.86717
423.19        13.99669
423.64        14.32558
424.08        14.46902
424.53        14.35402
424.98        14.27928
425.42        14.25654
425.87        14.01971
426.31        13.66861
426.76        13.65458
427.21        13.91329
427.65        13.93282
428.10        13.73209
428.54         13.6903
428.99        13.80687
429.44        14.00492
429.88        14.16354
430.33        13.92721
430.77        13.44878
431.22        13.33228
431.66        13.58505
432.11        13.79993
432.56        13.91167
433.00        14.03617
433.45        14.02176
433.89        13.73732
434.34        13.44535
434.78        12.71785
435.23        13.20042
435.67        13.64053
436.12        13.86666
436.57        14.01293
437.01        13.95238
437.46        13.91754
437.90        13.97598
438.35        14.05571
438.79        13.73407
439.24        13.60707
439.68        13.57175
440.13        13.57875
440.57        13.59034
441.02         13.6696
441.46         13.7686
441.91        13.58931
442.35        13.26617
442.80        13.40877
443.24        13.89949
443.69        13.94362
444.13        13.54871
444.58        13.37584
445.02        13.42733
445.47        13.35739
445.91        13.17835
446.36        13.09586
446.80        13.11718
447.24        13.17959
447.69        13.26485
448.13         13.3806
448.58        13.49529
449.02        13.54436
449.47        13.53957
449.91        13.56344
450.36        13.62219
450.80        13.65828
451.25        13.67197
451.69        13.68914
452.13        13.70446
452.58        13.70137
453.02        13.66767
453.47        13.59114
453.91        13.47289
454.36        13.34471
454.80        13.21444
455.24        13.08038
455.69        12.98351
456.13        12.93615
456.58        12.94688
457.02        13.07418
457.46        13.23255
457.91        13.19284
458.35        13.03708
458.79        12.97164
459.24         13.0239
459.68        13.06003
460.13        13.07609
460.57        13.04677
461.01        13.02867
461.46        13.03876
461.90        13.01387
462.34        12.99599
462.79        13.18536
463.23        13.22516
463.68        13.18246
464.12        13.13779
464.56        13.10988
465.01        13.13341
465.45        13.15643
465.89        13.09799
466.34        13.00292
466.78        12.93682
467.22        12.89636
467.67        13.14638
468.11        13.09516
468.55        13.07484
468.99        12.94755
469.44        12.90242
469.88        12.94753
470.32        12.97783
470.77        12.98956
471.21        13.01729
471.65         13.0602
472.10        13.10907
472.54         13.1511
472.98        13.18521
473.42         13.2131
473.87        13.19917
474.31         13.1598
474.75        13.24533
475.20        13.41195
475.64        13.40725
476.08        13.25299
476.52        13.23488
476.97        13.37516
477.41         13.3987
477.85        13.41889
478.29        13.59397
478.74        13.57236
479.18        13.51611
479.62        13.77279
480.06        13.84518
480.50        13.87865
480.95        13.86741
481.39        13.81046
481.83        14.00753
482.27        14.04383
482.72        14.02942
483.16        14.26317
483.60        14.33385
484.04        14.34524
484.48        14.36904
484.93        14.54207
485.37        14.50859
485.81        14.85114
486.25         15.3175
486.69        14.84789
487.14        14.55877
487.58        15.48882
488.02        15.37195
488.46        15.01895
488.90        15.43643
489.34        15.15222
489.79        15.20843
490.23        15.56004
490.67        15.82031
491.11        16.05097
491.55        16.07323
491.99        15.96932
492.43        16.02193
492.88        16.25343
493.32        16.47974
493.76        16.66745
494.20        16.88714
494.64        17.14141
495.08        17.36017
495.52        17.53209
495.96        17.79129
496.41        18.11956
496.85        18.04222
497.29        17.71838
497.73        17.87254
498.17        18.44028
498.61        18.79573
499.05        18.82986
499.49        18.84148
499.93        18.88283
500.37        18.90277
500.82        18.93683
501.26        19.08671
501.70        19.37355
502.14        19.36817
502.58         19.7225
503.02        19.86534
503.46        19.90567
503.90        19.89086
504.34        19.84482
504.78        19.87031
505.22        19.97724
505.66        20.09931
506.10        20.22328
506.54        20.38351
506.98        20.57355
507.42        20.68626
507.86        20.86028
508.30        20.92824
508.74        20.93549
509.18        20.88716
509.62        20.82824
510.06          20.831
510.50        20.91111
510.94         21.0493
511.38        21.20562
511.82        21.31441
512.26        21.35634
512.70        21.35113
513.14        21.32399
513.58        21.30724
514.02        21.31222
514.46         21.3432
514.90        21.39009
515.34        21.36215
515.78        21.37913
516.22        21.35242
516.66        21.33563
517.10        21.34983
517.54        21.39841
517.98        21.46695
518.42        21.53473
518.86        21.57345
519.30         21.5732
519.74        21.54282
520.18        21.48965
520.62        21.42432
521.06        21.35489
521.50        21.28512
521.93        21.22918
522.37        21.17905
522.81        21.13546
523.25        21.13452
523.69        21.18512
524.13        21.08779
524.57        21.17334
525.01        21.16647
525.45        21.14573
525.89        21.06884
526.32        20.93398
526.76        20.76304
527.20        20.58127
527.64        20.44193
528.08        20.35927
528.52        20.31462
528.96        20.30555
529.40        20.32624
529.83          20.363
530.27        20.41522
530.71        20.44269
531.15        20.38299
531.59        20.22994
532.03        20.00583
532.46        19.76507
532.90        19.60978
533.34        19.56302
533.78        19.59789
534.22        19.67468
534.66           19.73
535.09        19.74178
535.53        19.73106
535.97        19.70896
536.41        19.69529
536.85        19.69684
537.28        19.70572
537.72        19.71535
538.16        19.71574
538.60         19.7086
539.04        19.70643
539.47        19.71749
539.91        19.76398
540.35        19.84377
540.79        19.95269
541.22        20.07595
541.66        20.19067
542.10        20.28888
542.54        20.37777
542.97        20.46122
543.41        20.55798
543.85        20.67084
544.29        20.79717
544.72        20.93357
545.16         21.0913
545.60        21.26359
546.04        21.44671
546.47        21.63918
546.91        21.83273
547.35        22.02049
547.79         22.2123
548.22        22.39263
548.66        22.53419
549.10        22.65166
549.53        22.83349
549.97        23.07774
550.41        23.30143
550.84         23.4972
551.28         23.7164
551.72        23.94778
552.15        24.14432
552.59        24.30625
553.03        24.43798
553.46        24.55215
553.90        24.68873
554.34        24.85094
554.77        25.03688
555.21        25.22275
555.65        25.37024
556.08        25.44705
556.52        25.52595
556.96        25.61245
557.39        25.75278
557.83        25.93214
558.27        26.02689
558.70        26.05243
559.14        26.13121
559.57         26.2606
560.01        26.40785
560.45        26.53183
560.88        26.55577
561.32        26.53069
561.75        26.54189
562.19        26.61784
562.63        26.78689
563.06         26.9894
563.50        27.01456
563.93        26.89906
564.37        26.94051
564.80        27.14221
565.24        27.34939
565.68        27.53257
566.11        27.70642
566.55        27.86712
566.98        28.02931
567.42        28.18624
567.85        28.25149
568.29        28.28026
568.72        28.35477
569.16        28.48775
569.60        28.70537
570.03        29.03244
570.47         29.1203
570.90        29.27798
571.34        29.93884
571.77        29.93666
572.21        29.93735
572.64         30.2161
573.08        30.24097
573.51        30.64256
573.95        30.83378
574.38         30.9214
574.82        30.68773
