SpectraSmart Spectrum 2.9.0.0
--------- Device Information -----------
Spectrum Name :  反射率_0
Saving Time :  2024/04/27 22:47:56
Spectro-Module Model Name : SE2030-DUVN
Spectro-Module Serial Number : OS361AC55029948
Wavelength Start : 200
Wavelength End : 1025
Wavelength Unit : Wavelength(nm)
Spectrum Unit : Reflectance(%)
-----------Spectrum Setting ------------
Integration Time : 20ms
Average : 10
Boxcar : 0
Background removal :  enabled
linearity correction :  enabled
SC :  disabled
Intensity correction :  disabled
DWT denoise :  enabled
savitzky-golay :  disabled
FFT :  disabled
Running average :  disabled
Kalman :  disabled
High pass :  disabled
---------------BEGIN--------------------
Wavelength(nm)             Reflectance(%)
200.29               0
200.75       -47.43103
201.21        -25.4822
201.67     -0.01593887
202.13        14.88043
202.58        22.23881
203.04        26.93983
203.50        32.13498
203.96        40.24108
204.42        50.03779
204.88        59.43214
205.34        66.52349
205.80        70.29428
206.26        71.07565
206.72        68.63647
207.18        63.13282
207.64        59.41168
208.10        61.13935
208.55         65.8067
209.01        68.05544
209.47        65.72298
209.93        57.13866
210.39        33.71287
210.85       -39.46371
211.31       -137.9348
211.77        -39.7263
212.23        30.40718
212.69         55.6469
213.14        62.64108
213.60        60.27562
214.06        51.01052
214.52        32.88174
214.98        17.32578
215.44        19.71611
215.90        29.37807
216.36        38.81443
216.81        46.19011
217.27          52.049
217.73        58.10681
218.19         62.8868
218.65        63.08376
219.11        57.76006
219.57        47.05348
220.02        33.42575
220.48        25.53017
220.94        26.44053
221.40        33.05207
221.86        41.12209
222.32        46.19638
222.77        47.95823
223.23        48.06627
223.69        47.23856
224.15        45.90929
224.61        44.39073
225.06        42.31817
225.52        40.69495
225.98        41.02976
226.44        43.01149
226.90        45.33223
227.36        47.16881
227.81        47.96264
228.27        47.72736
228.73         46.7033
229.19        44.51982
229.65        40.70343
230.10        35.62853
230.56        30.23373
231.02        25.61283
231.48         23.1828
231.93        22.98475
232.39        24.40766
232.85        26.97212
233.31        29.97756
233.77        33.00269
234.22        36.24995
234.68        38.85141
235.14         39.8247
235.60        39.11935
236.05        36.67218
236.51        33.99031
236.97        34.36255
237.43        38.80861
237.88        46.42508
238.34        54.09459
238.80        58.57224
239.26        59.11345
239.71         55.3757
240.17        47.32856
240.63        41.73864
241.08        45.32001
241.54        53.78996
242.00        60.75309
242.46        63.09681
242.91        61.12535
243.37        53.77687
243.83        38.13778
244.28        21.70137
244.74        29.51558
245.20        55.73641
245.66        74.89192
246.11        79.84417
246.57        73.91186
247.03        56.41101
247.48        27.48731
247.94        8.051358
248.40        19.24105
248.85         48.8886
249.31        77.63458
249.77        89.94675
250.22        88.40376
250.68        81.17436
251.14        73.71307
251.59         70.0768
252.05        70.57068
252.51        73.64035
252.96        78.08109
253.42        80.29427
253.88        77.79521
254.33        73.58769
254.79        70.12386
255.25        67.60639
255.70        65.67697
256.16        64.38976
256.62        63.92137
257.07        64.63819
257.53        66.32135
257.99        67.98396
258.44        68.76305
258.90        68.33763
259.35        66.60693
259.81        64.46474
260.27        62.14252
260.72         59.9841
261.18        58.43373
261.63        57.07483
262.09        56.04134
262.55        55.08384
263.00        54.06644
263.46        53.16603
263.91        52.28601
264.37        51.64139
264.83        51.15036
265.28        50.71481
265.74        50.27496
266.19        49.54742
266.65        48.58524
267.11         47.4268
267.56        46.20654
268.02        45.24196
268.47         44.5555
268.93        44.07091
269.38         43.6515
269.84        43.11065
270.30        42.38602
270.75        41.54061
271.21        40.62303
271.66        39.65549
272.12        38.69261
272.57        37.69895
273.03        36.75517
273.48        35.90775
273.94        35.21903
274.39        34.63446
274.85        34.15441
275.31        33.69033
275.76        33.19401
276.22         32.7078
276.67        32.18898
277.13        31.67891
277.58        31.13519
278.04        30.59725
278.49        30.02097
278.95         29.4555
279.40         28.8667
279.86        28.32021
280.31        27.79769
280.77        27.38495
281.22        27.05409
281.68        26.82596
282.13        26.65161
282.59        26.50846
283.04        26.36596
283.50        26.23986
283.95        26.12614
284.41        26.05779
284.86        26.02036
285.32        26.02015
285.77         26.0148
286.22        25.98285
286.68         25.9355
287.13        25.84725
287.59        25.77832
288.04        25.74442
288.50        25.77822
288.95        25.84547
289.41        25.92623
289.86        25.94069
290.32        25.90579
290.77        25.84906
291.22        25.83425
291.68        25.94976
292.13        26.20477
292.59        26.57873
293.04        27.04356
293.50        27.57953
293.95         28.1586
294.40        28.80024
294.86        29.46598
295.31         30.0878
295.77        30.66862
296.22        31.20772
296.68        31.79448
297.13        32.54733
297.58        33.48198
298.04        34.54874
298.49         35.6251
298.95        36.55364
299.40        37.30019
299.85        37.91915
300.31        38.52713
300.76        39.26455
301.21        40.16079
301.67        41.15368
302.12        42.10917
302.58        42.89187
303.03        43.44682
303.48        43.84084
303.94        44.17947
304.39        44.55716
304.84        45.02494
305.30        45.56072
305.75        46.07611
306.20        46.49338
306.66        46.80864
307.11        47.01574
307.57        47.20893
308.02        47.45079
308.47        47.76508
308.93        48.11922
309.38        48.40173
309.83        48.48941
310.29        48.37848
310.74        48.10897
311.19        47.78696
311.65        47.57348
312.10        47.49254
312.55        47.49792
313.00        47.54636
313.46        47.56997
313.91        47.53118
314.36        47.45992
314.82        47.32095
315.27        47.05309
315.72        46.66145
316.18        46.17335
316.63        45.67191
317.08        45.31678
317.53        45.14134
317.99        45.09978
318.44        45.10762
318.89        45.00436
319.35        44.74707
319.80         44.3854
320.25        43.98527
320.70        43.65993
321.16        43.43226
321.61        43.26904
322.06        43.12102
322.51        42.91703
322.97        42.63056
323.42        42.30653
323.87        41.95832
324.32        41.61573
324.78        41.28753
325.23        40.96839
325.68        40.67003
326.13        40.42326
326.59         40.2152
327.04        40.06712
327.49        39.91216
327.94         39.6498
328.39        39.25903
328.85        38.75476
329.30        38.24054
329.75        37.86966
330.20        37.69073
330.66        37.65208
331.11        37.67955
331.56        37.58772
332.01        37.32748
332.46        36.94707
332.92        36.52501
333.37        36.24435
333.82        36.14035
334.27        36.15179
334.72        36.20193
335.17        36.16845
335.63        36.00071
336.08        35.76102
336.53        35.46067
336.98        35.13308
337.43        34.80499
337.88        34.46925
338.34         34.1645
338.79        33.96294
339.24        33.87729
339.69        33.89729
340.14        33.96343
340.59        33.97334
341.05        33.89439
341.50        33.74547
341.95        33.56887
342.40        33.44685
342.85        33.39418
343.30          33.381
343.75        33.34587
344.20        33.19315
344.66        32.91474
345.11        32.55309
345.56        32.18681
346.01        31.93386
346.46        31.82377
346.91        31.81269
347.36        31.85957
347.81        31.89806
348.26         31.9003
348.72        31.88753
349.17        31.83707
349.62        31.71343
350.07        31.51852
350.52        31.25669
350.97        30.99651
351.42         30.8537
351.87        30.84628
352.32        30.93639
352.77        31.03433
353.22        31.00054
353.67        30.80257
354.13        30.49592
354.58        30.12562
355.03        29.81798
355.48        29.61257
355.93        29.48108
356.38        29.37847
356.83        29.23273
357.28        29.02889
357.73        28.79762
358.18        28.58203
358.63        28.44476
359.08        28.39234
359.53        28.38875
359.98        28.38978
360.43        28.33213
360.88        28.19587
361.33        27.99825
361.78        27.74261
362.23        27.47083
362.68        27.20635
363.13        26.88267
363.58        26.51132
364.03        26.44867
364.48        26.15424
364.93         26.0565
365.38        25.96665
365.83        25.85346
366.28        25.69869
366.73        25.51927
367.18        25.32344
367.63        25.11218
368.08        24.89389
368.53        24.66741
368.98        24.45013
369.43          24.271
369.88        24.13576
370.33        24.03821
370.78        23.95536
371.23        23.84906
371.68        23.70405
372.13        23.52177
372.58        23.32218
373.03        23.13894
373.48        22.98416
373.93        22.86061
374.38        22.73274
374.83        22.54276
375.28        22.28816
375.72        21.97896
376.17        21.71866
376.62        21.62642
377.07        21.71175
377.52        21.91604
377.97        22.12386
378.42        22.15696
378.87        21.97703
379.32        21.65145
379.77        21.25941
380.22        20.91984
380.67        20.67351
381.11        20.48643
381.56        20.35797
382.01        20.28703
382.46        20.26313
382.91         20.2906
383.36        20.32623
383.81        20.29683
384.26        20.18625
384.71         20.0081
385.15        19.79747
385.60        19.64769
386.05        19.57004
386.50        19.54582
386.95        19.54169
387.40        19.50436
387.85        19.42567
388.29        19.31601
388.74        19.22812
389.19        19.19125
389.64        19.20391
390.09        19.23499
390.54        19.26163
390.98        19.24707
391.43        19.19105
391.88        19.11517
392.33        18.99909
392.78        18.84363
393.23        18.66956
393.67        18.40082
394.12        18.13038
394.57        18.20218
395.02         18.3012
395.47        18.36187
395.91        18.28312
396.36         18.2624
396.81        18.29873
397.26        18.27374
397.71        18.18854
398.15        18.11499
398.60        18.08052
399.05        17.98979
399.50        17.89532
399.95        17.98977
400.39        18.21911
400.84        18.30134
401.29        18.20152
401.74        18.04254
402.18        17.86986
402.63        17.73487
403.08        17.65743
403.53        17.57261
403.97         17.4943
404.42        17.50815
404.87        17.58526
405.32        17.64257
405.76        17.66043
406.21        17.61747
406.66         17.5449
407.11        17.57591
407.55        17.67135
408.00        17.63107
408.45        17.45485
408.90        17.20951
409.34        16.98673
409.79        17.00607
410.24        17.21071
410.68        17.28352
411.13        17.19729
411.58        17.14305
412.03        17.14575
412.47         17.1571
412.92          17.172
413.37        17.20527
413.81        17.23221
414.26        17.23086
414.71        17.19168
415.15        17.12189
415.60        17.03686
416.05        16.97274
416.49        16.94374
416.94        16.94056
417.39        16.94453
417.83        16.92703
418.28        16.87611
418.73        16.79298
419.17        16.71039
419.62        16.68315
420.07         16.7259
420.51        16.82841
420.96        16.92672
421.41        16.94255
421.85         16.8607
422.30        16.63494
422.74        16.38394
423.19        16.48695
423.64        16.88789
424.08        17.11742
424.53        17.07111
424.98        17.06991
425.42        17.11433
425.87         16.8888
426.31        16.51485
426.76        16.53782
427.21        16.88386
427.65         16.9308
428.10        16.68884
428.54        16.60374
428.99         16.6786
429.44        16.82678
429.88        16.94076
430.33         16.6503
430.77        16.14224
431.22        16.12216
431.66        16.55797
432.11        16.88174
432.56        16.98898
433.00        17.03657
433.45        16.89163
433.89        16.49861
434.34        16.19614
434.78        15.42769
435.23        16.13111
435.67        16.70872
436.12        16.92702
436.57        16.98059
437.01        16.76427
437.46        16.63321
437.90        16.68663
438.35        16.81785
438.79        16.49336
439.24        16.38175
439.68         16.3477
440.13        16.34425
440.57        16.34557
441.02        16.45682
441.46          16.625
441.91         16.4774
442.35        16.14726
442.80        16.34583
443.24        16.92763
443.69        16.93327
444.13        16.40755
444.58        16.20163
445.02        16.32736
445.47        16.34889
445.91        16.23958
446.36        16.18567
446.80        16.18355
447.24        16.17569
447.69         16.1811
448.13        16.26959
448.58        16.41761
449.02        16.52561
449.47        16.57631
449.91        16.62019
450.36        16.65429
450.80        16.62804
451.25        16.56642
451.69        16.53623
452.13        16.54193
452.58         16.5513
453.02        16.53931
453.47        16.47549
453.91        16.35526
454.36        16.22223
454.80        16.08591
455.24        15.94255
455.69         15.8407
456.13        15.79196
456.58        15.80904
457.02        15.96943
457.46        16.16906
457.91         16.1278
458.35        15.93852
458.79        15.84352
459.24        15.87648
459.68        15.88066
460.13        15.86199
460.57        15.80701
461.01        15.78679
461.46         15.8148
461.90        15.80688
462.34        15.80281
462.79        16.04035
463.23        16.08537
463.68        16.01615
464.12        15.92395
464.56        15.83579
465.01        15.80013
465.45        15.76346
465.89        15.63927
466.34        15.48586
466.78        15.37994
467.22        15.32284
467.67        15.63848
468.11        15.62198
468.55        15.66185
468.99        15.57517
469.44        15.56196
469.88        15.62428
470.32        15.63894
470.77        15.61068
471.21        15.59983
471.65         15.6129
472.10        15.63745
472.54        15.65538
472.98        15.66024
473.42        15.65543
473.87        15.60432
474.31        15.53449
474.75        15.63307
475.20        15.84786
475.64        15.87121
476.08        15.71889
476.52         15.7176
476.97        15.88792
477.41        15.90532
477.85        15.89831
478.29        16.04504
478.74        15.93459
479.18         15.7687
479.62        15.96992
480.06        15.98648
480.50        15.99446
480.95        15.97711
481.39        15.92446
481.83        16.16806
482.27        16.22062
482.72         16.2072
483.16        16.46379
483.60        16.51338
484.04         16.4873
484.48        16.43693
484.93        16.51732
485.37        16.45807
485.81        16.92114
486.25        17.20294
486.69        16.65131
487.14        16.37844
487.58        17.46553
488.02        17.33847
488.46        17.72913
488.90         17.4803
489.34        17.29278
489.79        17.03302
490.23        17.49542
490.67        17.79913
491.11        18.03982
491.55        18.06292
491.99        17.92671
492.43        17.97019
492.88        18.20672
493.32        18.38918
493.76        18.49573
494.20        18.66774
494.64        18.91334
495.08        19.12632
495.52        19.29671
495.96         19.5634
496.41        19.89196
496.85        19.83507
497.29         19.5299
497.73        19.57372
498.17        19.95048
498.61        20.32353
499.05        20.55559
499.49        20.62659
499.93        20.57831
500.37        20.55468
500.82        20.59275
501.26          20.709
501.70        20.92726
502.14        20.81251
502.58        21.09737
503.02         21.2152
503.46        21.29071
503.90        21.35529
504.34        21.39823
504.78        21.47074
505.22        21.56708
505.66        21.63503
506.10        21.68425
506.54        21.79132
506.98          21.963
507.42        22.07071
507.86        22.26314
508.30        22.36365
508.74        22.41521
509.18        22.42344
509.62        22.41477
510.06        22.42957
510.50        22.47812
510.94        22.55039
511.38        22.62983
511.82        22.69036
512.26        22.72416
512.70        22.73929
513.14        22.74318
513.58        22.75428
514.02        22.77956
514.46        22.80042
514.90        22.80395
515.34        22.85773
515.78        22.82483
516.22        22.81604
516.66        22.80993
517.10        22.83801
517.54        22.90208
517.98        22.99352
518.42         23.0801
518.86        23.10709
519.30        23.06382
519.74        22.96611
520.18        22.85293
520.62        22.78549
521.06        22.77877
521.50        22.81627
521.93        22.86516
522.37         22.8626
522.81        22.79783
523.25        22.68991
523.69        22.57322
524.13        22.50044
524.57        22.48244
525.01        22.49927
525.45         22.5189
525.89        22.49226
526.32        22.40397
526.76        22.27865
527.20        22.13868
527.64         22.0224
528.08        21.94103
528.52        21.88048
528.96        21.83025
529.40        21.77455
529.83        21.70638
530.27        21.63486
530.71        21.55602
531.15        21.46267
531.59        21.35703
532.03        21.24259
532.46         21.1319
532.90        21.05816
533.34        21.02457
533.78        21.02359
534.22        21.03958
534.66        21.04787
535.09        21.03823
535.53        21.01876
535.97        20.99484
536.41        20.97892
536.85        20.97475
537.28        20.98053
537.72        20.98686
538.16        20.97694
538.60        20.95083
539.04        20.91957
539.47        20.89855
539.91        20.92253
540.35         20.9908
540.79         21.0981
541.22        21.21585
541.66        21.29822
542.10        21.33739
542.54        21.35264
542.97        21.37187
543.41        21.45157
543.85        21.59875
544.29        21.79118
544.72        22.00584
545.16        22.22438
545.60        22.42742
546.04        22.62102
546.47        22.79339
546.91        22.92084
547.35        23.00342
547.79        23.06171
548.22        23.11797
548.66        23.20276
549.10        23.34002
549.53        23.60004
549.97        23.94693
550.41        24.23611
550.84        24.44123
551.28        24.63459
551.72        24.81342
552.15        24.94476
552.59        25.04083
553.03        25.10221
553.46         25.1616
553.90        25.29091
554.34        25.49566
554.77        25.76471
555.21        26.04428
555.65         26.2451
556.08        26.31914
556.52        26.35329
556.96        26.37577
557.39         26.4687
557.83        26.62761
558.27        26.71969
558.70        26.74394
559.14        26.79988
559.57        26.88044
560.01        26.95977
560.45          27.027
560.88        27.04564
561.32        27.06646
561.75        27.17351
562.19         27.3536
562.63        27.51944
563.06        27.62739
563.50        27.61601
563.93         27.5267
564.37        27.55135
564.80        27.69749
565.24         27.8786
565.68        28.06675
566.11        28.24459
566.55          28.405
566.98         28.5706
567.42        28.72967
567.85        28.78436
568.29        28.79076
568.72        28.83668
569.16        28.93037
569.60          29.103
570.03        29.37713
570.47        29.38587
570.90        29.46533
571.34         30.1265
571.77        30.03991
572.21        30.16189
572.64        30.49325
573.08        30.40359
573.51        30.72168
573.95        30.80485
574.38        30.80779
574.82        31.05126
