SpectraSmart Spectrum 2.9.0.0
--------- Device Information -----------
Spectrum Name :  反射率_0
Saving Time :  2024/04/27 23:04:58
Spectro-Module Model Name : SE2030-DUVN
Spectro-Module Serial Number : OS361AC55029948
Wavelength Start : 200
Wavelength End : 1025
Wavelength Unit : Wavelength(nm)
Spectrum Unit : Reflectance(%)
-----------Spectrum Setting ------------
Integration Time : 20ms
Average : 10
Boxcar : 0
Background removal :  enabled
linearity correction :  enabled
SC :  disabled
Intensity correction :  disabled
DWT denoise :  enabled
savitzky-golay :  disabled
FFT :  disabled
Running average :  disabled
Kalman :  disabled
High pass :  disabled
---------------BEGIN--------------------
Wavelength(nm)             Reflectance(%)
200.29               0
200.75       -29.67389
201.21       -13.55241
201.67        4.286319
202.13        14.05545
202.58        18.06007
203.04        20.30388
203.50        23.59356
203.96        30.10805
204.42        38.79234
204.88        47.65395
205.34        54.77693
205.80        59.24638
206.26        61.39748
206.72        61.03179
207.18        58.35789
207.64        56.26743
208.10        56.82665
208.55        59.30235
209.01        59.09277
209.47        53.36431
209.93        38.75108
210.39       0.8222215
210.85       -115.7252
211.31       -269.9352
211.77       -111.0197
212.23        1.906752
212.69        42.91047
213.14        55.09842
213.60        53.84079
214.06         42.9828
214.52        22.25471
214.98        10.92568
215.44        24.48148
215.90        43.73767
216.36        57.64663
216.81        64.05909
217.27        65.21564
217.73         63.9294
218.19        60.25549
218.65        53.58651
219.11        44.20373
219.57        31.83778
220.02        19.13778
220.48        14.57818
220.94        20.31725
221.40        32.54735
221.86        46.19979
222.32        56.36007
222.77         62.4503
223.23         65.8417
223.69        67.16893
224.15        67.03065
224.61        65.81812
225.06        63.25078
225.52         60.1641
225.98        58.06171
226.44        57.46289
226.90        57.80547
227.36        58.30147
227.81        58.15405
228.27         57.3124
228.73        55.91334
229.19         54.0948
229.65        52.27142
230.10         50.6823
230.56        49.57187
231.02        48.71119
231.48        47.86714
231.93         46.9703
232.39        46.20161
232.85        45.91278
233.31        46.63642
233.77        48.27286
234.22        50.54381
234.68        52.62276
235.14        53.53695
235.60        53.11355
236.05        51.46461
236.51        49.34182
236.97        48.45598
237.43        49.51056
237.88        52.24771
238.34        55.06827
238.80        56.39589
239.26        55.72044
239.71        52.59167
240.17        47.25416
240.63        44.72866
241.08        49.11339
241.54        56.57961
242.00        62.07896
242.46        63.29685
242.91        60.41339
243.37        51.78246
243.83        33.47667
244.28        12.09776
244.74        15.79838
245.20        41.42272
245.66        62.80011
246.11        71.59177
246.57        71.68373
247.03        64.86339
247.48         50.7404
247.94        38.10747
248.40        37.88623
248.85        45.55408
249.31        55.39634
249.77        62.62087
250.22        66.54244
250.68        68.92565
251.14         70.0297
251.59        69.73449
252.05         68.1599
252.51        64.45387
252.96        58.19246
253.42        52.75621
253.88        50.82777
254.33        51.95959
254.79        53.66432
255.25        53.41838
255.70        51.54747
256.16        49.54457
256.62        48.57956
257.07        49.87043
257.53        52.87452
257.99        56.00182
258.44        58.10571
258.90        58.60241
259.35        57.49955
259.81        55.80752
260.27        53.82391
260.72        51.92262
261.18        50.54886
261.63        49.33641
262.09        48.45831
262.55        47.77303
263.00        47.15563
263.46        46.73229
263.91         46.3534
264.37        46.11114
264.83        45.91503
265.28        45.71047
265.74        45.48978
266.19        45.07143
266.65        44.51176
267.11        43.81263
267.56        43.05468
268.02        42.46708
268.47        42.04691
268.93         41.7447
269.38        41.45201
269.84        41.02247
270.30        40.41556
270.75        39.69128
271.21        38.89921
271.66         38.0661
272.12        37.24957
272.57        36.41681
273.03        35.66249
273.48        35.04944
273.94        34.62865
274.39         34.3282
274.85        34.10053
275.31        33.79636
275.76        33.36037
276.22        32.85562
276.67        32.28999
277.13        31.77664
277.58        31.28946
278.04        30.85397
278.49         30.3824
278.95        29.85954
279.40        29.24461
279.86        28.62753
280.31        28.04662
280.77        27.66945
281.22        27.46917
281.68        27.42414
282.13        27.41341
282.59        27.31985
283.04        27.09693
283.50        26.79529
283.95        26.45958
284.41        26.20128
284.86        26.02577
285.32        25.91248
285.77        25.79589
286.22        25.61755
286.68        25.38333
287.13        25.09535
287.59        24.81663
288.04        24.56536
288.50        24.38065
288.95        24.22074
289.41        24.09922
289.86        23.99294
290.32        23.91165
290.77        23.85627
291.22        23.81367
291.68        23.75531
292.13        23.67543
292.59        23.59846
293.04         23.5672
293.50        23.67362
293.95        23.92238
294.40        24.29209
294.86        24.72067
295.31          25.103
295.77        25.41656
296.22        25.67029
296.68        25.91763
297.13        26.22477
297.58        26.60626
298.04        27.02647
298.49        27.42503
298.95        27.72508
299.40        27.91267
299.85         28.0234
300.31        28.13109
300.76        28.31149
301.21        28.59652
301.67        28.96325
302.12        29.34537
302.58        29.67731
303.03        29.92497
303.48        30.11228
303.94        30.29855
304.39        30.53087
304.84        30.82812
305.30        31.16916
305.75        31.46804
306.20        31.63317
306.66        31.66049
307.11        31.55636
307.57        31.42505
308.02        31.36718
308.47        31.41946
308.93        31.54601
309.38        31.64864
309.83        31.59727
310.29        31.38096
310.74        31.04129
311.19        30.67471
311.65        30.42992
312.10          30.328
312.55        30.32291
313.00        30.35948
313.46        30.35466
313.91        30.27308
314.36        30.14188
314.82        29.95189
315.27        29.68464
315.72        29.35134
316.18        28.96644
316.63        28.57395
317.08        28.26534
317.53        28.06409
317.99        27.95119
318.44          27.889
318.89        27.79504
319.35         27.6452
319.80        27.45779
320.25        27.26619
320.70        27.13158
321.16        27.05553
321.61        27.01469
322.06        26.95554
322.51         26.7993
322.97        26.52752
323.42        26.18377
323.87        25.80777
324.32        25.47147
324.78        25.20145
325.23        24.98158
325.68        24.81657
326.13        24.71499
326.59        24.65615
327.04        24.65744
327.49        24.65241
327.94        24.53799
328.39        24.29098
328.85        23.92831
329.30        23.53507
329.75        23.26185
330.20        23.15756
330.66         23.1795
331.11        23.25971
331.56        23.23757
332.01        23.07114
332.46        22.80285
332.92        22.51608
333.37        22.37705
333.82        22.41814
334.27         22.5759
334.72        22.75514
335.17        22.80338
335.63        22.67322
336.08        22.43912
336.53        22.13891
336.98        21.84589
337.43        21.60256
337.88        21.38714
338.34         21.2536
338.79        21.28981
339.24        21.49794
339.69        21.85178
340.14        22.22307
340.59        22.39903
341.05        22.32731
341.50        22.06548
341.95        21.73015
342.40        21.52406
342.85        21.50184
343.30        21.60362
343.75        21.74447
344.20        21.78678
344.66        21.69652
345.11        21.52063
345.56        21.32019
346.01        21.18404
346.46        21.13452
346.91        21.13404
347.36        21.14857
347.81        21.12684
348.26        21.06037
348.72        20.98309
349.17        20.90268
349.62        20.82637
350.07        20.76004
350.52        20.68266
350.97        20.64663
351.42        20.73802
351.87        20.95336
352.32        21.26198
352.77        21.52343
353.22        21.52384
353.67        21.23445
354.13         20.7399
354.58        20.19557
355.03        19.90497
355.48        19.94093
355.93        20.21442
356.38        20.56425
356.83        20.73449
357.28        20.65889
357.73        20.42077
358.18        20.12726
358.63        19.94341
359.08        19.90989
359.53        19.95973
359.98        20.02753
360.43        20.01917
360.88        19.90981
361.33        19.74029
361.78        19.53162
362.23         19.3489
362.68        19.21969
363.13         19.0551
363.58        18.85258
364.03        18.98449
364.48        18.84365
364.93        18.90339
365.38        18.94911
365.83        18.93836
366.28        18.85313
366.73        18.71527
367.18        18.54904
367.63        18.38192
368.08        18.22801
368.53         18.0763
368.98        17.93663
369.43        17.82337
369.88        17.73783
370.33         17.6849
370.78        17.63239
371.23        17.52526
371.68        17.35312
372.13        17.12554
372.58        16.90136
373.03        16.77802
373.48          16.775
373.93        16.86692
374.38        16.96991
374.83        16.94972
375.28         16.7824
375.72        16.50386
376.17        16.23093
376.62        16.10919
377.07        16.16357
377.52        16.32645
377.97        16.51174
378.42         16.5865
378.87        16.51603
379.32         16.3582
379.77        16.13722
380.22        15.88612
380.67        15.62958
381.11        15.35359
381.56        15.12111
382.01        15.03755
382.46        15.11355
382.91        15.31764
383.36        15.53267
383.81        15.57082
384.26        15.39603
384.71        15.06823
385.15        14.69268
385.60        14.46866
386.05        14.43562
386.50        14.53464
386.95        14.69475
387.40          14.804
387.85        14.82925
388.29        14.80081
388.74         14.7626
389.19        14.74057
389.64        14.73992
390.09        14.73156
390.54        14.71323
390.98        14.68713
391.43        14.65541
391.88        14.62497
392.33        14.56267
392.78        14.44104
393.23        14.27202
393.67        14.01174
394.12        13.73923
394.57        13.72098
395.02        13.72357
395.47        13.69605
395.91        13.58034
396.36        13.55128
396.81        13.60854
397.26        13.64966
397.71        13.64785
398.15        13.61598
398.60        13.56676
399.05        13.44585
399.50        13.30263
399.95        13.29289
400.39        13.38364
400.84        13.36463
401.29         13.2315
401.74        13.10732
402.18        13.02971
402.63        13.02736
403.08        13.08527
403.53        13.10402
403.97        13.07668
404.42        13.07669
404.87        13.09968
405.32        13.11393
405.76        13.11335
406.21        13.07152
406.66        13.00411
407.11         12.9976
407.55        13.02124
408.00        12.93839
408.45        12.75673
408.90        12.53554
409.34         12.3474
409.79        12.34808
410.24        12.50178
410.68        12.58812
411.13        12.58405
411.58        12.62322
412.03        12.70197
412.47        12.74592
412.92         12.7412
413.37        12.71264
413.81        12.66713
414.26        12.62591
414.71        12.59326
415.15        12.56521
415.60        12.54508
416.05        12.54177
416.49        12.55621
416.94        12.58202
417.39        12.60772
417.83        12.61652
418.28        12.59758
418.73         12.5484
419.17         12.4784
419.62        12.40759
420.07        12.34881
420.51        12.30861
420.96        12.26885
421.41        12.21508
421.85        12.14443
422.30        12.00874
422.74        11.87321
423.19        11.98353
423.64        12.28955
424.08        12.45845
424.53        12.41143
424.98        12.38345
425.42        12.37757
425.87        12.16642
426.31        11.84748
426.76        11.83396
427.21        12.07343
427.65        12.11481
428.10        11.95782
428.54         11.9102
428.99        11.96881
429.44        12.07744
429.88        12.14709
430.33        11.89855
430.77        11.47028
431.22        11.36915
431.66        11.59389
432.11        11.78461
432.56         11.8815
433.00        11.98707
433.45         11.9741
433.89        11.73314
434.34        11.48908
434.78        10.87125
435.23        11.28543
435.67        11.66157
436.12        11.85076
436.57        11.96711
437.01        11.90072
437.46        11.84474
437.90        11.85855
438.35        11.88655
438.79         11.5749
439.24        11.43316
439.68        11.37694
440.13        11.36344
440.57        11.37237
441.02        11.47309
441.46        11.62268
441.91         11.5561
442.35        11.35727
442.80        11.51374
443.24         11.9225
443.69         11.9123
444.13        11.51339
444.58        11.32446
445.02        11.35483
445.47        11.30229
445.91        11.16929
446.36        11.11859
446.80        11.14976
447.24        11.21339
447.69        11.28838
448.13        11.37375
448.58        11.44102
449.02        11.43764
449.47         11.3812
449.91        11.35474
450.36        11.36824
450.80        11.37345
451.25        11.36706
451.69        11.36464
452.13        11.35974
452.58        11.33929
453.02        11.29952
453.47        11.23989
453.91        11.16113
454.36        11.08628
454.80        11.00619
455.24        10.89524
455.69        10.78543
456.13        10.69695
456.58        10.65846
457.02        10.75022
457.46        10.90783
457.91        10.92841
458.35        10.86231
458.79        10.85486
459.24        10.92324
459.68        10.96616
460.13        10.98046
460.57        10.94444
461.01        10.90911
461.46        10.88483
461.90        10.83716
462.34        10.83161
462.79         11.0377
463.23        11.14933
463.68        11.18507
464.12        11.15562
464.56        11.06866
465.01        10.97745
465.45        10.87603
465.89        10.75375
466.34        10.66012
466.78         10.6301
467.22        10.64167
467.67        10.88129
468.11        10.84814
468.55        10.82847
468.99        10.71298
469.44        10.66577
469.88        10.69572
470.32        10.70841
470.77         10.7069
471.21        10.73126
471.65        10.78256
472.10        10.85381
472.54        10.91621
472.98        10.93882
473.42         10.9203
473.87        10.84043
474.31        10.74519
474.75        10.80813
475.20        11.00034
475.64        11.09663
476.08        11.06929
476.52        11.09176
476.97        11.17031
477.41        11.09382
477.85        10.99372
478.29        11.05945
478.74         11.0223
479.18        10.99617
479.62        11.23841
480.06         11.3043
480.50         11.3024
480.95        11.24419
481.39        11.14568
481.83        11.27304
482.27        11.29712
482.72        11.29585
483.16        11.50118
483.60        11.56244
484.04        11.55454
484.48        11.56605
484.93         11.7262
485.37        11.65425
485.81        11.79761
486.25        12.25413
486.69        12.01825
487.14        11.52972
487.58        12.31142
488.02        12.41532
488.46        12.20996
488.90        12.14862
489.34        11.90567
489.79          11.797
490.23        12.18176
490.67        12.43547
491.11        12.61908
491.55        12.62494
491.99        12.51681
492.43        12.55226
492.88        12.74552
493.32         12.9132
493.76        13.01987
494.20        13.13497
494.64        13.26264
495.08        13.34514
495.52         13.3982
495.96         13.5557
496.41         13.8246
496.85        13.81891
497.29        13.63242
497.73        13.77457
498.17        14.18406
498.61        14.39025
499.05        14.33162
499.49          14.272
499.93        14.26147
500.37          14.252
500.82        14.26182
501.26        14.35143
501.70        14.53369
502.14        14.49382
502.58        14.72799
503.02        14.81837
503.46        14.84797
503.90        14.84734
504.34        14.82512
504.78        14.84407
505.22        14.90805
505.66        14.97185
506.10        15.03455
506.54        15.13602
506.98        15.27509
507.42         15.3676
507.86         15.5099
508.30        15.56694
508.74        15.56927
509.18        15.52464
509.62        15.47025
510.06        15.46555
510.50        15.52427
510.94        15.63009
511.38        15.75243
511.82        15.84146
512.26         15.8824
512.70        15.89088
513.14        15.88552
513.58        15.88926
514.02        15.91066
514.46        15.95337
514.90        16.00987
515.34        16.01298
515.78        16.05135
516.22        16.05526
516.66        16.06593
517.10        16.10119
517.54        16.16275
517.98        16.24014
518.42         16.3082
518.86        16.33023
519.30        16.29867
519.74        16.22683
520.18        16.13998
520.62        16.07693
521.06        16.05003
521.50        16.05072
521.93        16.06674
522.37        16.06943
522.81         16.0529
523.25        16.02143
523.69        15.98633
524.13        15.96498
524.57        15.95828
525.01        15.95826
525.45        15.94349
525.89        15.88113
526.32        15.76616
526.76         15.6219
527.20        15.47664
527.64        15.37725
528.08        15.33532
528.52        15.33211
528.96        15.35495
529.40        15.38295
529.83        15.40401
530.27        15.42458
530.71        15.42428
531.15        15.37103
531.59        15.26488
532.03        15.11656
532.46        14.96713
532.90         14.8954
533.34        14.91361
533.78        14.99917
534.22        15.10849
534.66        15.17293
535.09        15.17457
535.53        15.13723
535.97        15.08496
536.41        15.05813
536.85        15.06858
537.28        15.10094
537.72        15.14522
538.16        15.18487
538.60        15.21463
539.04        15.24609
539.47         15.2741
539.91         15.2985
540.35        15.31694
540.79        15.33184
541.22        15.35197
541.66        15.39281
542.10        15.45696
542.54        15.54186
542.97        15.63304
543.41        15.71658
543.85        15.78712
544.29        15.85051
544.72        15.91717
545.16        16.01723
545.60        16.14967
546.04        16.30481
546.47        16.46725
546.91        16.60803
547.35        16.71778
547.79        16.81057
548.22        16.89239
548.66         16.9712
549.10        17.06229
549.53        17.22488
549.97        17.43487
550.41        17.59397
550.84        17.69055
551.28        17.77676
551.72        17.87164
552.15        17.98348
552.59        18.12152
553.03         18.2718
553.46        18.41922
553.90        18.55684
554.34         18.6768
554.77        18.78929
555.21        18.88522
555.65         18.9516
556.08        18.97038
556.52        18.98937
556.96        19.01589
557.39        19.08889
557.83        19.19866
558.27        19.25857
558.70        19.26956
559.14        19.30312
559.57        19.35649
560.01        19.41095
560.45        19.46198
560.88        19.49301
561.32        19.54342
561.75        19.65891
562.19        19.82241
562.63        19.99858
563.06        20.13005
563.50        20.07834
563.93        19.90232
564.37        19.87389
564.80         20.0084
565.24        20.17564
565.68        20.33833
566.11        20.48265
566.55        20.59837
566.98        20.70845
567.42        20.81302
567.85        20.85248
568.29        20.87102
568.72        20.92765
569.16        21.03132
569.60        21.21349
570.03        21.49132
570.47        21.60108
570.90        21.68222
571.34         22.2857
571.77         22.2042
572.21        22.19965
572.64        22.41558
573.08        22.39062
573.51        22.59913
573.95        22.80408
574.38        23.02079
574.82        22.99783
