SpectraSmart Spectrum 2.9.0.0
--------- Device Information -----------
Spectrum Name :  反射率_0
Saving Time :  2024/04/27 22:51:19
Spectro-Module Model Name : SE2030-DUVN
Spectro-Module Serial Number : OS361AC55029948
Wavelength Start : 200
Wavelength End : 1025
Wavelength Unit : Wavelength(nm)
Spectrum Unit : Reflectance(%)
-----------Spectrum Setting ------------
Integration Time : 20ms
Average : 10
Boxcar : 0
Background removal :  enabled
linearity correction :  enabled
SC :  disabled
Intensity correction :  disabled
DWT denoise :  enabled
savitzky-golay :  disabled
FFT :  disabled
Running average :  disabled
Kalman :  disabled
High pass :  disabled
---------------BEGIN--------------------
Wavelength(nm)             Reflectance(%)
200.29               0
200.75        7.905703
201.21        34.11158
201.67        57.19906
202.13        65.66984
202.58        64.25227
203.04        58.81504
203.50        54.30347
203.96        56.98367
204.42        66.07823
204.88        77.17184
205.34         87.1209
205.80        94.25262
206.26        99.05086
206.72        102.6988
207.18        104.5613
207.64        101.6036
208.10        94.74822
208.55        88.53808
209.01        83.08083
209.47        75.97089
209.93        63.49043
210.39        34.50589
210.85        -50.6957
211.31       -155.9156
211.77       -35.23632
212.23        45.44709
212.69        74.08385
213.14        82.86743
213.60        82.29005
214.06        74.92033
214.52        58.07768
214.98        39.54774
215.44        35.27557
215.90        39.57551
216.36          45.533
216.81        50.19362
217.27         53.5065
217.73        56.94567
218.19        60.03952
218.65        61.30416
219.11        60.34122
219.57         57.2952
220.02        52.32084
220.48        48.00385
220.94        45.66823
221.40        45.03878
221.86        46.40197
222.32        49.83727
222.77        54.59818
223.23        59.85684
223.69        64.39825
224.15        66.97047
224.61        67.62762
225.06        66.70029
225.52        64.95781
225.98        63.50998
226.44        62.86232
226.90        62.63715
227.36        62.45213
227.81        61.86493
228.27        60.86777
228.73        59.53017
229.19        58.01754
229.65        56.76001
230.10        55.88742
230.56        55.49607
231.02        55.26468
231.48        54.85853
231.93        54.16439
232.39        53.45918
232.85        52.88029
233.31        52.67431
233.77         52.8875
234.22         53.4796
234.68        54.17692
235.14        54.74988
235.60         55.1517
236.05        55.34237
236.51        55.71815
236.97        56.92348
237.43        59.02089
237.88        61.88942
238.34        64.31947
238.80        65.40538
239.26        64.89906
239.71        62.34254
240.17         57.8693
240.63        55.83435
241.08        59.70144
241.54         66.1659
242.00        71.03246
242.46        72.44131
242.91        70.65618
243.37        64.48123
243.83        50.66952
244.28        32.53756
244.74        30.55652
245.20        46.03621
245.66        60.28271
246.11        65.16622
246.57        62.63957
247.03        53.79614
247.48        39.46624
247.94        32.38063
248.40        43.34858
248.85        63.40231
249.31        81.52209
249.77        89.74039
250.22        89.80896
250.68        86.29679
251.14        82.34595
251.59          80.348
252.05        80.51093
252.51        81.72733
252.96        83.14651
253.42        83.16859
253.88        80.73613
254.33        77.73063
254.79        75.04592
255.25        71.85112
255.70        68.20484
256.16        64.98753
256.62        63.09226
257.07        63.59079
257.53        66.02206
257.99        68.79514
258.44        70.66125
258.90        71.04115
259.35        69.82782
259.81        68.05937
260.27        66.00983
260.72        64.05013
261.18        62.66269
261.63        61.41263
262.09         60.4733
262.55        59.61325
263.00        58.70648
263.46        57.95355
263.91        57.24776
264.37        56.81219
264.83        56.54954
265.28        56.34215
265.74        56.15159
266.19        55.69879
266.65        55.04557
267.11        54.22057
267.56        53.31102
268.02        52.56954
268.47        51.99852
268.93        51.53513
269.38        51.10412
269.84         50.6255
270.30        50.05159
270.75        49.41305
271.21        48.67122
271.66        47.70568
272.12        46.55892
272.57        45.25343
273.03         43.9897
273.48        42.98311
273.94        42.34015
274.39        41.93761
274.85        41.69051
275.31        41.37513
275.76        40.90114
276.22         40.3513
276.67        39.72371
277.13        39.14165
277.58        38.56362
278.04        38.01383
278.49        37.38039
278.95        36.63917
279.40        35.75164
279.86        34.83996
280.31        33.97121
280.77        33.36939
281.22        33.01525
281.68        32.88191
282.13        32.82865
282.59        32.72686
283.04        32.50951
283.50        32.22976
283.95        31.91438
284.41        31.65943
284.86        31.46296
285.32        31.31688
285.77        31.15362
286.22        30.92689
286.68        30.64812
287.13        30.30902
287.59        29.99789
288.04        29.75964
288.50        29.64014
288.95        29.59213
289.41        29.58364
289.86        29.51282
290.32        29.38559
290.77        29.22009
291.22        29.08664
291.68        29.08155
292.13        29.21269
292.59        29.46618
293.04        29.77762
293.50        30.07673
293.95         30.3349
294.40         30.5867
294.86        30.88302
295.31        31.29268
295.77        31.83694
296.22        32.47175
296.68          33.156
297.13        33.79936
297.58        34.37761
298.04        34.91152
298.49        35.41507
298.95        35.93518
299.40         36.4777
299.85        37.02501
300.31        37.58887
300.76        38.14821
301.21        38.69646
301.67        39.23845
302.12        39.71708
302.58        40.09831
303.03         40.3605
303.48        40.53755
303.94        40.70254
304.39        40.91091
304.84        41.19548
305.30        41.53893
305.75         41.8747
306.20        42.14882
306.66        42.35649
307.11        42.48576
307.57         42.5823
308.02        42.64263
308.47        42.69094
308.93        42.72671
309.38         42.7234
309.83        42.67665
310.29        42.60051
310.74        42.49213
311.19        42.38098
311.65        42.30502
312.10        42.25261
312.55        42.21476
313.00        42.18571
313.46        42.15675
313.91        42.11461
314.36        42.07001
314.82        41.98654
315.27        41.80407
315.72        41.52304
316.18        41.17091
316.63        40.82393
317.08        40.62558
317.53        40.60224
317.99        40.70903
318.44        40.85209
318.89        40.85917
319.35        40.68882
319.80        40.39584
320.25        40.06676
320.70        39.84954
321.16        39.77334
321.61        39.79002
322.06        39.83402
322.51        39.80619
322.97        39.66901
323.42        39.47583
323.87        39.23268
324.32        38.95631
324.78        38.66191
325.23        38.35205
325.68        38.07175
326.13        37.90733
326.59        37.85788
327.04        37.92395
327.49        38.01559
327.94        37.98992
328.39        37.81026
328.85        37.50947
329.30        37.17088
329.75         36.9166
330.20        36.79415
330.66        36.75199
331.11        36.78393
331.56        36.82287
332.01        36.84204
332.46         36.8599
332.92        36.85207
333.37        36.81634
333.82        36.73642
334.27        36.60611
334.72        36.45418
335.17        36.33553
335.63        36.25923
336.08         36.2438
336.53         36.2416
336.98        36.18443
337.43        36.06145
337.88        35.89256
338.34        35.74618
338.79        35.74286
339.24        35.89853
339.69        36.16861
340.14         36.4485
340.59        36.57092
341.05        36.49681
341.50        36.28812
341.95        36.02597
342.40        35.85026
342.85        35.80215
343.30        35.83202
343.75         35.9118
344.20        35.99549
344.66         36.0636
345.11        36.13619
345.56        36.18052
346.01        36.13673
346.46        36.00427
346.91        35.79768
347.36         35.6018
347.81        35.55066
348.26        35.66665
348.72        35.90906
349.17        36.17553
349.62        36.30257
350.07        36.24557
350.52        36.04414
350.97        35.79326
351.42        35.64666
351.87        35.64121
352.32         35.7319
352.77        35.81551
353.22         35.7378
353.67        35.47039
354.13        35.07819
354.58        34.66092
355.03        34.42472
355.48        34.41666
355.93        34.58163
356.38         34.7755
356.83        34.77417
357.28        34.53238
357.73        34.12062
358.18        33.69256
358.63        33.48752
359.08        33.54609
359.53        33.77419
359.98        34.01506
360.43        34.02661
360.88        33.75302
361.33        33.28164
361.78        32.71826
362.23        32.26377
362.68        31.98612
363.13        31.76582
363.58        31.56229
364.03        31.62586
364.48         31.4223
364.93        31.38083
365.38        31.31472
365.83        31.17497
366.28        30.94735
366.73        30.64095
367.18        30.31452
367.63        30.05822
368.08        29.89399
368.53        29.79896
368.98        29.71087
369.43        29.52557
369.88        29.22293
370.33         28.8411
370.78        28.44878
371.23        28.15697
371.68        27.99103
372.13        27.90805
372.58        27.85678
373.03        27.75327
373.48        27.57306
373.93        27.35495
374.38        27.10679
374.83        26.83721
375.28        26.56274
375.72        26.26837
376.17        26.03071
376.62        25.92947
377.07        25.96619
377.52        26.10024
377.97        26.24188
378.42        26.24938
378.87        26.09055
379.32        25.81556
379.77        25.47991
380.22        25.16873
380.67        24.91311
381.11         24.6897
381.56        24.50741
382.01        24.38215
382.46        24.31128
382.91        24.29498
383.36        24.29136
383.81        24.22899
384.26          24.092
384.71        23.89689
385.15        23.67597
385.60        23.51719
386.05        23.43095
386.50        23.40009
386.95        23.39333
387.40        23.36293
387.85        23.29763
388.29        23.19588
388.74        23.11494
389.19          23.082
389.64        23.09531
390.09        23.13082
390.54        23.14822
390.98        23.08175
391.43        22.93896
391.88        22.75416
392.33        22.55548
392.78        22.41928
393.23         22.3687
393.67        22.27563
394.12        22.17423
394.57        22.37856
395.02        22.48125
395.47        22.43436
395.91        22.16856
396.36        22.01967
396.81        22.01531
397.26        21.98126
397.71        21.89886
398.15        21.82343
398.60        21.77696
399.05        21.66306
399.50        21.53302
399.95        21.59527
400.39        21.78441
400.84        21.76602
401.29        21.53872
401.74         21.3177
402.18        21.17124
402.63        21.13985
403.08        21.19972
403.53        21.19111
403.97         21.1067
404.42        21.07304
404.87        21.09151
405.32         21.1205
405.76        21.15209
406.21        21.14106
406.66        21.10266
407.11        21.16424
407.55        21.27019
408.00        21.19367
408.45        20.94944
408.90        20.64016
409.34        20.38318
409.79        20.43238
410.24        20.71258
410.68         20.8331
411.13        20.75568
411.58        20.71166
412.03        20.73135
412.47        20.75496
412.92        20.77722
413.37        20.81814
413.81         20.8454
414.26        20.82852
414.71         20.7593
415.15        20.65141
415.60        20.53831
416.05        20.49009
416.49        20.52641
416.94        20.62217
417.39        20.73526
417.83        20.80125
418.28        20.79665
418.73         20.7315
419.17        20.64143
419.62        20.58911
420.07        20.59649
420.51        20.64957
420.96        20.70015
421.41        20.69849
421.85        20.63124
422.30        20.42969
422.74        20.19192
423.19        20.31354
423.64        20.71244
424.08        20.83044
424.53        20.60551
424.98        20.52615
425.42        20.61781
425.87        20.47155
426.31        20.17347
426.76        20.29231
427.21        20.71638
427.65        20.70771
428.10        20.32862
428.54        20.20027
428.99        20.34028
429.44        20.60377
429.88         20.8304
430.33        20.53412
430.77        19.93113
431.22        19.88671
431.66        20.37343
432.11        20.76638
432.56        20.95611
433.00        21.01439
433.45        20.80573
433.89        20.54115
434.34        20.52228
434.78        19.55652
435.23        20.15816
435.67        20.74854
436.12        21.07602
436.57        21.12354
437.01        20.76289
437.46        20.56528
437.90        20.65565
438.35        20.86731
438.79        20.52938
439.24        20.45322
439.68         20.4627
440.13        20.50573
440.57         20.5362
441.02        20.66321
441.46        20.82165
441.91         20.5595
442.35        20.07498
442.80        20.29057
443.24        21.03013
443.69        21.09167
444.13        20.50806
444.58        20.30732
445.02        20.49589
445.47        20.53167
445.91        20.38678
446.36        20.30231
446.80        20.27807
447.24        20.23957
447.69        20.20908
448.13        20.26904
448.58        20.39426
449.02         20.4669
449.47         20.4823
449.91        20.52353
450.36        20.59192
450.80        20.61888
451.25        20.61851
451.69         20.6466
452.13        20.69943
452.58        20.73758
453.02        20.74306
453.47        20.70071
453.91        20.60736
454.36        20.50913
454.80         20.3923
455.24        20.21053
455.69          20.023
456.13        19.86641
456.58        19.79406
457.02        19.95779
457.46        20.23842
457.91        20.26401
458.35        20.12286
458.79        20.08296
459.24        20.17261
459.68        20.20237
460.13        20.17561
460.57        20.07052
461.01        19.98195
461.46        19.93316
461.90        19.83363
462.34        19.76075
462.79        20.02343
463.23        20.07608
463.68        20.01956
464.12        19.96454
464.56        19.93622
465.01        19.98609
465.45        20.03248
465.89        19.94392
466.34        19.78861
466.78        19.67074
467.22        19.59087
467.67        19.96353
468.11        19.89332
468.55        19.87885
468.99        19.70838
469.44        19.66668
469.88        19.76163
470.32        19.83008
470.77        19.85369
471.21        19.86674
471.65        19.86716
472.10        19.85431
472.54        19.82216
472.98        19.79103
473.42        19.77282
473.87        19.70755
474.31        19.62967
474.75        19.77456
475.20         20.0722
475.64        20.13429
476.08        19.96194
476.52        19.94091
476.97        20.09561
477.41        20.02685
477.85          19.927
478.29        20.06824
478.74        19.94689
479.18        19.79434
479.62        20.12147
480.06        20.20272
480.50        20.24696
480.95        20.24698
481.39        20.17909
481.83        20.44122
482.27        20.41897
482.72         20.2833
483.16        20.49695
483.60        20.51525
484.04        20.50968
484.48        20.56054
484.93        20.81018
485.37        20.72828
485.81        21.21313
486.25        21.54749
486.69        21.16048
487.14        20.71735
487.58         21.7655
488.02        21.32673
488.46        21.74038
488.90        21.57542
489.34        21.23706
489.79        21.00486
490.23        21.66509
490.67        21.82343
491.11        21.71784
491.55         21.7499
491.99        21.94376
492.43        22.10309
492.88        22.21171
493.32        22.33603
493.76        22.45795
494.20        22.58448
494.64         22.7296
495.08         22.8144
495.52        22.86271
495.96         23.1069
496.41        23.50765
496.85        23.49399
497.29        23.18256
497.73        23.28854
498.17        23.74659
498.61        24.01899
499.05        24.01015
499.49        23.93922
499.93        23.88219
500.37        23.89275
500.82         23.9779
501.26        24.14035
501.70        24.38949
502.14        24.22799
502.58        24.51618
503.02        24.60286
503.46         24.6389
503.90        24.65621
504.34        24.65096
504.78         24.6991
505.22        24.79663
505.66        24.87936
506.10        24.94679
506.54        25.06549
506.98        25.23787
507.42        25.32446
507.86        25.49979
508.30        25.56796
508.74         25.5828
509.18        25.54733
509.62        25.50256
510.06        25.51271
510.50        25.59005
510.94        25.71708
511.38        25.85221
511.82        25.92816
512.26        25.92801
512.70        25.87471
513.14        25.80372
513.58        25.76097
514.02        25.76257
514.46         25.8143
514.90        25.89836
515.34        25.89508
515.78        25.94322
516.22        25.93019
516.66        25.92492
517.10        25.96082
517.54        26.04204
517.98        26.15172
518.42        26.24444
518.86        26.25339
519.30        26.16812
519.74        26.01555
520.18        25.84991
520.62        25.75468
521.06        25.75116
521.50        25.81401
521.93        25.90899
522.37        25.96976
522.81        25.97796
523.25        25.95021
523.69        25.90021
524.13        25.84929
524.57        25.80496
525.01        25.75836
525.45        25.70468
525.89        25.63902
526.32        25.55858
526.76        25.47746
527.20        25.40248
527.64        25.34539
528.08        25.30824
528.52        25.28451
528.96         25.2684
529.40        25.25104
529.83        25.22646
530.27        25.19908
530.71        25.16111
531.15        25.10227
531.59        25.02418
532.03        24.93242
532.46        24.84074
532.90        24.78473
533.34         24.7674
533.78        24.77884
534.22        24.80496
534.66        24.82319
535.09        24.82357
535.53        24.81793
535.97        24.80361
536.41        24.78118
536.85        24.75368
537.28         24.7219
537.72        24.69685
538.16        24.69284
538.60        24.71511
539.04        24.76715
539.47        24.82984
539.91        24.88834
540.35        24.93106
540.79        24.96419
541.22        24.99914
541.66        25.05642
542.10        25.13826
542.54        25.24024
542.97        25.33798
543.41        25.40838
543.85        25.44668
544.29         25.4678
544.72        25.49855
545.16        25.59809
545.60        25.76815
546.04        25.98575
546.47        26.22393
546.91        26.43512
547.35        26.59939
547.79        26.74199
548.22        26.85487
548.66        26.91891
549.10        26.95822
549.53        27.07218
549.97        27.26241
550.41        27.43853
550.84        27.59455
551.28        27.79254
551.72        28.01104
552.15         28.1801
552.59        28.29726
553.03         28.3714
553.46        28.42905
553.90        28.53456
554.34        28.69318
554.77        28.89528
555.21        29.09682
555.65        29.22857
556.08        29.24816
556.52        29.24708
556.96        29.24974
557.39        29.33463
557.83        29.49071
558.27        29.57283
558.70        29.58156
559.14        29.62858
559.57        29.70735
560.01        29.79045
560.45         29.8575
560.88        29.86089
561.32        29.86103
561.75        29.93544
562.19        30.08417
562.63         30.2905
563.06        30.47478
563.50        30.41355
563.93        30.17385
564.37        30.12963
564.80        30.29618
565.24        30.48746
565.68        30.66153
566.11        30.82624
566.55        30.97403
566.98        31.11436
567.42        31.24646
567.85        31.31018
568.29        31.35542
568.72        31.40917
569.16        31.48749
569.60        31.69256
570.03        32.05067
570.47        32.09983
570.90        32.17922
571.34        32.92233
571.77         32.7832
572.21        32.73956
572.64        33.04348
573.08         32.8772
573.51        33.04692
573.95        33.20351
574.38        33.46564
574.82        33.33895
