SpectraSmart Spectrum 2.9.0.0
--------- Device Information -----------
Spectrum Name :  反射率_0
Saving Time :  2024/04/27 22:36:33
Spectro-Module Model Name : SE2030-DUVN
Spectro-Module Serial Number : OS361AC55029948
Wavelength Start : 200
Wavelength End : 1025
Wavelength Unit : Wavelength(nm)
Spectrum Unit : Reflectance(%)
-----------Spectrum Setting ------------
Integration Time : 20ms
Average : 10
Boxcar : 0
Background removal :  enabled
linearity correction :  enabled
SC :  disabled
Intensity correction :  disabled
DWT denoise :  enabled
savitzky-golay :  disabled
FFT :  disabled
Running average :  disabled
Kalman :  disabled
High pass :  disabled
---------------BEGIN--------------------
Wavelength(nm)             Reflectance(%)
200.29               0
200.75        20.77264
201.21        26.80747
201.67        35.45934
202.13         44.0059
202.58        52.42957
203.04         61.8903
203.50        70.56031
203.96        74.69279
204.42        74.36047
204.88        71.71604
205.34        69.21456
205.80        69.36389
206.26        72.63671
206.72        79.08459
207.18        88.79259
207.64        94.54775
208.10        90.67071
208.55        83.30589
209.01        76.14658
209.47        68.97954
209.93        58.55006
210.39        35.22862
210.85       -34.64101
211.31       -131.1668
211.77       -40.16291
212.23        27.67924
212.69        53.16308
213.14         61.8479
213.60        62.80222
214.06        59.25187
214.52         50.7361
214.98        43.86953
215.44        46.14462
215.90        51.44289
216.36        55.88203
216.81        58.57485
217.27        59.86671
217.73        60.68193
218.19        60.85739
218.65        59.66522
219.11        57.08881
219.57        53.46575
220.02        49.06129
220.48        46.27049
220.94        45.92899
221.40        47.21095
221.86        50.45207
222.32        55.98849
222.77        62.87569
223.23        70.12386
223.69        75.77065
224.15        77.74675
224.61        76.19588
225.06        71.75869
225.52        66.46222
225.98        63.98132
226.44        64.98945
226.90        67.57012
227.36         69.8237
227.81        70.19563
228.27        68.76755
228.73        65.94099
229.19        62.38641
229.65        59.58373
230.10        58.13541
230.56        57.95812
231.02        58.01934
231.48        56.97702
231.93        54.69609
232.39        51.89191
232.85        49.73377
233.31        49.85532
233.77        52.23968
234.22        56.07914
234.68        59.87974
235.14        61.80357
235.60        61.47911
236.05        59.25082
236.51        56.10512
236.97        54.40949
237.43        55.19034
237.88        57.98676
238.34        60.92665
238.80        62.00927
239.26        60.50658
239.71        55.89839
240.17         48.2386
240.63        43.66072
241.08        47.90514
241.54         56.6603
242.00        63.63957
242.46        65.96863
242.91        64.00757
243.37        56.46257
243.83          39.846
244.28         20.4383
244.74        24.11488
245.20        48.01863
245.66        67.15104
246.11        73.12133
246.57        68.98257
247.03        54.88705
247.48        31.28167
247.94         16.0886
248.40        26.82597
248.85         52.9288
249.31        77.12629
249.77        85.83767
250.22        81.96924
250.68        72.86836
251.14        64.43612
251.59        61.20511
252.05        63.38216
252.51        69.77334
252.96         77.7487
253.42        78.63573
253.88        69.00423
254.33         56.2424
254.79         47.0333
255.25        43.40345
255.70        43.67999
256.16        46.07153
256.62        49.24302
257.07        51.94394
257.53        54.02371
257.99        55.49531
258.44        56.11343
258.90        55.96544
259.35        54.98152
259.81        53.66476
260.27        52.20672
260.72        50.90425
261.18        50.08631
261.63        49.41023
262.09        48.85333
262.55        48.03172
263.00        46.89006
263.46        45.70541
263.91        44.60681
264.37        44.06789
264.83        44.02973
265.28        44.26566
265.74        44.55767
266.19        44.46875
266.65        44.00496
267.11        43.25709
267.56        42.38937
268.02        41.74869
268.47        41.37405
268.93        41.18597
269.38        41.02618
269.84        40.67927
270.30        40.09408
270.75        39.34887
271.21        38.58006
271.66        37.94631
272.12        37.50005
272.57        37.13243
273.03        36.77709
273.48          36.255
273.94        35.58545
274.39        34.81035
274.85        34.02634
275.31         33.2814
275.76         32.5861
276.22        31.95233
276.67        31.37476
277.13        30.94367
277.58        30.60433
278.04        30.37372
278.49        30.11926
278.95        29.75387
279.40        29.22009
279.86        28.62496
280.31        28.01583
280.77        27.58231
281.22        27.31454
281.68        27.18756
282.13        27.11615
282.59        27.03359
283.04        26.89167
283.50        26.72014
283.95        26.51309
284.41        26.29932
284.86        26.07395
285.32        25.85651
285.77        25.61834
286.22        25.35485
286.68        25.08772
287.13        24.79489
287.59        24.55366
288.04        24.40416
288.50        24.37585
288.95        24.41966
289.41         24.4808
289.86        24.43225
290.32        24.27146
290.77        24.02942
291.22         23.7842
291.68        23.64858
292.13        23.64021
292.59        23.73593
293.04        23.88749
293.50        24.04304
293.95        24.17825
294.40        24.32785
294.86        24.50753
295.31        24.73076
295.77        25.01038
296.22        25.31837
296.68         25.6735
297.13        26.08604
297.58        26.54977
298.04        27.04967
298.49         27.5298
298.95        27.91763
299.40        28.20281
299.85        28.41331
300.31        28.62861
300.76        28.93677
301.21        29.36817
301.67        29.89378
302.12        30.43176
302.58        30.89719
303.03        31.24846
303.48         31.5107
303.94        31.75638
304.39        32.05082
304.84        32.41882
305.30        32.84164
305.75        33.21408
306.20         33.4148
306.66        33.44508
307.11        33.32992
307.57        33.21561
308.02        33.26447
308.47        33.51621
308.93          33.897
309.38        34.26685
309.83        34.43999
310.29        34.38314
310.74         34.1515
311.19        33.82575
311.65        33.53129
312.10        33.29931
312.55        33.10101
313.00        32.94269
313.46        32.83451
313.91        32.76447
314.36        32.74278
314.82         32.7144
315.27        32.57883
315.72        32.32272
316.18        31.98044
316.63        31.62453
317.08         31.3962
317.53        31.32418
317.99        31.35818
318.44         31.4291
318.89        31.40898
319.35        31.26184
319.80         31.0301
320.25         30.7562
320.70         30.5137
321.16        30.31997
321.61        30.15351
322.06         29.9994
322.51        29.84002
322.97        29.66361
323.42        29.49536
323.87        29.31533
324.32        29.09416
324.78        28.82789
325.23        28.52661
325.68        28.23536
326.13        28.03618
326.59        27.93452
327.04        27.93032
327.49        27.94305
327.94        27.84653
328.39        27.60984
328.85        27.26119
329.30        26.89227
329.75        26.65517
330.20        26.59425
330.66          26.651
331.11        26.75363
331.56        26.73781
332.01        26.55765
332.46        26.26047
332.92        25.90987
333.37        25.64326
333.82        25.49877
334.27        25.43668
334.72        25.41967
335.17        25.38723
335.63        25.31051
336.08        25.23027
336.53        25.14048
336.98        25.03724
337.43        24.92861
337.88        24.81345
338.34        24.71642
338.79        24.68668
339.24        24.72962
339.69        24.82268
340.14        24.93162
340.59         25.0012
341.05        25.00945
341.50        24.97479
341.95        24.88734
342.40         24.7424
342.85        24.54985
343.30        24.31409
343.75        24.07893
344.20        23.91438
344.66        23.84226
345.11        23.84836
345.56        23.88722
346.01        23.87828
346.46        23.80056
346.91        23.67142
347.36        23.54445
347.81          23.501
348.26         23.5566
348.72        23.68804
349.17           23.82
349.62        23.83513
350.07        23.70817
350.52         23.4654
350.97        23.21639
351.42        23.13639
351.87        23.25307
352.32        23.50828
352.77        23.74842
353.22        23.73876
353.67        23.43995
354.13        22.94957
354.58        22.40921
355.03        22.09551
355.48        22.07899
355.93        22.27548
356.38        22.55052
356.83         22.6937
357.28        22.64561
357.73        22.47156
358.18        22.24893
358.63        22.09791
359.08        22.04406
359.53         22.0298
359.98        22.00668
360.43        21.90638
360.88        21.71635
361.33        21.48051
361.78        21.20509
362.23        20.93039
362.68        20.68537
363.13        20.39086
363.58        20.09345
364.03        20.23568
364.48        20.22205
364.93        20.48293
365.38        20.72216
365.83        20.76625
366.28         20.5699
366.73        20.19978
367.18        19.75147
367.63        19.36867
368.08        19.10666
368.53        18.92699
368.98        18.81658
369.43        18.74994
369.88        18.71008
370.33        18.71239
370.78        18.72387
371.23        18.68537
371.68        18.57852
372.13        18.40024
372.58        18.19367
373.03        18.03752
373.48        17.95449
373.93        17.93829
374.38         17.9236
374.83        17.80449
375.28        17.56791
375.72        17.23702
376.17        16.95033
376.62        16.88321
377.07         17.0547
377.52        17.38807
377.97        17.72103
378.42        17.80302
378.87        17.58442
379.32        17.15997
379.77        16.66282
380.22        16.29281
380.67        16.10784
381.11        16.04704
381.56        16.06544
382.01        16.08842
382.46        16.08344
382.91        16.07751
383.36        16.05893
383.81        16.00252
384.26        15.90676
384.71        15.77125
385.15        15.61251
385.60        15.49421
386.05        15.42277
386.50        15.39221
386.95         15.3898
387.40        15.39167
387.85        15.39096
388.29        15.38275
388.74        15.39294
389.19        15.42485
389.64        15.47224
390.09        15.51647
390.54        15.54114
390.98        15.52078
391.43        15.45857
391.88        15.37308
392.33        15.25675
392.78        15.12264
393.23        14.98934
393.67        14.79289
394.12        14.60009
394.57        14.67363
395.02        14.75687
395.47         14.7999
395.91        14.72865
396.36         14.7147
396.81        14.75879
397.26        14.75856
397.71        14.70607
398.15        14.64735
398.60        14.60328
399.05        14.50454
399.50        14.39839
399.95        14.44508
400.39        14.60439
400.84        14.64976
401.29        14.56059
401.74        14.44627
402.18        14.34384
402.63        14.29084
403.08        14.29212
403.53        14.27623
403.97        14.24687
404.42        14.27566
404.87        14.34335
405.32        14.39091
405.76        14.40505
406.21        14.36509
406.66        14.29704
407.11        14.30951
407.55        14.37243
408.00        14.32912
408.45        14.17922
408.90        13.97443
409.34        13.79091
409.79        13.80699
410.24        13.98827
410.68        14.09699
411.13        14.10918
411.58         14.1696
412.03        14.27407
412.47        14.33791
412.92        14.34501
413.37          14.327
413.81        14.28342
414.26        14.22526
414.71        14.15731
415.15        14.07775
415.60        14.01276
416.05        14.01227
416.49        14.08465
416.94        14.21103
417.39        14.34278
417.83        14.40437
418.28         14.3742
418.73        14.26969
419.17        14.13751
419.62        14.05857
420.07        14.06124
420.51        14.12891
420.96        14.21749
421.41        14.27532
421.85        14.28411
422.30         14.1951
422.74        14.08085
423.19        14.22762
423.64        14.57839
424.08        14.73628
424.53        14.62726
424.98        14.55861
425.42        14.54314
425.87        14.31131
426.31        13.96297
426.76        13.95368
427.21        14.21851
427.65        14.23782
428.10        14.03493
428.54        14.00358
428.99        14.14365
429.44        14.37152
429.88        14.56446
430.33        14.35707
430.77        13.90362
431.22        13.83084
431.66        14.13733
432.11        14.38132
432.56         14.4907
433.00        14.58773
433.45        14.54498
433.89        14.28066
434.34        14.07234
434.78        13.44489
435.23        14.08856
435.67        14.61478
436.12        14.81977
436.57        14.86763
437.01        14.67825
437.46        14.58188
437.90        14.66887
438.35        14.84363
438.79        14.61018
439.24        14.52018
439.68        14.44797
440.13         14.3638
440.57        14.27965
441.02        14.34403
441.46        14.52135
441.91        14.46343
442.35        14.24647
442.80        14.44729
443.24        14.93018
443.69        14.86618
444.13        14.32517
444.58        14.09421
445.02        14.19242
445.47        14.22731
445.91        14.16534
446.36        14.15467
446.80        14.18447
447.24         14.2092
447.69        14.23944
448.13        14.32784
448.58        14.45299
449.02        14.53041
449.47        14.55424
449.91        14.58502
450.36        14.62545
450.80        14.62905
451.25        14.61271
451.69        14.62741
452.13        14.67233
452.58        14.71644
453.02        14.74013
453.47        14.72178
453.91        14.65475
454.36        14.57465
454.80        14.47377
455.24        14.32337
455.69        14.16965
456.13        14.04107
456.58        13.97556
457.02        14.07971
457.46        14.27083
457.91        14.28524
458.35        14.19656
458.79        14.20732
459.24        14.33763
459.68        14.44768
460.13        14.51613
460.57        14.48979
461.01        14.43167
461.46         14.3677
461.90          14.262
462.34        14.21842
462.79        14.46818
463.23        14.60231
463.68        14.65762
464.12        14.66232
464.56        14.62315
465.01        14.60064
465.45        14.55829
465.89        14.43583
466.34         14.2934
466.78        14.19374
467.22        14.13471
467.67        14.41126
468.11        14.37383
468.55        14.38653
468.99        14.28623
469.44        14.26167
469.88        14.31598
470.32        14.33429
470.77        14.32062
471.21        14.32886
471.65        14.36349
472.10        14.41337
472.54        14.45536
472.98        14.47414
473.42        14.47126
473.87        14.41355
474.31        14.33829
474.75        14.43713
475.20         14.6647
475.64        14.73245
476.08        14.63458
476.52        14.64395
476.97        14.77546
477.41        14.74291
477.85         14.6786
478.29        14.79844
478.74        14.72755
479.18        14.63633
479.62        14.89025
480.06        14.93444
480.50        14.92387
480.95         14.8606
481.39        14.75515
481.83        14.94363
482.27        14.98494
482.72        14.98517
483.16        15.25313
483.60         15.3427
484.04        15.36243
484.48        15.37211
484.93        15.51524
485.37        15.46265
485.81        15.81001
486.25        16.16703
486.69         15.5445
487.14        15.18518
487.58        16.27248
488.02        16.10107
488.46        16.04757
488.90        16.40996
489.34        15.96846
489.79        15.87555
490.23        16.29911
490.67         16.5157
491.11        16.64063
491.55        16.63023
491.99        16.56079
492.43         16.6262
492.88        16.83867
493.32        17.05047
493.76        17.21852
494.20        17.39161
494.64        17.57216
495.08        17.68995
495.52        17.76185
495.96        17.97186
496.41        18.30894
496.85        18.28029
497.29        18.00576
497.73        18.15998
498.17        18.66374
498.61         18.8999
499.05        18.80165
499.49         18.7339
499.93        18.76369
500.37         18.8193
500.82        18.90931
501.26        19.09188
501.70        19.37422
502.14         19.3416
502.58        19.65657
503.02        19.76571
503.46        19.78258
503.90        19.74421
504.34        19.67402
504.78        19.67547
505.22        19.75889
505.66        19.86481
506.10        19.97012
506.54        20.09048
506.98        20.21852
507.42        20.25289
507.86        20.35807
508.30         20.4164
508.74        20.47849
509.18        20.53397
509.62        20.58254
510.06        20.62322
510.50        20.65557
510.94        20.68353
511.38         20.7127
511.82        20.75087
512.26        20.79892
512.70        20.85498
513.14        20.91311
513.58        20.95457
514.02        20.97572
514.46        20.99791
514.90        21.02881
515.34          21.007
515.78        21.05583
516.22        21.07173
516.66        21.09721
517.10         21.1394
517.54         21.1973
517.98         21.2669
518.42        21.32176
518.86        21.32312
519.30        21.26513
519.74        21.16071
520.18        21.04893
520.62        20.98964
521.06        20.99884
521.50        21.06488
521.93        21.15157
522.37        21.19014
522.81        21.16663
523.25        21.09429
523.69        21.01873
524.13         21.0123
524.57        21.08433
525.01        21.20732
525.45        21.31467
525.89        21.30326
526.32         21.1528
526.76        20.91055
527.20        20.64873
527.64        20.48421
528.08        20.44721
528.52        20.49818
528.96        20.59017
529.40        20.64897
529.83        20.64764
530.27        20.61036
530.71        20.54343
531.15        20.45592
531.59        20.35719
532.03        20.24417
532.46        20.12943
532.90        20.04904
533.34        20.00825
533.78        20.00257
534.22        20.02162
534.66        20.04558
535.09        20.06499
535.53        20.08696
535.97        20.10742
536.41        20.12388
536.85        20.13616
537.28        20.14382
537.72         20.1511
538.16        20.16315
538.60        20.18406
539.04        20.21958
539.47        20.26205
539.91        20.31178
540.35        20.36235
540.79        20.41557
541.22        20.47561
541.66        20.55031
542.10        20.63777
542.54        20.73568
542.97        20.82531
543.41        20.89018
543.85        20.92703
544.29         20.9474
544.72        20.97176
545.16        21.04733
545.60         21.1775
546.04        21.34871
546.47        21.54364
546.91        21.72904
547.35        21.88992
547.79        22.04172
548.22        22.18068
548.66        22.29697
549.10        22.40747
549.53        22.59337
549.97        22.83475
550.41        23.02222
550.84        23.14502
551.28        23.26409
551.72        23.39545
552.15        23.53569
552.59        23.69358
553.03        23.85921
553.46        24.01698
553.90        24.16244
554.34        24.28954
554.77        24.41193
555.21        24.52485
555.65        24.62206
556.08        24.67947
556.52         24.7531
556.96        24.84342
557.39        24.98316
557.83        25.15345
558.27        25.25898
558.70        25.29792
559.14         25.3249
559.57        25.35549
560.01        25.44541
560.45        25.57425
560.88        25.63036
561.32        25.66145
561.75        25.77539
562.19        25.96096
562.63        26.16652
563.06        26.31953
563.50        26.23993
563.93        25.99673
564.37        25.92922
564.80        26.05874
565.24        26.22485
565.68        26.38944
566.11        26.55571
566.55        26.71369
566.98        26.86488
567.42        27.01032
567.85         27.1092
568.29        27.19315
568.72        27.26692
569.16        27.35555
569.60        27.49918
570.03        27.69964
570.47        27.74203
570.90        27.98211
571.34        28.22521
571.77        28.27858
572.21        28.52916
572.64        28.71053
573.08        28.61595
573.51        28.86861
573.95        29.03163
574.38        29.19362
574.82        29.29335
