SpectraSmart Spectrum 2.9.0.0
--------- Device Information -----------
Spectrum Name :  反射率_0
Saving Time :  2024/04/27 22:49:04
Spectro-Module Model Name : SE2030-DUVN
Spectro-Module Serial Number : OS361AC55029948
Wavelength Start : 200
Wavelength End : 1025
Wavelength Unit : Wavelength(nm)
Spectrum Unit : Reflectance(%)
-----------Spectrum Setting ------------
Integration Time : 20ms
Average : 10
Boxcar : 0
Background removal :  enabled
linearity correction :  enabled
SC :  disabled
Intensity correction :  disabled
DWT denoise :  enabled
savitzky-golay :  disabled
FFT :  disabled
Running average :  disabled
Kalman :  disabled
High pass :  disabled
---------------BEGIN--------------------
Wavelength(nm)             Reflectance(%)
200.29               0
200.75       -84.20718
201.21       -22.67135
201.67          25.074
202.13        43.75484
202.58        43.96539
203.04        35.31839
203.50        25.01579
203.96        22.42282
204.42        28.13848
204.88        37.12294
205.34        45.78257
205.80        51.84678
206.26        55.44602
206.72        57.64627
207.18        58.48635
207.64         57.2552
208.10        54.49383
208.55        52.19667
209.01        48.62839
209.47        41.66159
209.93        27.65316
210.39       -6.255727
210.85       -108.1335
211.31       -240.0672
211.77       -99.41143
212.23       -1.403052
212.69        34.76044
213.14        47.73665
213.60        51.09283
214.06        49.78008
214.52        43.57414
214.98        37.34733
215.44        37.31374
215.90        39.09839
216.36        40.91204
216.81        42.40513
217.27        43.26744
217.73        44.40642
218.19        44.39264
218.65        40.32092
219.11        31.60561
219.57         18.5782
220.02         4.25617
220.48       -1.735332
220.94        3.324917
221.40        15.08774
221.86        28.36129
222.32        38.11221
222.77        43.88373
223.23        47.32165
223.69        48.86865
224.15        48.82914
224.61        47.62025
225.06        44.85165
225.52        42.11965
225.98        42.01924
226.44        44.41757
226.90        47.73864
227.36        50.13125
227.81        50.02707
228.27        47.58537
228.73        43.33841
229.19        38.20612
229.65        34.33418
230.10        32.67987
230.56        32.97269
231.02        34.16683
231.48        34.87949
231.93        34.73642
232.39        34.21948
232.85        33.98335
233.31        34.92378
233.77         37.0304
234.22        39.91531
234.68        42.49633
235.14        43.53337
235.60        42.82596
236.05        40.49561
236.51         37.7795
236.97        37.35075
237.43        40.13964
237.88        45.50645
238.34        50.86036
238.80        53.43029
239.26         52.4339
239.71        47.26726
240.17        38.10502
240.63        32.71587
241.08        38.21372
241.54        49.09174
242.00        58.04501
242.46        62.14315
242.91        62.30596
243.37        58.45544
243.83        48.61102
244.28        36.67458
244.74        38.30677
245.20         51.4266
245.66        61.35912
246.11        62.49569
246.57        55.80251
247.03        40.96185
247.48        16.69238
247.94       -3.868082
248.40       -3.624984
248.85        10.61063
249.31        29.02314
249.77        43.55659
250.22        52.65392
250.68        58.52232
251.14        61.76054
251.59        62.66579
252.05        61.85376
252.51        58.85229
252.96         53.5555
253.42        49.70027
253.88        49.69807
254.33        52.41807
254.79        55.82538
255.25        58.12997
255.70        59.30228
256.16        60.28561
256.62        61.26742
257.07        62.44296
257.53        63.89466
257.99        64.98864
258.44        65.30666
258.90        64.87395
259.35        63.59332
259.81        62.21262
260.27        60.75741
260.72        59.32458
261.18        58.32167
261.63        57.37727
262.09        56.81278
262.55        56.60701
263.00        56.57338
263.46        56.76341
263.91        56.77311
264.37        56.41843
264.83         55.6229
265.28        54.50826
265.74        53.35119
266.19        52.26905
266.65        51.37875
267.11        50.57771
267.56        49.81534
268.02        49.12601
268.47        48.45629
268.93        47.83013
269.38        47.22777
269.84        46.63875
270.30        46.04177
270.75        45.42596
271.21        44.74306
271.66        43.88124
272.12        42.85958
272.57        41.67842
273.03        40.51112
273.48        39.53204
273.94         38.8419
274.39        38.36206
274.85        37.98514
275.31        37.46194
275.76        36.73497
276.22        35.90873
276.67        35.11879
277.13        34.66437
277.58        34.51311
278.04        34.60535
278.49        34.64553
278.95        34.33646
279.40        33.58782
279.86        32.58946
280.31         31.5648
280.77        30.96753
281.22        30.81208
281.68        30.97731
282.13        31.18201
282.59        31.09723
283.04        30.64621
283.50        29.98546
283.95        29.28031
284.41        28.82316
284.86        28.66503
285.32        28.72229
285.77        28.86311
286.22        28.94547
286.68         28.9429
287.13        28.87129
287.59        28.80074
288.04        28.75192
288.50        28.76195
288.95        28.77181
289.41        28.78027
289.86        28.74147
290.32        28.67519
290.77        28.60104
291.22        28.54229
291.68        28.51991
292.13        28.54075
292.59        28.62009
293.04         28.7908
293.50        29.13036
293.95         29.6304
294.40        30.27198
294.86        30.98019
295.31        31.62669
295.77        32.19123
296.22        32.69612
296.68        33.20982
297.13        33.81856
297.58        34.54571
298.04        35.35041
298.49        36.18177
298.95        36.99453
299.40        37.76435
299.85        38.50458
300.31        39.24062
300.76        39.96558
301.21        40.67851
301.67        41.37414
302.12        41.99128
302.58        42.50134
303.03        42.88399
303.48        43.17659
303.94        43.46584
304.39        43.81991
304.84         44.2744
305.30        44.81118
305.75        45.33896
306.20        45.77097
306.66        46.09777
307.11        46.31209
307.57        46.49215
308.02         46.6813
308.47         46.9075
308.93        47.14989
309.38        47.33566
309.83        47.39791
310.29        47.34153
310.74        47.18815
311.19        47.00742
311.65         46.8988
312.10        46.87024
312.55        46.89658
313.00        46.95303
313.46        47.00273
313.91        47.01746
314.36        47.00997
314.82        46.95146
315.27        46.79172
315.72        46.53289
316.18        46.20482
316.63        45.85245
317.08        45.57421
317.53        45.39558
317.99        45.28458
318.44        45.22299
318.89        45.15949
319.35        45.07049
319.80        44.97123
320.25        44.84158
320.70        44.65525
321.16        44.40413
321.61        44.10132
322.06        43.77993
322.51        43.50299
322.97        43.28334
323.42        43.12606
323.87        42.99017
324.32        42.81514
324.78        42.57798
325.23        42.30062
325.68        42.02071
326.13        41.81059
326.59        41.66944
327.04        41.59971
327.49        41.51623
327.94        41.29462
328.39        40.90829
328.85        40.38457
329.30        39.84491
329.75        39.46643
330.20        39.30785
330.66        39.31202
331.11        39.39851
331.56        39.36977
332.01        39.17231
332.46        38.85796
332.92        38.50713
333.37        38.30664
333.82        38.29174
334.27        38.40087
334.72        38.54969
335.17        38.60701
335.63        38.51777
336.08        38.33953
336.53        38.10117
336.98        37.86702
337.43        37.66603
337.88        37.48376
338.34        37.30813
338.79         37.1315
339.24        36.95278
339.69        36.78722
340.14        36.65714
340.59        36.59051
341.05        36.59053
341.50        36.64939
341.95        36.72272
342.40         36.7531
342.85        36.72125
343.30        36.62909
343.75        36.51287
344.20         36.4355
344.66        36.41297
345.11        36.42632
345.56        36.41575
346.01        36.28537
346.46        36.02419
346.91         35.6686
347.36        35.32158
347.81        35.13425
348.26        35.13732
348.72         35.2914
349.17        35.47994
349.62        35.51711
350.07        35.35963
350.52        35.05615
350.97        34.73964
351.42        34.62418
351.87        34.74714
352.32        35.02839
352.77        35.30588
353.22        35.33741
353.67        35.07129
354.13        34.60071
354.58        34.04811
355.03        33.66026
355.48        33.50707
355.93        33.52435
356.38        33.59525
356.83        33.53653
357.28        33.30549
357.73        32.96498
358.18        32.62086
358.63        32.43223
359.08         32.4251
359.53        32.53048
359.98        32.63895
360.43        32.58637
360.88        32.33548
361.33        31.94506
361.78        31.48991
362.23        31.12158
362.68        30.89112
363.13        30.69621
363.58         30.4983
364.03        30.55597
364.48        30.33124
364.93        30.25139
365.38        30.14888
365.83        30.01173
366.28        29.83011
366.73        29.60782
367.18        29.36193
367.63        29.11195
368.08        28.87116
368.53        28.64352
368.98        28.42728
369.43        28.21558
369.88        28.01028
370.33        27.81525
370.78        27.64677
371.23        27.53097
371.68        27.46206
372.13        27.41682
372.58        27.36093
373.03        27.24008
373.48        27.04426
373.93        26.80552
374.38        26.53139
374.83        26.23252
375.28        25.92956
375.72        25.61339
376.17        25.37478
376.62        25.31112
377.07        25.42162
377.52        25.65396
377.97         25.8906
378.42        25.94736
378.87        25.78325
379.32        25.46295
379.77        25.06081
380.22        24.69298
380.67        24.39922
381.11        24.14376
381.56        23.93951
382.01          23.807
382.46        23.74406
382.91        23.75987
383.36        23.78569
383.81         23.7064
384.26        23.50208
384.71        23.19679
385.15        22.88274
385.60        22.74302
386.05        22.79851
386.50        22.99825
386.95        23.21857
387.40        23.26685
387.85        23.11121
388.29        22.80946
388.74        22.51358
389.19        22.38472
389.64        22.44532
390.09         22.6192
390.54        22.81069
390.98        22.86558
391.43        22.75849
391.88        22.55409
392.33        22.29013
392.78        22.05313
393.23        21.88168
393.67        21.65428
394.12        21.42767
394.57        21.53738
395.02        21.59706
395.47        21.55499
395.91        21.33966
396.36        21.25896
396.81        21.32812
397.26        21.37716
397.71        21.36815
398.15        21.32936
398.60        21.28026
399.05         21.1333
399.50        20.96038
399.95        20.99814
400.39        21.18979
400.84        21.20076
401.29        21.01434
401.74         20.8131
402.18        20.65531
402.63        20.59002
403.08        20.60256
403.53        20.55058
403.97        20.43449
404.42        20.37538
404.87        20.37304
405.32        20.38614
405.76        20.40486
406.21        20.38251
406.66        20.33949
407.11         20.4059
407.55        20.52873
408.00        20.49114
408.45        20.28217
408.90        19.96077
409.34        19.63709
409.79        19.56643
410.24        19.72439
410.68        19.81558
411.13        19.81626
411.58        19.92416
412.03        20.10125
412.47        20.17115
412.92        20.10133
413.37        19.95346
413.81        19.77267
414.26        19.64145
414.71        19.57616
415.15        19.55264
415.60        19.55508
416.05        19.56736
416.49        19.57977
416.94        19.59692
417.39        19.60183
417.83          19.567
418.28        19.48315
418.73        19.34744
419.17        19.19818
419.62        19.10382
420.07        19.08841
420.51        19.14573
420.96        19.21712
421.41        19.23137
421.85        19.17087
422.30        18.97218
422.74        18.75069
423.19        18.91367
423.64        19.38859
424.08        19.63835
424.53        19.54989
424.98        19.50236
425.42        19.50233
425.87        19.19157
426.31        18.70881
426.76        18.66625
427.21        18.98162
427.65        18.95951
428.10        18.63801
428.54        18.54796
428.99        18.69039
429.44        18.94989
429.88        19.17424
430.33        18.89308
430.77        18.31266
431.22        18.25664
431.66        18.69634
432.11         19.0306
432.56        19.15852
433.00        19.16449
433.45        18.93136
433.89        18.65288
434.34        18.60912
434.78        17.72058
435.23        18.25987
435.67         18.7883
436.12        19.07521
436.57        19.10461
437.01        18.76892
437.46        18.59782
437.90        18.70483
438.35        18.93321
438.79        18.65751
439.24        18.58974
439.68        18.56633
440.13        18.55001
440.57        18.51583
441.02        18.59043
441.46        18.72198
441.91        18.49118
442.35        18.07025
442.80        18.28039
443.24        18.96131
443.69        19.03833
444.13        18.52445
444.58        18.32392
445.02        18.44187
445.47        18.39501
445.91        18.20078
446.36        18.14177
446.80         18.2247
447.24        18.35841
447.69         18.5011
448.13        18.63552
448.58        18.71694
449.02         18.6634
449.47        18.52408
449.91        18.45982
450.36         18.4927
450.80        18.53599
451.25        18.56277
451.69        18.56067
452.13        18.51527
452.58        18.42146
453.02        18.29849
453.47         18.1845
453.91        18.09039
454.36        18.03518
454.80        17.99251
455.24        17.89998
455.69        17.79577
456.13        17.71632
456.58        17.69348
457.02        17.83904
457.46        18.04609
457.91        17.99098
458.35        17.78309
458.79        17.70418
459.24        17.78757
459.68        17.85276
460.13        17.88323
460.57        17.82721
461.01        17.75952
461.46        17.71038
461.90        17.60571
462.34        17.52418
462.79         17.7429
463.23        17.77327
463.68        17.70522
464.12         17.6402
464.56        17.60065
465.01        17.63384
465.45        17.66312
465.89        17.56595
466.34        17.40107
466.78        17.26002
467.22        17.15034
467.67        17.44627
468.11         17.3687
468.55         17.3539
468.99         17.2049
469.44        17.14953
469.88        17.19312
470.32        17.20201
470.77        17.18446
471.21        17.20872
471.65        17.27752
472.10        17.37028
472.54        17.45432
472.98        17.50595
473.42        17.52346
473.87        17.46835
474.31        17.37496
474.75        17.45854
475.20        17.66548
475.64        17.65467
476.08        17.45128
476.52        17.42682
476.97        17.60593
477.41        17.62827
477.85         17.6346
478.29        17.81826
478.74        17.71852
479.18        17.55646
479.62        17.79865
480.06        17.82393
480.50        17.82777
480.95        17.79809
481.39        17.72229
481.83        17.96105
482.27        17.97495
482.72        17.91602
483.16        18.17321
483.60        18.21508
484.04        18.17022
484.48        18.17497
484.93        18.40528
485.37        18.24357
485.81        18.51795
486.25        19.18095
486.69        19.05786
487.14        18.50999
487.58        19.45888
488.02        18.91633
488.46        18.79099
488.90        19.06672
489.34        18.83992
489.79        18.73134
490.23        19.12491
490.67        19.45434
491.11        19.83357
491.55        19.91775
491.99        19.77593
492.43        19.81055
492.88        20.04159
493.32        20.21464
493.76        20.31192
494.20        20.46113
494.64        20.67324
495.08        20.88824
495.52        21.08628
495.96        21.32524
496.41        21.60175
496.85        21.59013
497.29         21.4072
497.73        21.59066
498.17        22.06728
498.61         22.3565
499.05        22.36618
499.49         22.3168
499.93        22.27868
500.37        22.27709
500.82         22.3213
501.26        22.43829
501.70         22.6439
502.14        22.47045
502.58        22.72775
503.02        22.83109
503.46        22.92074
503.90        23.01808
504.34        23.10183
504.78        23.21246
505.22        23.33571
505.66        23.41869
506.10        23.46544
506.54        23.54844
506.98        23.67614
507.42        23.71511
507.86        23.84089
508.30        23.88878
508.74        23.91357
509.18        23.91767
509.62        23.92177
510.06        23.95458
510.50        24.02083
510.94         24.1113
511.38        24.21078
511.82        24.29519
512.26        24.35517
512.70        24.39769
513.14        24.42411
513.58        24.42797
514.02        24.41052
514.46        24.38931
514.90        24.37798
515.34        24.31298
515.78        24.33918
516.22        24.34185
516.66         24.3551
517.10        24.36055
517.54        24.35532
517.98        24.34256
518.42        24.32603
518.86        24.31619
519.30        24.31411
519.74        24.31377
520.18        24.31254
520.62        24.30607
521.06        24.29425
521.50        24.28319
521.93        24.26954
522.37        24.23879
522.81         24.1937
523.25        24.13256
523.69        24.07773
524.13        24.06538
524.57        24.09602
525.01        24.15512
525.45        24.19824
525.89        24.15463
526.32        24.01057
526.76         23.8024
527.20        23.57649
527.64        23.41078
528.08         23.3273
528.52         23.2988
528.96        23.30742
529.40        23.32373
529.83        23.33028
530.27        23.33836
530.71        23.32354
531.15        23.24762
531.59        23.10924
532.03        22.91934
532.46        22.72176
532.90        22.60281
533.34         22.5781
533.78        22.62566
534.22        22.70109
534.66        22.73384
535.09        22.70391
535.53        22.63662
535.97        22.55849
536.41        22.51561
536.85        22.51947
537.28        22.55335
537.72        22.59632
538.16        22.61322
538.60        22.59884
539.04        22.57603
539.47        22.55552
539.91        22.56485
540.35        22.60555
540.79        22.67153
541.22        22.75987
541.66        22.86793
542.10        22.98905
542.54         23.1235
542.97        23.25374
543.41        23.36606
543.85        23.45561
544.29        23.52975
544.72        23.60236
545.16        23.71377
545.60        23.86453
546.04        24.04181
546.47        24.23408
546.91        24.41751
547.35        24.58024
547.79        24.73969
548.22        24.88459
548.66        24.99114
549.10        25.07762
549.53         25.2392
549.97        25.47108
550.41        25.67379
550.84        25.83144
551.28        26.02619
551.72        26.25718
552.15        26.41284
552.59        26.47975
553.03        26.77176
553.46        26.76311
553.90        26.91373
554.34        27.06836
554.77        27.24137
555.21        27.41015
555.65        27.54991
556.08        27.63143
556.52        27.71966
556.96        27.81608
557.39        27.96356
557.83        28.14286
558.27        28.22555
558.70        28.22181
559.14        28.25361
559.57        28.32255
560.01        28.40061
560.45        28.46889
560.88        28.48316
561.32        28.50086
561.75         28.5955
562.19        28.77022
562.63        29.01274
563.06        29.24462
563.50        29.24851
563.93        29.07253
564.37         29.0523
564.80        29.20037
565.24        29.34906
565.68        29.47642
566.11        29.61318
566.55        29.75845
566.98        29.92424
567.42        30.09686
567.85        30.17883
568.29        30.22473
568.72        30.31236
569.16        30.45545
569.60        30.71121
570.03         30.9537
570.47        31.02802
570.90        31.28122
571.34        31.68257
571.77        31.74145
572.21         31.9256
572.64        32.28312
573.08        32.08957
573.51        32.21173
573.95        32.45546
574.38        32.88674
574.82        32.99283
