SpectraSmart Spectrum 2.9.0.0
--------- Device Information -----------
Spectrum Name :  反射率_0
Saving Time :  2024/04/27 22:17:51
Spectro-Module Model Name : SE2030-DUVN
Spectro-Module Serial Number : OS361AC55029948
Wavelength Start : 200
Wavelength End : 1025
Wavelength Unit : Wavelength(nm)
Spectrum Unit : Reflectance(%)
-----------Spectrum Setting ------------
Integration Time : 20ms
Average : 10
Boxcar : 0
Background removal :  enabled
linearity correction :  enabled
SC :  disabled
Intensity correction :  disabled
DWT denoise :  enabled
savitzky-golay :  disabled
FFT :  disabled
Running average :  disabled
Kalman :  disabled
High pass :  disabled
---------------BEGIN--------------------
Wavelength(nm)             Reflectance(%)
200.29               0
200.75        12.60536
201.21        54.93199
201.67        86.77538
202.13         96.5894
202.58        91.96656
203.04        80.40209
203.50        68.73674
203.96        66.53981
204.42         73.6981
204.88        84.57182
205.34        94.48313
205.80        99.90688
206.26         100.757
206.72        97.85272
207.18        90.89328
207.64         84.3871
208.10        83.56293
208.55        86.14021
209.01        87.73116
209.47        86.43783
209.93        81.08603
210.39         66.8327
210.85        22.16104
211.31       -40.93804
211.77        16.80508
212.23        59.82951
212.69        75.83975
213.14        81.21302
213.60        81.32315
214.06        78.34203
214.52         71.5423
214.98        65.03189
215.44         64.9476
215.90        67.61886
216.36        70.40194
216.81        72.46954
217.27        73.96201
217.73        75.59634
218.19        76.76842
218.65        76.14745
219.11        73.40294
219.57        68.51883
220.02        62.71955
220.48        60.42765
220.94        62.72449
221.40        67.92467
221.86        73.30151
222.32        76.19933
222.77        76.64807
223.23        75.71191
223.69        74.59196
224.15        74.50564
224.61        75.61527
225.06        77.45303
225.52        79.39516
225.98        79.73373
226.44        78.40746
226.90        76.36793
227.36        74.70411
227.81        74.16376
228.27        74.70495
228.73        75.93243
229.19        77.11691
229.65        76.85394
230.10        74.75943
230.56        71.75728
231.02        68.81355
231.48         67.2877
231.93        67.30132
232.39        68.40685
232.85        70.06031
233.31        71.63331
233.77        72.86135
234.22        73.94025
234.68        74.69955
235.14        74.91914
235.60        74.61619
236.05        73.76472
236.51        72.69455
236.97        72.29478
237.43        72.89985
237.88        74.43882
238.34        76.03886
238.80         77.0843
239.26        77.41721
239.71        77.17355
240.17         76.1214
240.63        75.16348
241.08        75.35722
241.54        75.96134
242.00        76.39931
242.46        76.16911
242.91        75.14249
243.37        72.71283
243.83        67.59566
244.28        60.30332
244.74        57.85732
245.20        62.04333
245.66        66.73746
246.11        68.63313
246.57        68.29453
247.03        66.59277
247.48        64.14692
247.94        64.87463
248.40        70.77531
248.85         78.1445
249.31         84.4063
249.77        88.13027
250.22         89.6842
250.68        90.07542
251.14        89.67773
251.59        88.67612
252.05         87.1174
252.51        84.31419
252.96        80.21806
253.42        77.54909
253.88        77.82307
254.33         80.0831
254.79        82.11406
255.25        81.69942
255.70        79.25416
256.16         76.3842
256.62        74.50401
257.07        75.12462
257.53        77.86511
257.99        80.98443
258.44        82.91328
258.90        82.88972
259.35        80.92245
259.81        78.36573
260.27        75.83695
260.72        74.10682
261.18        73.57876
261.63        73.43284
262.09        73.58339
262.55        73.46107
263.00         72.9006
263.46        72.28849
263.91        71.54561
264.37        71.00596
264.83        70.60661
265.28        70.20327
265.74        69.85079
266.19        69.32744
266.65        68.71528
267.11        68.00105
267.56        67.21307
268.02         66.5167
268.47        65.88665
268.93        65.31194
269.38        64.72181
269.84        64.05671
270.30        63.28922
270.75        62.44008
271.21        61.54399
271.66        60.58492
272.12        59.60383
272.57         58.5562
273.03        57.52185
273.48        56.51517
273.94        55.61488
274.39        54.76209
274.85        53.97415
275.31        53.13765
275.76        52.21171
276.22        51.28673
276.67        50.35809
277.13        49.57825
277.58        48.88315
278.04        48.29082
278.49        47.66922
278.95        46.99102
279.40        46.17994
279.86        45.35648
280.31        44.50597
280.77         43.7719
281.22        43.12395
281.68         42.5924
282.13        42.12338
282.59         41.7399
283.04        41.38373
283.50        41.07308
283.95        40.75357
284.41        40.41403
284.86        40.02697
285.32         39.6437
285.77        39.24341
286.22        38.85888
286.68        38.52098
287.13        38.18352
287.59        37.91649
288.04        37.72841
288.50        37.65177
288.95        37.63337
289.41        37.64115
289.86        37.55967
290.32        37.39765
290.77        37.17004
291.22        36.94379
291.68        36.80896
292.13        36.77923
292.59        36.85917
293.04        37.01501
293.50        37.22854
293.95        37.47872
294.40        37.78254
294.86        38.16787
295.31        38.66273
295.77        39.27221
296.22        39.95923
296.68        40.67218
297.13        41.30484
297.58        41.83553
298.04         42.2924
298.49        42.71749
298.95        43.21089
299.40        43.78679
299.85        44.42169
300.31        45.09953
300.76        45.74784
301.21        46.34968
301.67         46.9284
302.12        47.45214
302.58        47.93906
303.03        48.36643
303.48        48.74895
303.94        49.13136
304.39        49.51611
304.84        49.93262
305.30        50.39101
305.75        50.83638
306.20        51.24483
306.66        51.62168
307.11        51.93244
307.57        52.23743
308.02        52.54562
308.47        52.87058
308.93        53.20058
309.38        53.44979
309.83        53.53946
310.29        53.47618
310.74        53.28165
311.19        53.04397
311.65        52.89578
312.10        52.84879
312.55        52.86437
313.00        52.90665
313.46        52.91772
313.91        52.86584
314.36        52.78586
314.82        52.63914
315.27        52.35876
315.72        51.95421
316.18        51.45775
316.63        50.97747
317.08        50.71257
317.53          50.696
317.99        50.85984
318.44        51.07466
318.89        51.10785
319.35        50.89608
319.80        50.51047
320.25        50.04121
320.70         49.6446
321.16        49.36196
321.61        49.14983
322.06        48.96931
322.51        48.76578
322.97        48.51157
323.42        48.25383
323.87        47.97926
324.32        47.66859
324.78        47.32093
325.23         46.9509
325.68        46.59682
326.13        46.33813
326.59        46.17513
327.04        46.11123
327.49        46.07283
327.94        45.95148
328.39        45.71361
328.85        45.37133
329.30        44.99746
329.75        44.68031
330.20        44.45658
330.66        44.29188
331.11        44.16785
331.56        43.98712
332.01        43.73028
332.46        43.42822
332.92        43.13128
333.37        42.97556
333.82        42.97347
334.27        43.08132
334.72        43.22763
335.17        43.29815
335.63        43.24339
336.08        43.11644
336.53        42.93093
336.98        42.73328
337.43         42.5482
337.88        42.36234
338.34        42.19125
338.79        42.07545
339.24        42.01604
339.69        42.00852
340.14        42.01793
340.59         41.9813
341.05        41.88307
341.50        41.74654
341.95        41.58847
342.40         41.4481
342.85        41.33669
343.30        41.23547
343.75        41.14676
344.20        41.07497
344.66        41.02139
345.11        40.98895
345.56        40.94597
346.01        40.83818
346.46        40.65942
346.91        40.42117
347.36        40.19608
347.81        40.09366
348.26        40.13295
348.72        40.28923
349.17        40.45699
349.62        40.46931
350.07        40.29282
350.52        39.97155
350.97        39.64705
351.42         39.5473
351.87        39.70939
352.32        40.04848
352.77        40.38707
353.22        40.45685
353.67        40.20039
354.13        39.71989
354.58        39.14448
355.03        38.73429
355.48        38.56467
355.93        38.56545
356.38         38.6293
356.83        38.58721
357.28        38.39718
357.73        38.12178
358.18        37.84202
358.63        37.67667
359.08        37.64697
359.53        37.69564
359.98        37.75131
360.43        37.71146
360.88         37.5478
361.33        37.29435
361.78        36.98093
362.23        36.68568
362.68        36.43849
363.13        36.16336
363.58         35.8526
364.03        35.78936
364.48        35.49456
364.93        35.35794
365.38         35.2142
365.83        35.03406
366.28        34.80708
366.73        34.54604
367.18        34.28753
367.63        34.08067
368.08        33.93656
368.53        33.83763
368.98        33.74765
369.43        33.60715
369.88        33.40344
370.33        33.15934
370.78        32.90293
371.23        32.68164
371.68        32.50608
372.13        32.35021
372.58        32.21026
373.03        32.08055
373.48        31.95386
373.93        31.84364
374.38        31.70614
374.83        31.46863
375.28        31.13103
375.72        30.70902
376.17         30.3263
376.62        30.13272
377.07        30.14932
377.52        30.31136
377.97        30.50328
378.42        30.54466
378.87        30.38881
379.32        30.09734
379.77        29.73338
380.22        29.39091
380.67        29.10654
381.11         28.8573
381.56        28.64681
382.01        28.48568
382.46        28.37335
382.91        28.31161
383.36        28.28241
383.81        28.24937
384.26        28.19754
384.71        28.12943
385.15         28.0296
385.60        27.91432
386.05        27.77892
386.50        27.62792
386.95        27.48271
387.40        27.37808
387.85         27.3236
388.29        27.29366
388.74        27.30284
389.19        27.30874
389.64        27.29763
390.09        27.26398
390.54        27.21607
390.98        27.16426
391.43        27.12502
391.88        27.09348
392.33        27.02877
392.78        26.91857
393.23         26.7782
393.67        26.50305
394.12        26.18913
394.57        26.28141
395.02        26.32241
395.47         26.2367
395.91        25.94015
396.36        25.81818
396.81        25.89106
397.26        25.95301
397.71        25.95795
398.15        25.93487
398.60        25.90372
399.05        25.75884
399.50        25.57458
399.95        25.62116
400.39         25.8284
400.84        25.79318
401.29        25.51978
401.74        25.27249
402.18         25.1305
402.63        25.13824
403.08        25.25051
403.53        25.24661
403.97        25.11265
404.42        25.01274
404.87         24.9629
405.32        24.93743
405.76         24.9365
406.21         24.9004
406.66        24.85334
407.11        24.95445
407.55        25.13755
408.00        25.13374
408.45        24.93514
408.90        24.61969
409.34        24.31585
409.79         24.3346
410.24        24.61525
410.68        24.74085
411.13        24.67798
411.58        24.69069
412.03        24.78441
412.47        24.83328
412.92        24.81967
413.37        24.78617
413.81        24.73579
414.26         24.6929
414.71        24.65743
415.15        24.62463
415.60        24.59143
416.05        24.56935
416.49         24.5624
416.94         24.5671
417.39        24.56906
417.83         24.5467
418.28        24.48873
418.73        24.38799
419.17         24.2802
419.62        24.22682
420.07        24.24872
420.51        24.34202
420.96        24.43164
421.41        24.42845
421.85        24.31549
422.30        24.01527
422.74         23.6885
423.19        23.86811
423.64        24.46869
424.08        24.81299
424.53        24.75053
424.98        24.74058
425.42         24.7871
425.87        24.43399
426.31        23.87147
426.76        23.90122
427.21         24.4225
427.65        24.52538
428.10        24.21875
428.54        24.14096
428.99        24.29247
429.44        24.54095
429.88         24.7183
430.33        24.28301
430.77        23.50694
431.22        23.38767
431.66         23.9084
432.11        24.36636
432.56        24.63215
433.00        24.82264
433.45        24.71763
433.89        24.34479
434.34        24.09414
434.78        22.85088
435.23        23.56278
435.67        24.18093
436.12        24.44192
436.57        24.53621
437.01        24.28823
437.46        24.17074
437.90        24.31256
438.35        24.60819
438.79        24.25453
439.24         24.1588
439.68        24.11373
440.13        24.06373
440.57        23.99658
441.02        24.10468
441.46        24.32083
441.91        24.11817
442.35        23.66484
442.80        23.91158
443.24        24.66609
443.69        24.67401
444.13        23.99264
444.58        23.73065
445.02        23.90399
445.47        23.94035
445.91        23.81403
446.36        23.78009
446.80        23.83181
447.24        23.88257
447.69         23.9365
448.13        24.05548
448.58        24.20248
449.02        24.24479
449.47        24.19164
449.91        24.16645
450.36        24.18219
450.80        24.15526
451.25        24.10687
451.69        24.10662
452.13        24.15172
452.58        24.19869
453.02          24.222
453.47        24.19431
453.91        24.10752
454.36         24.0128
454.80        23.89604
455.24        23.70755
455.69        23.51455
456.13        23.35655
456.58        23.28597
457.02        23.46718
457.46        23.76029
457.91        23.73899
458.35        23.52407
458.79        23.45306
459.24        23.56412
459.68        23.62871
460.13        23.64472
460.57         23.5771
461.01        23.53151
461.46        23.53786
461.90        23.48031
462.34        23.43718
462.79        23.77124
463.23        23.83156
463.68        23.75149
464.12        23.68436
464.56        23.66577
465.01        23.75405
465.45        23.83135
465.89        23.70775
466.34        23.46265
466.78        23.23139
467.22        23.05165
467.67        23.47288
468.11        23.45542
468.55        23.56477
468.99        23.49811
469.44        23.51155
469.88        23.59664
470.32        23.58357
470.77        23.49469
471.21        23.44477
471.65        23.45278
472.10        23.49423
472.54        23.53646
472.98        23.56492
473.42        23.58193
473.87        23.53141
474.31         23.4594
474.75        23.65197
475.20        24.02895
475.64        24.11801
476.08        23.92878
476.52        23.94029
476.97        24.18322
477.41        24.17451
477.85         24.1232
478.29        24.32125
478.74        24.15241
479.18        23.91237
479.62        24.24593
480.06        24.32021
480.50        24.39805
480.95         24.4566
481.39        24.44714
481.83        24.81982
482.27        24.81759
482.72        24.65727
483.16        24.91026
483.60        24.91236
484.04        24.87077
484.48        24.93962
484.93        25.28118
485.37        25.11226
485.81        25.55832
486.25         26.1484
486.69        25.79861
487.14        25.42837
487.58        26.41926
488.02          26.382
488.46        26.44233
488.90        26.43417
489.34        26.09074
489.79        25.81583
490.23        26.52464
490.67         26.9148
491.11        27.18268
491.55         27.1875
491.99        27.02935
492.43        27.09103
492.88        27.39403
493.32        27.67042
493.76        27.86123
494.20        28.07815
494.64        28.32746
495.08        28.48284
495.52        28.57614
495.96        28.90754
496.41        29.41559
496.85         29.4111
497.29        29.03911
497.73        29.18354
498.17        29.77408
498.61        30.17378
499.05        30.25702
499.49        30.25606
499.93        30.25982
500.37        30.35438
500.82        30.53522
501.26        30.77904
501.70        31.09409
502.14        30.85632
502.58        31.17749
503.02        31.25458
503.46        31.28753
503.90        31.30787
504.34        31.31039
504.78         31.3886
505.22        31.53486
505.66        31.67412
506.10        31.78686
506.54         31.9273
506.98        32.09519
507.42        32.11789
507.86        32.25956
508.30        32.34191
508.74        32.44454
509.18        32.55075
509.62         32.6493
510.06        32.71807
510.50        32.75173
510.94        32.76276
511.38        32.76691
511.82        32.78972
512.26        32.83845
512.70        32.89951
513.14        32.96451
513.58        33.02384
514.02        33.07423
514.46        33.07664
514.90        33.15565
515.34         33.0938
515.78        33.12066
516.22        33.07894
516.66        33.05283
517.10        33.07933
517.54        33.16176
517.98        33.28439
518.42        33.39878
518.86        33.43156
519.30        33.36782
519.74        33.23408
520.18        33.07748
520.62        32.97157
521.06        32.93794
521.50        32.95601
521.93        33.00372
522.37        33.03434
522.81        33.03544
523.25        33.01757
523.69        32.98882
524.13        32.96037
524.57        32.93515
525.01         32.9076
525.45        32.86717
525.89        32.80022
526.32        32.70273
526.76        32.59007
527.20        32.48143
527.64        32.41018
528.08        32.38186
528.52        32.38373
528.96        32.39164
529.40        32.36775
529.83        32.29928
530.27        32.20105
530.71        32.08444
531.15         31.9702
531.59        31.86768
532.03        31.77455
532.46        31.68571
532.90        31.60782
533.34        31.53869
533.78        31.48018
534.22         31.4396
534.66        31.42579
535.09        31.43315
535.53        31.46329
535.97        31.49299
536.41        31.49269
536.85        31.45783
537.28        31.40036
537.72        31.34371
538.16        31.32114
538.60        31.34496
539.04        31.41366
539.47        31.50444
539.91        31.60093
540.35        31.68832
540.79        31.77681
541.22        31.87135
541.66        31.98196
542.10        32.10765
542.54        32.24352
542.97        32.37476
543.41        32.49876
543.85        32.61138
544.29        32.72134
544.72        32.83535
545.16        32.98475
545.60        33.16511
546.04        33.36288
546.47        33.57436
546.91        33.78949
547.35        33.99617
547.79        34.21246
548.22        34.40697
548.66        34.51975
549.10        34.57271
549.53        34.70326
549.97         34.9267
550.41        35.14643
550.84        35.35961
551.28        35.63766
551.72        35.94088
552.15        36.16195
552.59         36.2944
553.03        36.35794
553.46        36.40052
553.90        36.52297
554.34        36.73592
554.77        37.02402
555.21        37.32145
555.65        37.50568
556.08        37.54578
556.52        37.53989
556.96        37.53482
557.39        37.63962
557.83        37.84411
558.27        37.96249
558.70        37.98702
559.14         38.0485
559.57         38.1348
560.01        38.21278
560.45        38.27755
560.88        38.28478
561.32        38.31153
561.75        38.49234
562.19        38.78875
562.63        39.01735
563.06        39.11497
563.50        39.03916
563.93        38.86306
564.37         38.8495
564.80        39.01389
565.24        39.24091
565.68        39.47946
566.11          39.691
566.55        39.86531
566.98        40.02217
567.42        40.17019
567.85        40.24664
568.29        40.31417
568.72        40.41181
569.16        40.55189
569.60        40.76791
570.03        41.07493
570.47        41.06274
570.90         41.2415
571.34        41.75274
571.77        41.88937
572.21        41.93759
572.64         42.3724
573.08        42.30974
573.51        42.33347
573.95        42.52732
574.38        42.86777
574.82        43.02925
