SpectraSmart Spectrum 2.9.0.0
--------- Device Information -----------
Spectrum Name :  反射率_0
Saving Time :  2024/04/27 23:02:58
Spectro-Module Model Name : SE2030-DUVN
Spectro-Module Serial Number : OS361AC55029948
Wavelength Start : 200
Wavelength End : 1025
Wavelength Unit : Wavelength(nm)
Spectrum Unit : Reflectance(%)
-----------Spectrum Setting ------------
Integration Time : 20ms
Average : 10
Boxcar : 0
Background removal :  enabled
linearity correction :  enabled
SC :  disabled
Intensity correction :  disabled
DWT denoise :  enabled
savitzky-golay :  disabled
FFT :  disabled
Running average :  disabled
Kalman :  disabled
High pass :  disabled
---------------BEGIN--------------------
Wavelength(nm)             Reflectance(%)
200.29               0
200.75        183.7489
201.21        177.4396
201.67        164.7404
202.13         152.044
202.58         139.209
203.04         126.202
203.50        115.3142
203.96        111.4018
204.42        114.1552
204.88        120.2889
205.34        126.9088
205.80        131.9366
206.26        135.5741
206.72        139.2025
207.18        142.4911
207.64        142.2421
208.10        137.8323
208.55        132.3146
209.01         128.417
209.47        126.3873
209.93        125.4971
210.39        126.1007
210.85        131.5825
211.31        146.3933
211.77        144.3763
212.23        138.2579
212.69        136.2691
213.14        138.1992
213.60        143.1209
214.06         152.527
214.52        167.1533
214.98         174.754
215.44        165.1389
215.90         150.632
216.36        139.8217
216.81        134.4509
217.27        133.0423
217.73        133.8358
218.19        135.7115
218.65        137.0088
219.11        137.3348
219.57        137.3645
220.02        138.2245
220.48         142.286
220.94        149.1534
221.40        156.7581
221.86         162.984
222.32        166.4545
222.77        167.3442
223.23        166.8033
223.69        166.0551
224.15        166.6425
224.61        168.7226
225.06        171.9267
225.52        175.0692
225.98        175.3279
226.44        172.8857
226.90        169.6763
227.36        167.4063
227.81         167.179
228.27        169.3784
228.73        173.2626
229.19        178.3165
229.65        183.1496
230.10        186.6052
230.56        188.8965
231.02        190.0989
231.48        190.6155
231.93        190.5062
232.39        190.1528
232.85        189.0735
233.31        186.9615
233.77        184.0157
234.22        180.4127
234.68        177.3937
235.14         176.235
235.60        177.1127
236.05        180.0853
236.51        183.4059
236.97        183.7206
237.43        179.7991
237.88        172.6488
238.34         165.026
238.80        160.8393
239.26        160.8952
239.71         166.211
240.17        174.7362
240.63        175.9891
241.08         163.535
241.54        146.2667
242.00        133.6638
242.46        128.1058
242.91        128.0271
243.37        133.0097
243.83        146.6355
244.28        167.4466
244.74        173.9915
245.20        163.1257
245.66        150.0639
246.11        142.5904
246.57        138.9207
247.03         135.134
247.48        131.5135
247.94        131.3438
248.40        136.8268
248.85        146.5903
249.31        153.7878
249.77        151.8563
250.22        143.7197
250.68        133.9292
251.14        126.5928
251.59        125.5456
252.05        131.1745
252.51        143.2005
252.96        160.4504
253.42          172.27
253.88        170.5342
254.33         160.473
254.79        150.6093
255.25        144.3372
255.70        140.8452
256.16        139.5893
256.62        139.6945
257.07        140.5381
257.53        142.4658
257.99        144.5734
258.44        146.1686
258.90        147.7782
259.35        148.6203
259.81        149.6319
260.27        150.2284
260.72        149.8956
261.18        149.4554
261.63        148.3507
262.09        147.6309
262.55        147.4309
263.00        147.4634
263.46        147.9403
263.91        147.9997
264.37        147.3824
264.83         145.942
265.28        143.8918
265.74        141.9827
266.19        140.4652
266.65        139.6115
267.11        139.0838
267.56        138.6334
268.02        138.1007
268.47         137.293
268.93        136.3495
269.38        135.2164
269.84        133.9188
270.30        132.4629
270.75        130.8364
271.21        129.1424
271.66        127.4194
272.12        125.7522
272.57         124.046
273.03        122.4174
273.48        120.8393
273.94        119.4251
274.39        118.0509
274.85         116.728
275.31        115.1753
275.76        113.3223
276.22        111.4151
276.67        109.4854
277.13        107.9338
277.58        106.6397
278.04        105.6025
278.49        104.5657
278.95        103.4945
279.40        102.2002
279.86        100.8823
280.31        99.39185
280.77        97.83965
281.22        96.14964
281.68         94.4908
282.13        92.86297
282.59        91.52678
283.04        90.38048
283.50        89.43009
283.95        88.50863
284.41        87.54153
284.86         86.4411
285.32        85.34735
285.77        84.20236
286.22        83.07109
286.68         82.0015
287.13         80.8959
287.59        79.88949
288.04         79.0232
288.50        78.36265
288.95        77.80746
289.41        77.28855
289.86        76.56104
290.32        75.65129
290.77        74.59323
291.22        73.53941
291.68        72.69376
292.13        72.06994
292.59        71.64194
293.04        71.31924
293.50        71.03269
293.95        70.72221
294.40        70.42163
294.86        70.15196
295.31        69.91655
295.77        69.73089
296.22        69.56804
296.68        69.41302
297.13        69.21579
297.58        68.98654
298.04        68.76391
298.49        68.57529
298.95        68.51968
299.40        68.57609
299.85        68.71136
300.31        68.89438
300.76        69.02825
301.21        69.09412
301.67        69.13644
302.12        69.08763
302.58        68.95141
303.03        68.69749
303.48        68.36627
303.94        68.08475
304.39        67.95193
304.84        68.01595
305.30        68.25199
305.75        68.49729
306.20        68.58979
306.66         68.5084
307.11        68.25488
307.57        67.97996
308.02        67.81506
308.47        67.81237
308.93        67.92812
309.38         68.0046
309.83        67.87163
310.29        67.51466
310.74        66.98259
311.19        66.42667
311.65        66.07387
312.10        65.95546
312.55        66.00195
313.00        66.10551
313.46        66.10146
313.91        65.92823
314.36        65.64598
314.82        65.29023
315.27        64.91595
315.72         64.5532
316.18        64.19162
316.63        63.83797
317.08        63.53713
317.53        63.29417
317.99        63.09939
318.44        62.93132
318.89        62.72732
319.35        62.47283
319.80        62.19065
320.25        61.89954
320.70        61.63887
321.16        61.41152
321.61        61.21156
322.06        61.03266
322.51        60.87286
322.97        60.71605
323.42        60.58401
323.87        60.44007
324.32        60.23742
324.78        59.96164
325.23         59.6435
325.68        59.32266
326.13        59.08262
326.59        58.92616
327.04        58.86001
327.49        58.82069
327.94        58.72004
328.39         58.5321
328.85        58.26759
329.30        57.99303
329.75        57.75867
330.20        57.59192
330.66        57.45866
331.11        57.38099
331.56        57.31725
332.01        57.25883
332.46        57.21959
332.92        57.17957
333.37        57.17638
333.82        57.18591
334.27        57.19085
334.72        57.20084
335.17        57.23827
335.63         57.2879
336.08         57.3758
336.53         57.4341
336.98        57.37444
337.43        57.18977
337.88        56.91558
338.34        56.64506
338.79        56.55232
339.24        56.66915
339.69         56.9413
340.14        57.27443
340.59        57.51217
341.05         57.6034
341.50        57.59923
341.95        57.52601
342.40        57.43958
342.85        57.36607
343.30        57.28182
343.75        57.21278
344.20        57.20462
344.66        57.26791
345.11        57.39885
345.56        57.54333
346.01         57.6032
346.46        57.56109
346.91        57.44255
347.36        57.32618
347.81        57.33578
348.26        57.48918
348.72        57.73812
349.17        57.98735
349.62        58.09491
350.07        58.02157
350.52        57.80957
350.97        57.53391
351.42         57.3141
351.87        57.18864
352.32         57.1298
352.77        57.08375
353.22        56.96899
353.67        56.76726
354.13        56.51643
354.58        56.25522
355.03        56.09601
355.48        56.05618
355.93        56.09976
356.38        56.12587
356.83        55.98172
357.28        55.64005
357.73        55.15296
358.18         54.6378
358.63        54.27453
359.08        54.10454
359.53         54.0746
359.98        54.07779
360.43        53.94745
360.88        53.64022
361.33        53.19958
361.78        52.72033
362.23        52.37474
362.68        52.20632
363.13        52.12757
363.58        52.01492
364.03        51.89813
364.48        51.38622
364.93        50.82272
365.38        50.24777
365.83        49.89709
366.28        49.81005
366.73        49.91514
367.18        50.04282
367.63        49.91467
368.08        49.46968
368.53        48.79652
368.98        48.06733
369.43        47.55772
369.88         47.3415
370.33        47.33706
370.78        47.40302
371.23         47.3106
371.68        46.99485
372.13        46.52613
372.58        46.02137
373.03        45.66667
373.48         45.5113
373.93        45.49279
374.38        45.50169
374.83        45.37104
375.28        45.06428
375.72        44.63021
376.17        44.19767
376.62        43.91346
377.07        43.80767
377.52         43.8114
377.97         43.8399
378.42        43.76632
378.87         43.5561
379.32        43.26217
379.77        42.91418
380.22         42.5504
380.67        42.19438
381.11        41.83764
381.56        41.51683
382.01         41.2984
382.46        41.19563
382.91        41.19463
383.36        41.23346
383.81        41.20988
384.26        41.09502
384.71        40.90795
385.15        40.68574
385.60        40.53275
386.05        40.45494
386.50        40.42455
386.95        40.39023
387.40        40.27609
387.85        40.07598
388.29        39.80424
388.74        39.56228
389.19        39.39786
389.64        39.31507
390.09        39.27251
390.54        39.24231
390.98        39.17493
391.43        39.08007
391.88        38.97599
392.33        38.82893
392.78        38.65254
393.23         38.4756
393.67        38.13457
394.12        37.74829
394.57         37.9409
395.02        38.04765
395.47        37.96205
395.91        37.57418
396.36        37.46138
396.81        37.65358
397.26        37.84355
397.71        37.93489
398.15        37.93122
398.60        37.86015
399.05        37.58195
399.50        37.24616
399.95         37.3039
400.39        37.66491
400.84        37.72957
401.29        37.45827
401.74        37.16091
402.18        36.93357
402.63        36.85794
403.08         36.9197
403.53        36.88139
403.97        36.74084
404.42        36.71215
404.87        36.75618
405.32        36.73814
405.76         36.6423
406.21        36.41876
406.66        36.17244
407.11        36.24124
407.55        36.55293
408.00         36.6795
408.45        36.55219
408.90        36.18642
409.34        35.73995
409.79        35.70442
410.24        36.01212
410.68        36.08398
411.13        35.89069
411.58        35.80703
412.03        35.86177
412.47         35.9125
412.92        35.93996
413.37        35.99263
413.81        36.03719
414.26        36.05011
414.71        36.01806
415.15        35.95155
415.60        35.86101
416.05        35.79832
416.49         35.7808
416.94        35.78741
417.39         35.8015
417.83        35.79838
418.28        35.76082
418.73        35.68323
419.17        35.58542
419.62        35.50233
420.07        35.45741
420.51        35.45691
420.96        35.45369
421.41        35.41337
421.85        35.32458
422.30        35.04268
422.74        34.71815
423.19        35.01115
423.64        35.77246
424.08        36.03788
424.53        35.69066
424.98        35.55324
425.42        35.66753
425.87        35.32681
426.31        34.70983
426.76        34.82664
427.21        35.50824
427.65        35.48504
428.10        34.85273
428.54        34.70148
428.99        35.06176
429.44        35.51495
429.88        35.81847
430.33        35.54527
430.77         34.8715
431.22        34.53265
431.66        34.62014
432.11        34.95764
432.56        35.43294
433.00        35.68883
433.45        35.46809
433.89         35.1256
434.34        34.98535
434.78        33.97292
435.23        34.28685
435.67        35.09722
436.12        35.46656
436.57        35.58981
437.01        35.19059
437.46        34.95864
437.90        35.10778
438.35        35.53808
438.79        35.09973
439.24        35.04797
439.68        35.06754
440.13        35.08779
440.57        35.07407
441.02        35.23763
441.46        35.46579
441.91        35.12806
442.35        34.45427
442.80        34.56219
443.24        35.28289
443.69        35.38771
444.13        34.86255
444.58        34.65341
445.02        34.75293
445.47        34.66964
445.91        34.42453
446.36        34.31604
446.80        34.35336
447.24        34.42798
447.69        34.51878
448.13        34.66936
448.58        34.82176
449.02        34.79507
449.47        34.64257
449.91        34.60124
450.36         34.6983
450.80        34.78811
451.25        34.85288
451.69        34.91856
452.13        34.96498
452.58        34.95337
453.02        34.88887
453.47         34.7974
453.91        34.68765
454.36        34.61472
454.80        34.53314
455.24        34.32944
455.69        34.08572
456.13        33.86869
456.58         33.7731
457.02        34.06602
457.46        34.54797
457.91        34.58944
458.35        34.32965
458.79        34.21523
459.24        34.29929
459.68        34.26793
460.13        34.16201
460.57        34.01684
461.01        34.00131
461.46        34.10338
461.90        34.10277
462.34        34.19838
462.79        34.62973
463.23        34.68944
463.68        34.52348
464.12        34.41063
464.56        34.41368
465.01        34.59249
465.45        34.76951
465.89        34.65124
466.34        34.34568
466.78        34.06152
467.22        33.83271
467.67        34.42798
468.11        34.32018
468.55        34.35371
468.99        34.13663
469.44         34.1204
469.88        34.30866
470.32        34.42983
470.77        34.46728
471.21        34.50774
471.65        34.55023
472.10         34.5785
472.54        34.56582
472.98        34.52849
473.42         34.4833
473.87        34.33725
474.31        34.15514
474.75        34.34558
475.20        34.79441
475.64        34.83331
476.08         34.4917
476.52        34.45671
476.97        34.76569
477.41        34.74816
477.85        34.71964
478.29        34.93171
478.74        34.79719
479.18         34.4901
479.62        34.98635
480.06         35.0071
480.50        34.93166
480.95        34.75739
481.39        34.49134
481.83        34.87465
482.27        34.87992
482.72        34.76695
483.16        35.27987
483.60        35.38903
484.04        35.35515
484.48        35.37415
484.93        35.70035
485.37        35.37506
485.81        35.84761
486.25        36.56028
486.69        36.02864
487.14        35.40787
487.58        36.05507
488.02        36.29344
488.46        36.25208
488.90        36.66302
489.34        35.95033
489.79        35.40014
490.23        36.13787
490.67         36.5491
491.11        36.92587
491.55        36.91731
491.99        36.63321
492.43        36.63028
492.88        36.92989
493.32        37.14597
493.76        37.22675
494.20        37.37381
494.64        37.60529
495.08        37.74752
495.52        37.81992
495.96        38.17637
496.41        38.71564
496.85        38.58993
497.29        37.99891
497.73        38.10995
498.17        38.80933
498.61        39.19764
499.05        39.13351
499.49        39.01239
499.93        38.95465
500.37          39.024
500.82        39.19548
501.26        39.43217
501.70         39.7383
502.14        39.32083
502.58        39.62076
503.02        39.64861
503.46        39.66636
503.90        39.70519
504.34         39.7344
504.78        39.82886
505.22        39.95856
505.66        40.06171
506.10        40.14883
506.54        40.25701
506.98        40.37566
507.42        40.62993
507.86         40.7021
508.30        40.79297
508.74        40.80997
509.18        40.76738
509.62        40.70568
510.06        40.69663
510.50         40.7605
510.94        40.87921
511.38         41.0083
511.82        41.07381
512.26        41.05927
512.70        40.98913
513.14        40.91783
513.58        40.91643
514.02        41.00072
514.46        41.17407
514.90        41.38678
515.34        41.41318
515.78        41.46946
516.22        41.39001
516.66         41.3007
517.10         41.2816
517.54        41.35372
517.98        41.48564
518.42        41.62171
518.86        41.68061
519.30        41.64177
519.74        41.53394
520.18        41.40554
520.62        41.32964
521.06          41.326
521.50        41.37305
521.93        41.43729
522.37        41.45392
522.81        41.41204
523.25        41.33204
523.69        41.24603
524.13        41.20268
524.57        41.21136
525.01        41.25105
525.45        41.29321
525.89        41.29449
526.32        41.23993
526.76        41.15688
527.20        41.05809
527.64        40.96864
528.08        40.89811
528.52        40.83512
528.96        40.78698
529.40        40.76575
529.83        40.76537
530.27        40.78957
530.71         40.8043
531.15        40.75888
531.59        40.64725
532.03        40.48689
532.46        40.31815
532.90        40.22359
533.34        40.21661
533.78         40.2727
534.22         40.3539
534.66         40.4012
535.09        40.39435
535.53        40.36369
535.97        40.32073
536.41        40.29148
536.85        40.28591
537.28        40.29509
537.72        40.31913
538.16        40.35499
538.60        40.40004
539.04        40.46218
539.47        40.52296
539.91        40.57633
540.35        40.61077
540.79        40.64023
541.22        40.66251
541.66        40.67925
542.10        40.69431
542.54        40.71015
542.97        40.74354
543.41        40.84264
543.85        41.00533
544.29        41.22156
544.72        41.44706
545.16        41.63672
545.60        41.76716
546.04        41.84752
546.47        41.91574
546.91        42.03272
547.35        42.20415
547.79        42.42792
548.22        42.64649
548.66        42.75364
549.10        42.76639
549.53         42.8694
549.97        43.07535
550.41        43.25294
550.84        43.40034
551.28        43.60316
551.72        43.84114
552.15        44.03135
552.59        44.17218
553.03        44.27457
553.46        44.34945
553.90        44.44809
554.34        44.57158
554.77         44.7211
555.21        44.86996
555.65        44.97879
556.08        44.99879
556.52        45.04906
556.96         45.1259
557.39        45.28822
557.83         45.5014
558.27        45.55669
558.70        45.48597
559.14        45.51019
559.57        45.62956
560.01        45.78748
560.45        45.91845
560.88        45.88578
561.32        45.77477
561.75        45.76222
562.19         45.8917
562.63        46.11562
563.06        46.36369
563.50        46.45754
563.93        46.39997
564.37        46.44115
564.80         46.5726
565.24        46.67154
565.68        46.74121
566.11        46.82663
566.55        46.95027
566.98        47.15259
567.42         47.3978
567.85        47.47546
568.29        47.45931
568.72        47.52003
569.16        47.68133
569.60        47.90985
570.03        48.22169
570.47        48.19044
570.90        48.39769
571.34        48.90689
571.77        48.86867
572.21        48.82479
572.64        49.20754
573.08        48.87503
573.51        49.16061
573.95        49.35254
574.38        49.70335
574.82         49.7422
