SpectraSmart Spectrum 2.9.0.0
--------- Device Information -----------
Spectrum Name :  反射率_0
Saving Time :  2024/04/27 22:14:38
Spectro-Module Model Name : SE2030-DUVN
Spectro-Module Serial Number : OS361AC55029948
Wavelength Start : 200
Wavelength End : 1025
Wavelength Unit : Wavelength(nm)
Spectrum Unit : Reflectance(%)
-----------Spectrum Setting ------------
Integration Time : 20ms
Average : 10
Boxcar : 0
Background removal :  enabled
linearity correction :  enabled
SC :  disabled
Intensity correction :  disabled
DWT denoise :  enabled
savitzky-golay :  disabled
FFT :  disabled
Running average :  disabled
Kalman :  disabled
High pass :  disabled
---------------BEGIN--------------------
Wavelength(nm)             Reflectance(%)
200.29               0
200.75       -22.59885
201.21       -13.38951
201.67       -1.976862
202.13        7.555212
202.58        15.97064
203.04        24.60378
203.50        33.63563
203.96        41.59896
204.42         47.5146
204.88        51.71693
205.34        54.52524
205.80        56.71869
206.26        58.60465
206.72        59.67328
207.18        59.40685
207.64        56.65459
208.10        52.76571
208.55        51.18922
209.01        48.67352
209.47         42.1571
209.93        28.01403
210.39       -8.066998
210.85       -114.1199
211.31       -229.4182
211.77       -66.45538
212.23        33.26505
212.69          65.944
213.14        72.36224
213.60        64.64713
214.06        43.00925
214.52        3.325511
214.98       -27.97213
215.44       -18.93243
215.90        6.383463
216.36        28.11969
216.81        40.09329
217.27        44.85192
217.73         46.7093
218.19        46.12293
218.65        42.69338
219.11        36.71728
219.57        27.85852
220.02        17.49842
220.48        11.74915
220.94        12.80416
221.40        18.63153
221.86        27.34659
222.32        36.91595
222.77        46.14746
223.23        54.59398
223.69        60.86911
224.15        63.52929
224.61        62.85725
225.06        59.33831
225.52        54.51158
225.98        51.28547
226.44          50.625
226.90        51.34715
227.36        52.20746
227.81        52.07738
228.27        50.85849
228.73        48.82816
229.19        46.32604
229.65        44.13147
230.10        42.62872
230.56        41.96705
231.02        41.52521
231.48        40.56539
231.93        38.96922
232.39        37.04057
232.85        35.68831
233.31        36.17925
233.77        38.46067
234.22        42.03786
234.68        45.31035
235.14        46.26624
235.60        44.55217
236.05         40.3796
236.51         35.4816
236.97         33.8544
237.43         37.0003
237.88        43.93229
238.34        51.14809
238.80        54.66427
239.26        53.31454
239.71        46.33369
240.17        33.78167
240.63        25.76174
241.08        31.90858
241.54        45.39715
242.00        56.53192
242.46        61.02888
242.91        59.73029
243.37        52.08946
243.83        34.08381
244.28        10.98519
244.74        10.31502
245.20        30.90965
245.66        49.17224
246.11        55.91329
246.57        53.71869
247.03        44.79416
247.48         27.6175
247.94        9.337508
248.40        2.638194
248.85        4.525062
249.31        13.11091
249.77        26.62983
250.22        41.16124
250.68        54.96259
251.14        65.12649
251.59        69.26206
252.05        67.98946
252.51        61.14351
252.96        49.19411
253.42        40.47471
253.88        40.45301
254.33        45.73104
254.79        50.68356
255.25        51.16028
255.70         48.1152
256.16         44.2965
256.62        41.59035
257.07         41.8575
257.53        44.59736
257.99        47.92114
258.44        50.52822
258.90        51.70093
259.35        51.38571
259.81        50.45629
260.27        49.24127
260.72        48.11518
261.18        47.43145
261.63        46.82469
262.09        46.28075
262.55        45.46481
263.00        44.33768
263.46         43.1689
263.91        42.10627
264.37        41.62914
264.83        41.66726
265.28        41.97753
265.74         42.3145
266.19        42.21282
266.65        41.67905
267.11        40.83861
267.56        39.85111
268.02        39.05608
268.47        38.50712
268.93        38.11663
269.38         37.8125
269.84        37.51143
270.30        37.16259
270.75        36.79088
271.21        36.36554
271.66        35.78735
272.12        35.07457
272.57          34.229
273.03        33.35468
273.48        32.54245
273.94         31.8764
274.39        31.29901
274.85        30.83107
275.31        30.42203
275.76        30.02977
276.22        29.68478
276.67        29.32351
277.13        28.94395
277.58        28.49684
278.04          28.027
278.49        27.50739
278.95        27.00389
279.40        26.49251
279.86        26.03625
280.31        25.60472
280.77        25.25949
281.22        24.97595
281.68        24.77803
282.13        24.65166
282.59        24.61928
283.04         24.6471
283.50        24.71652
283.95        24.77137
284.41        24.76407
284.86        24.66402
285.32        24.50882
285.77        24.29058
286.22        24.03095
286.68        23.76588
287.13        23.47544
287.59        23.23122
288.04        23.06834
288.50        23.02033
288.95        23.04465
289.41        23.11951
289.86        23.16551
290.32        23.17848
290.77        23.16952
291.22         23.1535
291.68         23.1504
292.13        23.16195
292.59        23.19231
293.04        23.25752
293.50        23.40772
293.95        23.64168
294.40        23.96208
294.86        24.32806
295.31        24.66436
295.77        24.96376
296.22        25.23074
296.68        25.53116
297.13        25.94702
297.58        26.49067
298.04        27.12041
298.49        27.74439
298.95        28.24081
299.40          28.583
299.85        28.80741
300.31        29.01303
300.76        29.31982
301.21        29.75988
301.67        30.28861
302.12        30.79383
302.58        31.14601
303.03        31.30783
303.48         31.3416
303.94        31.35923
304.39        31.48057
304.84        31.74884
305.30        32.12537
305.75        32.50864
306.20        32.78294
306.66        32.93042
307.11        32.95791
307.57        32.96073
308.02        33.02387
308.47        33.17531
308.93        33.37439
309.38        33.51839
309.83        33.47814
310.29        33.24722
310.74         32.8725
311.19        32.46025
311.65        32.17345
312.10        32.04099
312.55        32.01833
313.00        32.05679
313.46        32.07927
313.91        32.05032
314.36        31.99751
314.82         31.8972
315.27        31.70706
315.72        31.43052
316.18        31.08125
316.63        30.71888
317.08        30.46483
317.53        30.34264
317.99        30.31704
318.44        30.32015
318.89        30.22125
319.35        29.98959
319.80        29.66992
320.25        29.32277
320.70        29.05045
321.16        28.87522
321.61        28.76688
322.06        28.68667
322.51        28.57763
322.97        28.41479
323.42        28.22813
323.87        28.01468
324.32        27.77523
324.78        27.51387
325.23        27.23168
325.68        26.95116
326.13        26.71887
326.59        26.53275
327.04        26.40179
327.49        26.28045
327.94        26.09755
328.39        25.83578
328.85        25.51334
329.30        25.17544
329.75        24.89572
330.20        24.70208
330.66        24.56354
331.11        24.47109
331.56        24.36296
332.01        24.21947
332.46        24.05897
332.92        23.88892
333.37        23.74354
333.82        23.62804
334.27        23.53049
334.72        23.45135
335.17        23.39572
335.63        23.35329
336.08        23.33347
336.53        23.31089
336.98        23.25366
337.43        23.15613
337.88        23.03108
338.34        22.89437
338.79        22.77495
339.24        22.68648
339.69        22.62261
340.14        22.58702
340.59          22.586
341.05         22.6124
341.50         22.6614
341.95        22.70364
342.40        22.70184
342.85         22.6431
343.30        22.53255
343.75        22.38262
344.20        22.21494
344.66        22.05054
345.11        21.89748
345.56        21.75787
346.01        21.63104
346.46          21.519
346.91         21.4134
347.36        21.35811
347.81        21.41463
348.26        21.58226
348.72        21.84513
349.17        22.08314
349.62        22.10654
350.07        21.88246
350.52        21.45598
350.97        21.01474
351.42        20.86277
351.87        21.05442
352.32        21.49242
352.77        21.94111
353.22        22.03712
353.67        21.70891
354.13         21.0916
354.58        20.39129
355.03        19.98768
355.48         19.9802
355.93        20.25509
356.38        20.62496
356.83        20.79777
357.28        20.70093
357.73        20.43545
358.18        20.13776
358.63         20.0143
359.08        20.10756
359.53        20.32479
359.98        20.56133
360.43        20.66606
360.88        20.59462
361.33        20.40059
361.78        20.12086
362.23        19.84772
362.68        19.62466
363.13        19.36454
363.58        19.06741
364.03        19.10798
364.48        18.88487
364.93         18.8738
365.38        18.87809
365.83         18.8784
366.28        18.85486
366.73        18.81917
367.18        18.75517
367.63        18.62542
368.08        18.43363
368.53        18.19183
368.98        17.95401
369.43        17.80888
369.88        17.77528
370.33        17.82679
370.78        17.90708
371.23        17.92298
371.68        17.84164
372.13        17.68114
372.58        17.47671
373.03        17.28663
373.48         17.1364
373.93        17.02594
374.38        16.92257
374.83        16.77343
375.28        16.57723
375.72        16.34386
376.17        16.17883
376.62        16.20443
377.07        16.42369
377.52         16.7703
377.97        17.10645
378.42        17.22118
378.87        17.07103
379.32        16.73505
379.77        16.31488
380.22        15.96516
380.67        15.73719
381.11        15.58748
381.56        15.50933
382.01        15.48844
382.46        15.50888
382.91        15.58185
383.36        15.65882
383.81        15.65765
384.26        15.56192
384.71        15.38446
385.15        15.17655
385.60        15.05653
386.05        15.03963
386.50        15.10029
386.95        15.18029
387.40        15.18594
387.85        15.10484
388.29        14.96793
388.74        14.85313
389.19        14.83513
389.64         14.9204
390.09        15.06099
390.54        15.21208
390.98        15.30223
391.43        15.31149
391.88         15.2677
392.33        15.15673
392.78        14.98281
393.23        14.77052
393.67         14.4642
394.12        14.15201
394.57        14.11881
395.02        14.12471
395.47        14.11969
395.91        14.02946
396.36        14.00633
396.81        14.04646
397.26        14.05498
397.71        14.02431
398.15        13.99741
398.60        13.99101
399.05        13.93401
399.50        13.86338
399.95        13.92459
400.39        14.07713
400.84        14.10267
401.29        13.99044
401.74        13.86225
402.18        13.75684
402.63        13.70592
403.08        13.70134
403.53          13.653
403.97        13.56296
404.42        13.51173
404.87        13.49673
405.32        13.48489
405.76        13.47076
406.21        13.42774
406.66        13.37478
407.11        13.40547
407.55        13.48591
408.00        13.46837
408.45        13.34638
408.90        13.15832
409.34        12.97442
409.79        12.96745
410.24        13.10561
410.68         13.1683
411.13        13.13732
411.58        13.14669
412.03        13.20769
412.47         13.2687
412.92        13.31491
413.37        13.36221
413.81        13.37953
414.26        13.33127
414.71        13.21313
415.15        13.03964
415.60        12.85525
416.05        12.74337
416.49        12.73088
416.94         12.7933
417.39        12.89065
417.83          12.959
418.28        12.97242
418.73        12.94175
419.17        12.88906
419.62        12.85351
420.07        12.85115
420.51        12.87652
420.96         12.8966
421.41        12.87906
421.85        12.81691
422.30        12.66531
422.74        12.50589
423.19        12.61493
423.64        12.94438
424.08        13.14101
424.53        13.10998
424.98        13.07903
425.42        13.04768
425.87        12.78287
426.31        12.40775
426.76        12.38383
427.21        12.66314
427.65        12.76521
428.10        12.66371
428.54         12.6465
428.99        12.70457
429.44        12.78968
429.88        12.83003
430.33        12.56592
430.77        12.14797
431.22        12.09735
431.66        12.39832
432.11         12.6411
432.56         12.7512
433.00         12.8472
433.45         12.8014
433.89        12.51458
434.34        12.23658
434.78        11.57027
435.23        12.01211
435.67        12.42465
436.12        12.64862
436.57         12.8035
437.01        12.76962
437.46        12.75136
437.90        12.80914
438.35        12.88149
438.79        12.57384
439.24        12.42255
439.68        12.33515
440.13        12.27064
440.57        12.22149
441.02        12.28691
441.46        12.42775
441.91        12.35424
442.35        12.14751
442.80        12.31644
443.24        12.74654
443.69        12.72406
444.13        12.28263
444.58        12.06131
445.02         12.0718
445.47        11.99389
445.91        11.83564
446.36        11.77698
446.80        11.81991
447.24        11.90959
447.69        12.02411
448.13        12.16259
448.58         12.2917
449.02         12.3507
449.47        12.34869
449.91        12.36078
450.36        12.39528
450.80        12.40512
451.25        12.39188
451.69        12.38138
452.13        12.37128
452.58        12.34488
453.02         12.3056
453.47        12.26378
453.91        12.22058
454.36        12.19869
454.80        12.17076
455.24        12.07932
455.69        11.95371
456.13        11.82393
456.58        11.74211
457.02        11.82916
457.46        12.01966
457.91        12.07825
458.35        12.03851
458.79         12.0307
459.24        12.06829
459.68        12.05197
460.13        11.99414
460.57        11.89462
461.01         11.8169
461.46        11.76731
461.90        11.70427
462.34        11.69149
462.79        11.91027
463.23        12.03352
463.68        12.08476
464.12        12.07879
464.56        12.02157
465.01        11.96361
465.45        11.89239
465.89        11.78816
466.34        11.70308
466.78        11.67978
467.22        11.69325
467.67        11.94681
468.11        11.89333
468.55        11.84974
468.99         11.7084
469.44        11.66728
469.88        11.73891
470.32        11.81279
470.77        11.87771
471.21        11.95387
471.65        12.03376
472.10        12.11555
472.54        12.17159
472.98        12.17559
473.42        12.13205
473.87        12.01926
474.31         11.8935
474.75        11.95438
475.20        12.17142
475.64         12.2919
476.08        12.28449
476.52        12.34083
476.97        12.46452
477.41        12.41823
477.85        12.33472
478.29        12.40412
478.74        12.32453
479.18        12.23707
479.62        12.44435
480.06        12.48013
480.50        12.47123
480.95        12.41485
481.39         12.3335
481.83        12.52934
482.27        12.63667
482.72        12.74065
483.16        13.05782
483.60        13.15158
484.04        13.10834
484.48        12.95391
484.93        12.91366
485.37        12.90494
485.81        13.37028
486.25        13.81015
486.69        13.38064
487.14        12.80036
487.58        13.99284
488.02        13.91511
488.46        13.96314
488.90        14.06319
489.34         13.6019
489.79         13.4421
490.23        13.86098
490.67         14.1875
491.11        14.46029
491.55        14.49108
491.99        14.34858
492.43        14.38874
492.88        14.62785
493.32        14.80013
493.76        14.88601
494.20         15.0328
494.64        15.25076
495.08        15.44736
495.52        15.60698
495.96        15.84056
496.41        16.13458
496.85        16.06746
497.29        15.77628
497.73        15.89338
498.17        16.35975
498.61        16.62094
499.05        16.60138
499.49        16.59705
499.93        16.65858
500.37        16.73202
500.82        16.82221
501.26        16.97438
501.70        17.19753
502.14        17.12471
502.58        17.36119
503.02        17.44583
503.46        17.48564
503.90        17.50845
504.34        17.51363
504.78        17.55547
505.22         17.6338
505.66        17.70516
506.10        17.77357
506.54        17.89315
506.98        18.06507
507.42        18.18363
507.86        18.36825
508.30        18.46912
508.74        18.52097
509.18        18.52968
509.62        18.51772
510.06        18.52091
510.50        18.54956
510.94        18.59428
511.38        18.64893
511.82        18.70315
512.26        18.75109
512.70        18.79844
513.14         18.8389
513.58        18.85255
514.02        18.83861
514.46        18.81791
514.90        18.80805
515.34        18.77191
515.78        18.82454
516.22        18.87005
516.66        18.93708
517.10        19.01597
517.54        19.10003
517.98        19.18738
518.42        19.25917
518.86        19.28949
519.30        19.27301
519.74        19.21508
520.18        19.14008
520.62        19.08726
521.06        19.06772
521.50         19.0754
521.93        19.08984
522.37        19.06751
522.81        19.00363
523.25        18.91006
523.69        18.81769
524.13        18.77431
524.57        18.78597
525.01        18.83285
525.45        18.87623
525.89        18.85546
526.32        18.75601
526.76        18.60986
527.20        18.44736
527.64        18.31972
528.08        18.24341
528.52        18.19879
528.96        18.18414
529.40        18.19636
529.83        18.22557
530.27        18.27393
530.71        18.30694
531.15        18.26974
531.59        18.15554
532.03        17.97973
532.46        17.79157
532.90        17.68481
533.34        17.67626
533.78        17.73943
534.22        17.82437
534.66        17.85306
535.09        17.80595
535.53        17.71249
535.97        17.60673
536.41        17.54334
536.85        17.53931
537.28        17.57887
537.72         17.6404
538.16        17.68832
538.60        17.71288
539.04        17.72747
539.47        17.74674
539.91        17.80294
540.35        17.89486
540.79        18.01364
541.22        18.12901
541.66        18.19477
542.10        18.20449
542.54        18.17957
542.97        18.15376
543.41        18.18935
543.85        18.29717
544.29        18.45661
544.72         18.6429
545.16        18.83177
545.60        19.00434
546.04        19.16901
546.47        19.32025
546.91        19.44399
547.35        19.54035
547.79        19.62127
548.22        19.70009
548.66        19.79666
549.10        19.92897
549.53        20.16036
549.97        20.45899
550.41        20.70017
550.84        20.86317
551.28        21.01047
551.72        21.14858
552.15        21.26357
552.59        21.36726
553.03        21.45448
553.46        21.54039
553.90         21.6667
554.34        21.83404
554.77        22.03962
555.21        22.24622
555.65        22.39223
556.08        22.44267
556.52        22.46855
556.96        22.49225
557.39        22.58142
557.83        22.73069
558.27         22.8269
558.70        22.86967
559.14        22.94335
559.57         23.0417
560.01        23.14394
560.45        23.23372
560.88        23.27329
561.32        23.30889
561.75        23.40072
562.19        23.54711
562.63        23.73418
563.06        23.89932
563.50        23.86872
563.93        23.69513
564.37        23.67284
564.80        23.81523
565.24        23.97993
565.68         24.1335
566.11        24.27634
566.55         24.4013
566.98        24.52525
567.42        24.65103
567.85        24.71445
568.29        24.76252
568.72        24.86182
569.16        25.01164
569.60         25.1932
570.03        25.42059
570.47         25.4459
570.90        25.57196
571.34        25.97769
571.77        26.05143
572.21        26.03684
572.64        26.31002
573.08        26.29154
573.51        26.71444
573.95         26.7865
574.38        26.66578
574.82        26.75539
