SpectraSmart Spectrum 2.9.0.0
--------- Device Information -----------
Spectrum Name :  反射率_0
Saving Time :  2024/04/27 22:12:46
Spectro-Module Model Name : SE2030-DUVN
Spectro-Module Serial Number : OS361AC55029948
Wavelength Start : 200
Wavelength End : 1025
Wavelength Unit : Wavelength(nm)
Spectrum Unit : Reflectance(%)
-----------Spectrum Setting ------------
Integration Time : 20ms
Average : 10
Boxcar : 0
Background removal :  enabled
linearity correction :  enabled
SC :  disabled
Intensity correction :  disabled
DWT denoise :  enabled
savitzky-golay :  disabled
FFT :  disabled
Running average :  disabled
Kalman :  disabled
High pass :  disabled
---------------BEGIN--------------------
Wavelength(nm)             Reflectance(%)
200.29               0
200.75        49.51662
201.21        67.40027
201.67        77.04832
202.13        74.18855
202.58        63.11681
203.04        47.63311
203.50        35.35375
203.96        37.19923
204.42        51.47208
204.88        70.76748
205.34        87.94552
205.80        97.70579
206.26        100.1663
206.72        96.21243
207.18        85.28593
207.64        74.64773
208.10         73.0528
208.55        77.52335
209.01        80.49803
209.47        78.23067
209.93        68.75893
210.39        42.82725
210.85       -34.19065
211.31       -116.9221
211.77        2.553553
212.23        74.22009
212.69        97.43202
213.14        102.0589
213.60        96.66236
214.06        81.65601
214.52        53.42395
214.98        28.44332
215.44        30.52242
215.90        45.20564
216.36        59.55474
216.81        69.30981
217.27        75.76221
217.73        81.51188
218.19        85.98637
218.65        87.18865
219.11        84.72578
219.57         78.8278
220.02        70.74438
220.48        65.72735
220.94         65.8772
221.40        69.40955
221.86        75.17709
222.32        81.96401
222.77        88.71629
223.23        95.18407
223.69        99.97766
224.15        101.6424
224.61         100.352
225.06        96.55908
225.52         91.7375
225.98        88.68728
226.44        88.33022
226.90        89.51495
227.36         90.9756
227.81        91.59323
228.27        91.53866
228.73        91.08087
229.19        90.68433
229.65        91.14443
230.10        92.48419
230.56        94.45901
231.02        96.21919
231.48        96.85017
231.93        96.18972
232.39        94.82888
232.85        93.27753
233.31        92.37791
233.77        92.25866
234.22        92.59873
234.68        93.02911
235.14        93.00975
235.60        92.39603
236.05        91.34262
236.51        89.93964
236.97        88.66268
237.43        87.79406
237.88        87.39942
238.34        86.98748
238.80        86.24904
239.26        84.87692
239.71        82.72297
240.17         79.1925
240.63         75.8261
241.08        75.15563
241.54         76.4537
242.00        78.04279
242.46        78.71881
242.91        78.45219
243.37        76.96429
243.83        73.18133
244.28        66.89677
244.74        62.88695
245.20         63.5428
245.66        65.19204
246.11          64.532
246.57         60.9367
247.03        54.46844
247.48         44.3484
247.94         35.3034
248.40        34.39874
248.85        39.33611
249.31        47.11308
249.77         55.3149
250.22        62.50083
250.68        68.39166
251.14        72.90269
251.59        76.36367
252.05        79.42372
252.51        82.22497
252.96         83.9603
253.42        82.89642
253.88        78.71796
254.33        73.97979
254.79        70.37413
255.25        67.47751
255.70        65.04528
256.16        63.51931
256.62        63.61562
257.07        66.07443
257.53        70.19907
257.99         74.4307
258.44        77.28869
258.90        78.06427
259.35         76.7944
259.81        74.74476
260.27        72.51475
260.72        70.84383
261.18        70.18262
261.63        69.84635
262.09        69.76696
262.55          69.406
263.00        68.63377
263.46        67.81545
263.91        67.00385
264.37        66.68057
264.83        66.75726
265.28        67.00813
265.74        67.26815
266.19        67.05215
266.65        66.42946
267.11        65.49043
267.56        64.47055
268.02        63.85498
268.47        63.67421
268.93        63.79018
269.38        63.93898
269.84        63.76248
270.30        63.15487
270.75        62.23571
271.21         61.1549
271.66          60.073
272.12        59.09026
272.57        58.10903
273.03        57.17638
273.48        56.26002
273.94        55.42375
274.39        54.63708
274.85        53.92679
275.31        53.18358
275.76        52.36432
276.22        51.54643
276.67        50.71593
277.13        50.01823
277.58        49.38573
278.04         48.8391
278.49        48.24508
278.95        47.57716
279.40        46.75898
279.86        45.91071
280.31        45.02513
280.77        44.25671
281.22         43.5787
281.68        43.02576
282.13        42.52806
282.59        42.08695
283.04        41.64047
283.50        41.20657
283.95        40.76218
284.41        40.34718
284.86        39.93348
285.32        39.54899
285.77        39.11351
286.22        38.57267
286.68        37.95037
287.13        37.24224
287.59        36.58257
288.04         36.0776
288.50        35.78726
288.95        35.63275
289.41        35.55256
289.86        35.38726
290.32        35.12676
290.77        34.79789
291.22        34.46246
291.68        34.20575
292.13        34.03111
292.59        33.91785
293.04        33.83323
293.50        33.76592
293.95        33.69549
294.40         33.6489
294.86         33.6177
295.31        33.57077
295.77        33.52072
296.22        33.46455
296.68        33.45852
297.13        33.56928
297.58        33.80656
298.04        34.13419
298.49         34.4763
298.95        34.73811
299.40        34.88494
299.85        34.94479
300.31        34.96738
300.76        34.99746
301.21        35.06636
301.67        35.16685
302.12        35.26071
302.58        35.33462
303.03        35.36419
303.48        35.36755
303.94        35.39223
304.39        35.45773
304.84        35.57874
305.30        35.74396
305.75        35.87333
306.20        35.88855
306.66        35.78928
307.11        35.57669
307.57        35.34649
308.02        35.18289
308.47        35.12306
308.93        35.13768
309.38        35.14474
309.83        35.04275
310.29        34.82204
310.74        34.50999
311.19        34.17814
311.65        33.93523
312.10        33.79265
312.55        33.71899
313.00        33.67688
313.46         33.6114
313.91        33.49572
314.36        33.34838
314.82        33.16044
315.27        32.91323
315.72         32.6154
316.18        32.28435
316.63        31.94946
317.08        31.67916
317.53        31.49195
317.99        31.37007
318.44        31.29767
318.89        31.22957
319.35        31.14673
319.80        31.05521
320.25        30.95478
320.70        30.85256
321.16        30.74052
321.61        30.61705
322.06        30.46602
322.51        30.26896
322.97        30.02521
323.42        29.76261
323.87        29.49968
324.32        29.27209
324.78        29.09137
325.23         28.9528
325.68        28.86128
326.13        28.82782
326.59        28.83016
327.04        28.87698
327.49         28.9061
327.94        28.82722
328.39        28.61952
328.85        28.30037
329.30        27.93796
329.75        27.64508
330.20        27.46555
330.66        27.36643
331.11        27.32877
331.56        27.26546
332.01        27.15362
332.46        27.02335
332.92        26.89644
333.37        26.83537
333.82        26.84312
334.27        26.88418
334.72        26.94108
335.17        26.99288
335.63        27.01868
336.08        27.04644
336.53        27.02813
336.98        26.89667
337.43          26.655
337.88        26.33068
338.34         26.0305
338.79        25.93259
339.24        26.07479
339.69        26.40316
340.14        26.79756
340.59        27.05763
341.05         27.1222
341.50        27.04905
341.95        26.90164
342.40        26.79538
342.85        26.76578
343.30        26.76898
343.75        26.78301
344.20        26.77679
344.66        26.74451
345.11        26.70998
345.56        26.66764
346.01        26.59792
346.46        26.50271
346.91        26.37983
347.36        26.27826
347.81        26.27366
348.26        26.37509
348.72          26.564
349.17        26.75122
349.62        26.79404
350.07        26.66253
350.52        26.38915
350.97        26.09815
351.42        25.99091
351.87        26.10327
352.32        26.37004
352.77        26.63187
353.22        26.64475
353.67        26.36463
354.13         25.8912
354.58        25.36497
355.03        25.05997
355.48        25.04707
355.93        25.24422
356.38        25.51533
356.83        25.64891
357.28        25.58685
357.73        25.39408
358.18        25.16174
358.63        25.02957
359.08        25.02648
359.53        25.09283
359.98        25.15243
360.43        25.09396
360.88        24.89502
361.33        24.60397
361.78        24.27074
362.23        24.00605
362.68        23.84827
363.13         23.6991
363.58        23.53443
364.03        23.66847
364.48        23.51576
364.93        23.53195
365.38        23.51795
365.83        23.43871
366.28        23.28242
366.73        23.06937
367.18        22.82932
367.63        22.60085
368.08        22.40182
368.53        22.22099
368.98        22.06941
369.43        21.95973
369.88        21.89198
370.33        21.87227
370.78        21.85691
371.23        21.77471
371.68        21.60731
372.13         21.3569
372.58        21.10148
373.03        20.97135
373.48        20.99147
373.93         21.1348
374.38        21.26661
374.83        21.17296
375.28        20.82323
375.72        20.27901
376.17        19.75565
376.62        19.54954
377.07        19.71009
377.52        20.12016
377.97        20.57111
378.42        20.73807
378.87        20.54748
379.32        20.12124
379.77        19.59988
380.22         19.1922
380.67        18.96395
381.11        18.84624
381.56        18.81443
382.01        18.83154
382.46        18.87089
382.91        18.95125
383.36        19.02569
383.81        19.01253
384.26        18.89737
384.71        18.69275
385.15        18.45144
385.60        18.29686
386.05        18.24709
386.50         18.2777
386.95        18.33544
387.40         18.3335
387.85        18.25801
388.29        18.13245
388.74        18.03023
389.19        18.01245
389.64        18.08304
390.09        18.19934
390.54        18.31707
390.98        18.36583
391.43        18.33315
391.88        18.24736
392.33        18.10499
392.78        17.93122
393.23        17.74935
393.67        17.47828
394.12        17.19345
394.57        17.19879
395.02        17.19537
395.47        17.14011
395.91        16.95788
396.36         16.8608
396.81        16.85963
397.26        16.83403
397.71        16.79406
398.15        16.81847
398.60        16.91953
399.05         16.9925
399.50        17.04075
399.95        17.18442
400.39        17.36274
400.84        17.32533
401.29         17.0821
401.74        16.82511
402.18        16.62299
402.63        16.50609
403.08         16.4762
403.53        16.44126
403.97        16.40084
404.42         16.4461
404.87        16.54791
405.32        16.62296
405.76        16.65186
406.21        16.61017
406.66         16.5333
407.11        16.55965
407.55        16.65565
408.00        16.63197
408.45        16.48022
408.90        16.24837
409.34        16.02139
409.79        16.01246
410.24        16.18124
410.68        16.25024
411.13        16.19715
411.58        16.19359
412.03         16.2481
412.47        16.28839
412.92         16.3014
413.37        16.31084
413.81        16.30434
414.26        16.27702
414.71        16.22602
415.15        16.15424
415.60        16.07742
416.05        16.03121
416.49        16.02727
416.94        16.05472
417.39        16.09101
417.83        16.10161
418.28        16.07092
418.73        15.99915
419.17        15.91444
419.62        15.86544
420.07        15.86898
420.51        15.92179
420.96        15.96912
421.41        15.94562
421.85        15.84051
422.30         15.6068
422.74        15.36291
423.19        15.47468
423.64        15.88764
424.08        16.15639
424.53        16.15595
424.98        16.14881
425.42        16.12818
425.87        15.81215
426.31        15.34761
426.76        15.29086
427.21        15.58613
427.65        15.64764
428.10         15.4719
428.54        15.45013
428.99        15.57427
429.44        15.76597
429.88        15.91791
430.33        15.67186
430.77        15.20184
431.22        15.17449
431.66        15.56124
432.11        15.83838
432.56        15.91446
433.00        15.91384
433.45        15.72499
433.89        15.37751
434.34          15.162
434.78        14.42479
435.23        15.00054
435.67        15.52716
436.12        15.79676
436.57         15.9147
437.01        15.75997
437.46        15.66522
437.90        15.71894
438.35        15.81951
438.79        15.48717
439.24        15.38727
439.68        15.39807
440.13        15.46342
440.57          15.532
441.02        15.65998
441.46        15.78753
441.91        15.57828
442.35        15.18683
442.80        15.31241
443.24        15.82177
443.69        15.81133
444.13        15.31242
444.58        15.10112
445.02        15.18317
445.47        15.15837
445.91         15.0197
446.36        14.96508
446.80        14.99453
447.24        15.04732
447.69        15.11314
448.13        15.21645
448.58        15.32774
449.02         15.3657
449.47        15.35059
449.91        15.38592
450.36        15.47934
450.80        15.56645
451.25        15.62792
451.69        15.66023
452.13        15.65386
452.58        15.59945
453.02        15.51564
453.47        15.44088
453.91        15.38451
454.36        15.36215
454.80        15.34495
455.24        15.26873
455.69        15.16498
456.13        15.07016
456.58        15.01981
457.02        15.11983
457.46        15.28463
457.91        15.23993
458.35        15.07612
458.79        15.02663
459.24        15.11858
459.68        15.19789
460.13         15.2559
460.57        15.25635
461.01        15.26151
461.46        15.29122
461.90         15.2655
462.34         15.2268
462.79        15.41059
463.23        15.40158
463.68        15.29454
464.12        15.20597
464.56        15.16382
465.01        15.20233
465.45        15.24887
465.89        15.18847
466.34        15.06849
466.78        14.97154
467.22        14.90327
467.67        15.18584
468.11        15.14013
468.55        15.14372
468.99        15.02629
469.44        14.99159
469.88        15.04441
470.32        15.06517
470.77        15.05831
471.21        15.07863
471.65        15.12875
472.10        15.19559
472.54        15.25095
472.98        15.27371
473.42        15.26413
473.87        15.18822
474.31        15.08677
474.75        15.16405
475.20        15.37365
475.64        15.41219
476.08        15.27701
476.52        15.25803
476.97        15.37074
477.41        15.30998
477.85        15.22435
478.29        15.32238
478.74        15.22007
479.18        15.09746
479.62         15.3358
480.06        15.36814
480.50        15.35591
480.95        15.30075
481.39        15.20866
481.83        15.41645
482.27        15.46365
482.72        15.46343
483.16         15.7407
483.60        15.80895
484.04        15.74986
484.48        15.76232
484.93        16.01978
485.37        15.76187
485.81         15.6356
486.25        16.59601
486.69        16.14829
487.14        15.57631
487.58        16.51536
488.02        16.28174
488.46        16.21677
488.90        16.61646
489.34        16.09024
489.79        15.86714
490.23        16.14565
490.67        16.37207
491.11        16.63145
491.55        16.63291
491.99        16.44705
492.43        16.45118
492.88        16.66175
493.32        16.82381
493.76        16.90204
494.20        17.00764
494.64        17.14941
495.08        17.24552
495.52        17.30963
495.96        17.51273
496.41        17.84251
496.85        17.82097
497.29        17.56465
497.73        17.72987
498.17        18.23673
498.61        18.47679
499.05        18.37977
499.49         18.2971
499.93        18.29355
500.37        18.30449
500.82        18.33474
501.26        18.43493
501.70         18.6159
502.14        18.48487
502.58        18.70139
503.02        18.77223
503.46        18.81224
503.90         18.8486
504.34        18.86898
504.78         18.9139
505.22        18.97767
505.66        19.01528
506.10        19.04354
506.54         19.1416
506.98        19.31499
507.42        19.44519
507.86        19.64344
508.30          19.723
508.74        19.71641
509.18        19.63964
509.62        19.53973
510.06        19.49082
510.50        19.51366
510.94        19.58972
511.38        19.68939
511.82        19.76442
512.26        19.79899
512.70        19.80795
513.14        19.80859
513.58        19.81907
514.02        19.84497
514.46         19.8928
514.90        19.94907
515.34        19.92424
515.78        19.92962
516.22        19.88141
516.66        19.84155
517.10        19.84914
517.54         19.9116
517.98        20.01344
518.42        20.11601
518.86        20.16086
519.30        20.13337
519.74        20.05056
520.18        19.94941
520.62        19.88749
521.06        19.88064
521.50        19.91485
521.93        19.96065
522.37         19.9619
522.81        19.90936
523.25        19.81844
523.69        19.72678
524.13         19.6916
524.57        19.72264
525.01        19.79985
525.45        19.87569
525.89         19.8766
526.32        19.78492
526.76        19.63258
527.20         19.4686
527.64        19.37368
528.08        19.36659
528.52        19.41863
528.96        19.48941
529.40        19.51614
529.83        19.48048
530.27        19.40532
530.71        19.30967
531.15        19.22221
531.59        19.15523
532.03        19.10084
532.46        19.05611
532.90        19.02987
533.34        19.01814
533.78        19.02101
534.22        19.03589
534.66        19.05668
535.09        19.07784
535.53        19.10182
535.97        19.11941
536.41        19.12041
536.85        19.10453
537.28        19.07662
537.72        19.04944
538.16        19.04092
538.60        19.05729
539.04        19.09811
539.47        19.14963
539.91        19.20185
540.35         19.2456
540.79        19.28748
541.22        19.32949
541.66        19.37579
542.10         19.4272
542.54        19.48298
542.97        19.53794
543.41        19.59671
543.85        19.65675
544.29        19.71856
544.72        19.78432
545.16        19.87195
545.60        19.97717
546.04        20.09682
546.47        20.21967
546.91        20.32316
547.35        20.40158
547.79        20.46965
548.22        20.53728
548.66        20.61559
549.10         20.7205
549.53        20.92268
549.97        21.19192
550.41        21.37929
550.84        21.46213
551.28        21.55779
551.72        21.70197
552.15        21.66983
552.59        21.88332
553.03        21.99822
553.46        22.12608
553.90        22.26138
554.34        22.39851
554.77        22.54399
555.21        22.66876
555.65        22.73724
556.08        22.72431
556.52        22.69591
556.96        22.68091
557.39        22.75639
557.83        22.91517
558.27        23.04103
558.70         23.1162
559.14        23.19661
559.57        23.26986
560.01        23.32327
560.45        23.35736
560.88        23.36153
561.32        23.38882
561.75        23.49084
562.19        23.65537
562.63        23.85231
563.06        24.01384
563.50        23.97033
563.93        23.78001
564.37        23.74609
564.80         23.8828
565.24        24.04218
565.68        24.18691
566.11        24.31209
566.55        24.41021
566.98        24.50388
567.42        24.59634
567.85        24.62331
568.29        24.63588
568.72        24.70028
569.16        24.82163
569.60        25.01056
570.03          25.283
570.47        25.34378
570.90        25.46793
571.34        25.98705
571.77        25.95413
572.21        25.91372
572.64        26.15775
573.08        26.05307
573.51        26.35528
573.95        26.50015
574.38        26.58136
574.82        26.64192
