SpectraSmart Spectrum 2.9.0.0
--------- Device Information -----------
Spectrum Name :  反射率_0
Saving Time :  2024/04/27 22:47:17
Spectro-Module Model Name : SE2030-DUVN
Spectro-Module Serial Number : OS361AC55029948
Wavelength Start : 200
Wavelength End : 1025
Wavelength Unit : Wavelength(nm)
Spectrum Unit : Reflectance(%)
-----------Spectrum Setting ------------
Integration Time : 20ms
Average : 10
Boxcar : 0
Background removal :  enabled
linearity correction :  enabled
SC :  disabled
Intensity correction :  disabled
DWT denoise :  enabled
savitzky-golay :  disabled
FFT :  disabled
Running average :  disabled
Kalman :  disabled
High pass :  disabled
---------------BEGIN--------------------
Wavelength(nm)             Reflectance(%)
200.29               0
200.75       -50.36642
201.21       0.2451928
201.67        38.58907
202.13        50.84044
202.58        46.15485
203.04        33.04354
203.50        19.79081
203.96        17.60557
204.42        26.36281
204.88        39.56142
205.34         51.3843
205.80        57.38641
206.26        57.18494
206.72        50.81075
207.18        38.04762
207.64        28.08625
208.10        29.51792
208.55        37.52868
209.01        41.91945
209.47        38.13741
209.93         23.3434
210.39         -16.918
210.85       -139.9459
211.31       -291.7979
211.77       -115.1559
212.23        2.137208
212.69        43.88383
213.14        57.19336
213.60        57.93752
214.06        50.52367
214.52        33.37774
214.98        17.79197
215.44        19.08038
215.90        27.37532
216.36        35.30844
216.81          40.585
217.27        43.74334
217.73        46.88605
218.19        49.08823
218.65        48.06037
219.11        43.34527
219.57        34.83987
220.02        25.08164
220.48        22.18009
220.94        27.80614
221.40        38.10512
221.86        47.98463
222.32        52.54015
222.77        52.09595
223.23        49.11052
223.69        45.19323
224.15        41.61728
224.61        38.70516
225.06        35.69155
225.52        33.73146
225.98        34.56155
226.44        37.54128
226.90        41.05296
227.36        43.66483
227.81        44.29671
228.27        43.05311
228.73        40.37341
229.19        36.35593
229.65        31.59034
230.10        26.83896
230.56        22.64629
231.02        19.62145
231.48        18.51324
231.93        19.16271
232.39        21.15137
232.85        23.97413
233.31         26.8932
233.77        29.53993
234.22        32.09885
234.68        33.93647
235.14        34.42121
235.60        33.52525
236.05        31.10749
236.51        28.37156
236.97        27.94093
237.43        30.73338
237.88        36.26253
238.34        41.88048
238.80        44.68501
239.26        43.90724
239.71        38.88315
240.17        30.13863
240.63         26.0949
241.08        33.55658
241.54         46.0564
242.00        55.81932
242.46        60.03371
242.91        59.74681
243.37        54.54133
243.83        41.66885
244.28        25.56719
244.74        26.31943
245.20        42.52969
245.66        55.63171
246.11        58.09643
246.57        51.44387
247.03        36.09273
247.48        11.04685
247.94       -9.061776
248.40       -6.378177
248.85        10.44681
249.31        31.59833
249.77        49.45551
250.22        61.86407
250.68        70.66827
251.14        75.41955
251.59        75.43459
252.05        70.94862
252.51        60.42402
252.96        43.96706
253.42        31.22755
253.88        29.57155
254.33         36.0225
254.79         42.6558
255.25        43.50991
255.70        39.92639
256.16        35.22657
256.62        32.40658
257.07         34.4309
257.53        40.00331
257.99        46.17566
258.44        50.81542
258.90        52.54465
259.35        51.59452
259.81        49.45459
260.27        46.86697
260.72        44.65017
261.18        43.27211
261.63         42.2523
262.09        41.53545
262.55        40.79168
263.00        39.91879
263.46        39.10798
263.91        38.44477
264.37        38.28739
264.83        38.51949
265.28        38.92266
265.74        39.19067
266.19        38.79621
266.65        37.76741
267.11        36.27797
267.56        34.63221
268.02        33.39559
268.47        32.67776
268.93        32.32666
269.38        32.16422
269.84        31.91978
270.30        31.49936
270.75        31.00259
271.21        30.44466
271.66        29.80191
272.12        29.11145
272.57        28.32669
273.03        27.57048
273.48        26.97802
273.94        26.60947
274.39        26.39372
274.85         26.2302
275.31        25.90874
275.76        25.38321
276.22        24.74016
276.67        24.07398
277.13        23.59315
277.58         23.2842
278.04        23.10765
278.49        22.90159
278.95        22.52148
279.40        21.91475
279.86         21.2166
280.31        20.51761
280.77        20.03935
281.22        19.79289
281.68        19.72823
282.13        19.75416
282.59        19.77337
283.04        19.73963
283.50        19.67899
283.95        19.59655
284.41        19.52067
284.86         19.4494
285.32        19.39111
285.77        19.31245
286.22         19.1906
286.68        19.04882
287.13         18.8806
287.59         18.7747
288.04        18.79939
288.50         18.9797
288.95        19.25052
289.41        19.54492
289.86        19.72802
290.32        19.78281
290.77        19.74574
291.22        19.66551
291.68        19.61243
292.13        19.61186
292.59        19.66328
293.04        19.77661
293.50        19.98638
293.95        20.28866
294.40        20.68833
294.86        21.16169
295.31        21.65914
295.77        22.16924
296.22        22.68102
296.68        23.20924
297.13        23.75912
297.58        24.32861
298.04        24.89992
298.49        25.44385
298.95        25.93113
299.40        26.36027
299.85        26.74526
300.31        27.13765
300.76        27.57946
301.21        28.08352
301.67        28.62936
302.12        29.15366
302.58        29.59529
303.03        29.92856
303.48        30.18757
303.94        30.42997
304.39         30.6992
304.84        31.02479
305.30        31.39503
305.75        31.76407
306.20        32.09765
306.66        32.39381
307.11        32.63324
307.57        32.85891
308.02        33.07469
308.47        33.29295
308.93        33.50328
309.38        33.65165
309.83        33.68249
310.29        33.60342
310.74        33.43009
311.19        33.23022
311.65        33.10667
312.10        33.06676
312.55        33.08332
313.00        33.11976
313.46        33.11839
313.91        33.05346
314.36        32.94717
314.82        32.78389
315.27        32.53534
315.72        32.21104
316.18         31.8299
316.63        31.44554
317.08        31.16463
317.53        31.00936
317.99        30.94956
318.44        30.93073
318.89        30.84362
319.35        30.65907
319.80        30.40998
320.25        30.13665
320.70        29.91158
321.16        29.74581
321.61        29.61358
322.06        29.48612
322.51         29.3239
322.97        29.11018
323.42        28.87627
323.87        28.61184
324.32        28.30537
324.78        27.96164
325.23        27.58686
325.68         27.2318
326.13        26.98671
326.59        26.85504
327.04        26.83158
327.49        26.81993
327.94        26.66638
328.39        26.33138
328.85        25.85044
329.30        25.32323
329.75        24.92103
330.20        24.70297
330.66          24.616
331.11        24.59626
331.56        24.48933
332.01        24.25116
332.46        23.92594
332.92         23.5791
333.37        23.34549
333.82        23.25375
334.27        23.25249
334.72        23.27565
335.17        23.22037
335.63        23.04852
336.08        22.81284
336.53        22.53042
336.98        22.23861
337.43        21.96532
337.88        21.70448
338.34        21.49179
338.79        21.38718
339.24        21.39608
339.69        21.49689
340.14        21.62971
340.59        21.69388
341.05          21.656
341.50        21.54244
341.95        21.36943
342.40        21.17785
342.85        20.98606
343.30        20.78061
343.75        20.57929
344.20        20.41154
344.66        20.28825
345.11         20.2105
345.56        20.15024
346.01        20.05313
346.46        19.90988
346.91        19.73346
347.36        19.57352
347.81        19.50548
348.26        19.54137
348.72        19.65706
349.17        19.78255
349.62        19.80684
350.07        19.70229
350.52        19.49144
350.97         19.2634
351.42        19.16145
351.87        19.21271
352.32        19.37481
352.77        19.52455
353.22        19.47604
353.67        19.19672
354.13        18.75869
354.58        18.28845
355.03         18.0361
355.48        18.06034
355.93        18.29414
356.38        18.57252
356.83        18.63729
357.28        18.43525
357.73        18.04983
358.18        17.64883
358.63         17.4929
359.08        17.62792
359.53        17.95011
359.98        18.29703
360.43        18.41821
360.88        18.25551
361.33        17.90242
361.78        17.45846
362.23        17.11996
362.68        16.95634
363.13        16.83383
363.58        16.72496
364.03        16.97231
364.48        16.92916
364.93        17.09128
365.38        17.21286
365.83        17.20621
366.28        17.04803
366.73        16.77202
367.18        16.43942
367.63        16.14127
368.08        15.91541
368.53        15.74389
368.98        15.62323
369.43        15.54033
369.88        15.48814
370.33        15.47885
370.78        15.49081
371.23        15.48593
371.68        15.44757
372.13        15.36342
372.58        15.26299
373.03        15.20108
373.48        15.18801
373.93         15.2203
374.38        15.22466
374.83        15.08437
375.28         14.7923
375.72        14.38292
376.17        14.01667
376.62        13.90518
377.07        14.07616
377.52        14.43934
377.97        14.82961
378.42        14.98815
378.87        14.85674
379.32         14.5344
379.77        14.12171
380.22        13.77049
380.67        13.53419
381.11        13.36088
381.56        13.26742
382.01         13.2816
382.46        13.39037
382.91         13.5915
383.36        13.78722
383.81        13.81886
384.26         13.6576
384.71        13.34185
385.15        12.98183
385.60         12.7871
386.05        12.79643
386.50        12.95859
386.95        13.16515
387.40        13.24386
387.85        13.16194
388.29        12.97374
388.74        12.79912
389.19        12.77552
389.64        12.91927
390.09         13.1629
390.54        13.41047
390.98        13.51152
391.43        13.43483
391.88        13.24263
392.33        12.99087
392.78         12.7779
393.23        12.64038
393.67        12.49588
394.12        12.36587
394.57        12.42224
395.02        12.43701
395.47        12.38809
395.91        12.24888
396.36        12.21556
396.81        12.29926
397.26        12.39208
397.71        12.44826
398.15        12.45284
398.60        12.41199
399.05        12.28405
399.50        12.13481
399.95        12.13559
400.39         12.2602
400.84        12.30641
401.29        12.24005
401.74        12.12536
402.18        11.98798
402.63        11.87393
403.08        11.80384
403.53        11.74412
403.97        11.70688
404.42         11.7419
404.87        11.82659
405.32         11.9021
405.76        11.95076
406.21        11.95517
406.66        11.93048
407.11        11.95824
407.55        12.01016
408.00        11.95394
408.45        11.79362
408.90        11.58301
409.34        11.39094
409.79        11.36644
410.24        11.47727
410.68        11.52098
411.13         11.4791
411.58          11.474
412.03        11.51309
412.47        11.54734
412.92        11.56506
413.37         11.5812
413.81        11.57967
414.26         11.5463
414.71        11.47937
415.15        11.38637
415.60        11.29115
416.05        11.23807
416.49         11.2418
416.94        11.28729
417.39        11.35362
417.83        11.40938
418.28        11.43574
418.73        11.43062
419.17        11.40257
419.62         11.3692
420.07        11.34117
420.51        11.32617
420.96         11.2956
421.41        11.22002
421.85        11.10046
422.30        10.90214
422.74        10.71816
423.19         10.8184
423.64        11.16473
424.08        11.44151
424.53        11.53007
424.98        11.57451
425.42        11.55853
425.87        11.29041
426.31        10.89552
426.76        10.80998
427.21        11.00099
427.65        11.04288
428.10        10.92222
428.54        10.89867
428.99        10.96245
429.44        11.07163
429.88        11.14621
430.33         10.9305
430.77        10.55054
431.22        10.46836
431.66        10.68465
432.11        10.87111
432.56        10.97286
433.00        11.08414
433.45        11.08314
433.89        10.85957
434.34        10.62206
434.78        10.03353
435.23        10.39953
435.67        10.74317
436.12         10.9304
436.57        11.06219
437.01        11.03236
437.46        11.01153
437.90         11.0523
438.35        11.10478
438.79        10.83372
439.24        10.71005
439.68        10.65351
440.13         10.6233
440.57        10.60783
441.02        10.68457
441.46        10.81705
441.91         10.7572
442.35        10.57203
442.80        10.69868
443.24        11.03759
443.69        10.97085
444.13         10.5497
444.58        10.35447
445.02         10.3981
445.47        10.39794
445.91        10.33092
446.36        10.30841
446.80        10.32299
447.24        10.34113
447.69        10.37131
448.13         10.4574
448.58        10.57927
449.02        10.66902
449.47        10.71203
449.91        10.73972
450.36         10.7501
450.80        10.71561
451.25        10.64875
451.69        10.58828
452.13        10.53923
452.58        10.48307
453.02        10.42398
453.47        10.37339
453.91        10.33143
454.36        10.31741
454.80        10.30425
455.24        10.23605
455.69          10.135
456.13        10.02746
456.58        9.957642
457.02        10.02809
457.46         10.1853
457.91        10.23071
458.35         10.1965
458.79        10.19802
459.24        10.24652
459.68        10.25281
460.13        10.22744
460.57        10.16881
461.01        10.12999
461.46        10.11891
461.90        10.08717
462.34        10.06925
462.79         10.2187
463.23        10.25855
463.68        10.24017
464.12        10.22598
464.56        10.22608
465.01        10.26711
465.45        10.29522
465.89        10.23007
466.34        10.10783
466.78        9.986968
467.22        9.885353
467.67        10.03965
468.11        10.00712
468.55        10.03078
468.99        9.987815
469.44        9.995746
469.88        10.05104
470.32        10.07975
470.77        10.08122
471.21        10.08577
471.65         10.0981
472.10        10.11172
472.54        10.12365
472.98        10.14376
473.42        10.17543
473.87        10.18723
474.31        10.19042
474.75        10.30021
475.20        10.47842
475.64        10.52577
476.08        10.44298
476.52         10.4338
476.97        10.51329
477.41        10.46998
477.85        10.41243
478.29        10.49568
478.74         10.4581
479.18        10.41912
479.62        10.63127
480.06        10.68524
480.50        10.68821
480.95        10.64542
481.39        10.57194
481.83        10.72267
482.27        10.78391
482.72        10.82693
483.16        11.06694
483.60        11.16023
484.04        11.17554
484.48        11.19282
484.93        11.34597
485.37        11.29245
485.81        11.43699
486.25        11.88863
486.69        11.50241
487.14        11.00035
487.58        12.01887
488.02        12.02286
488.46        11.98541
488.90        12.13456
489.34        11.65785
489.79        11.61655
490.23        12.14344
490.67        12.51063
491.11        12.74275
491.55        12.76364
491.99        12.65104
492.43         12.6958
492.88        12.91814
493.32        13.09126
493.76        13.19636
494.20         13.3587
494.64        13.58641
495.08        13.80059
495.52        13.98166
495.96        14.21686
496.41        14.49925
496.85        14.44444
497.29        14.18869
497.73        14.32018
498.17        14.79002
498.61        15.09175
499.05        15.13528
499.49        15.15825
499.93        15.20156
500.37        15.22695
500.82        15.25822
501.26        15.36658
501.70        15.57011
502.14        15.52804
502.58        15.77812
503.02        15.88501
503.46        15.93972
503.90        15.97245
504.34        15.98582
504.78        16.03449
505.22        16.11827
505.66        16.19214
506.10        16.25679
506.54         16.3581
506.98        16.49813
507.42        16.58714
507.86        16.73395
508.30        16.80054
508.74        16.82159
509.18        16.80252
509.62         16.7814
510.06        16.81833
510.50        16.92399
510.94        17.07931
511.38        17.24365
511.82        17.35236
512.26        17.38789
512.70        17.37043
513.14        17.32955
513.58        17.30591
514.02         17.3144
514.46        17.35683
514.90        17.42061
515.34        17.42441
515.78        17.46197
516.22        17.45954
516.66        17.46575
517.10        17.50533
517.54        17.58089
517.98        17.67914
518.42        17.76524
518.86        17.78813
519.30        17.73804
519.74        17.63291
520.18        17.51215
520.62        17.43678
521.06        17.42316
521.50        17.45543
521.93        17.50667
522.37         17.5234
522.81        17.49484
523.25        17.43597
523.69        17.36903
524.13        17.32856
524.57        17.32028
525.01        17.32718
525.45        17.32836
525.89        17.29296
526.32        17.21089
526.76        17.10303
527.20        16.97914
527.64        16.85699
528.08        16.74507
528.52        16.63639
528.96         16.5426
529.40         16.4811
529.83        16.45144
530.27        16.45178
530.71         16.4502
531.15         16.3947
531.59        16.27847
532.03        16.11818
532.46        15.95806
532.90        15.88159
533.34        15.90124
533.78        15.98932
534.22        16.09819
534.66        16.15547
535.09        16.14167
535.53        16.08209
535.97        16.00335
536.41        15.94956
536.85         15.9349
537.28        15.94538
537.72        15.96951
538.16        15.98791
538.60        15.99589
539.04        16.00626
539.47        16.02134
539.91        16.05182
540.35        16.09619
540.79        16.15435
541.22        16.22079
541.66        16.28816
542.10        16.35485
542.54        16.42438
542.97        16.50126
543.41        16.60247
543.85        16.72692
544.29         16.8682
544.72        17.01527
545.16        17.16538
545.60        17.31018
546.04        17.45322
546.47        17.59393
546.91        17.72635
547.35        17.85033
547.79        17.97456
548.22        18.10405
548.66        18.24506
549.10        18.41009
549.53         18.6611
549.97         18.9677
550.41        19.21379
550.84        19.38194
551.28        19.53052
551.72        19.67459
552.15        19.81568
552.59        19.96632
553.03        20.11582
553.46        20.26628
553.90         20.4388
554.34        20.62921
554.77        20.83931
555.21        21.04009
555.65        21.18383
556.08        21.24066
556.52        21.27466
556.96         21.3037
557.39        21.38729
557.83        21.51986
558.27        21.59713
558.70         21.6234
559.14        21.68468
559.57        21.77681
560.01         21.8788
560.45        21.97078
560.88        22.01036
561.32        22.04001
561.75        22.11876
562.19        22.25009
562.63        22.42877
563.06        22.59758
563.50        22.59048
563.93        22.45018
564.37        22.44527
564.80         22.5863
565.24        22.74027
565.68        22.88496
566.11        23.03544
566.55        23.18688
566.98        23.35137
567.42        23.51766
567.85        23.60104
568.29        23.64429
568.72        23.72257
569.16         23.8512
569.60        24.03361
570.03        24.28419
570.47        24.35733
570.90          24.535
571.34        24.95405
571.77        25.03674
572.21        25.05411
572.64        25.34694
573.08         25.2603
573.51        25.56209
573.95        25.67536
574.38        25.66669
574.82        26.12452
