SpectraSmart Spectrum 2.9.0.0
--------- Device Information -----------
Spectrum Name :  反射率_0
Saving Time :  2024/04/27 22:55:57
Spectro-Module Model Name : SE2030-DUVN
Spectro-Module Serial Number : OS361AC55029948
Wavelength Start : 200
Wavelength End : 1025
Wavelength Unit : Wavelength(nm)
Spectrum Unit : Reflectance(%)
-----------Spectrum Setting ------------
Integration Time : 20ms
Average : 10
Boxcar : 0
Background removal :  enabled
linearity correction :  enabled
SC :  disabled
Intensity correction :  disabled
DWT denoise :  enabled
savitzky-golay :  disabled
FFT :  disabled
Running average :  disabled
Kalman :  disabled
High pass :  disabled
---------------BEGIN--------------------
Wavelength(nm)             Reflectance(%)
200.29               0
200.75       -48.17526
201.21       -55.35397
201.67       -46.55026
202.13       -33.87154
202.58       -19.97827
203.04       -3.177521
203.50          15.056
203.96        29.44298
204.42        38.10868
204.88        42.63547
205.34        44.62088
205.80        46.20124
206.26        47.99623
206.72        49.05566
207.18        48.99613
207.64         47.0826
208.10        44.16674
208.55        43.23087
209.01        40.96589
209.47        34.43673
209.93        19.99555
210.39       -16.71658
210.85       -126.5939
211.31       -258.3021
211.77       -98.19372
212.23        7.061924
212.69        43.63581
213.14        53.40391
213.60        49.95913
214.06         35.2627
214.52        7.829492
214.98       -9.968534
215.44        2.784391
215.90        25.05321
216.36        41.40158
216.81        47.22813
217.27        45.39275
217.73        39.96417
218.19        32.64514
218.65        25.76645
219.11        20.65321
219.57        16.25212
220.02        14.11138
220.48        18.80333
220.94        29.43863
221.40        42.87514
221.86        54.44794
222.32         60.0801
222.77        60.44915
223.23        57.57956
223.69        53.69747
224.15        50.97574
224.61        49.72853
225.06        49.12069
225.52         49.1624
225.98        49.34999
226.44        49.44904
226.90        49.60866
227.36        49.68736
227.81        49.47609
228.27          48.953
228.73        48.04935
229.19        46.75927
229.65        45.24538
230.10        43.64543
230.56        42.33718
231.02        41.24021
231.48        40.29305
231.93        39.46077
232.39        38.83191
232.85        38.68357
233.31        39.44229
233.77        40.99829
234.22        43.14396
234.68         45.0723
235.14        45.84837
235.60         45.3096
236.05        43.52399
236.51        41.30165
236.97        40.45238
237.43        41.68358
237.88        44.68206
238.34         47.7056
238.80        48.96731
239.26        47.86083
239.71        43.78606
240.17        36.83003
240.63        32.51238
241.08         36.1064
241.54        43.76758
242.00        49.80717
242.46        51.43354
242.91        48.71009
243.37          40.035
243.83        20.97829
244.28       -3.496977
244.74       -4.696517
245.20        17.75867
245.66        37.35352
246.11        42.94445
246.57        36.99146
247.03        20.30302
247.48        -7.03916
247.94       -25.03728
248.40       -13.91346
248.85        13.48459
249.31        40.79008
249.77         55.7783
250.22        59.61598
250.68        58.27861
251.14        54.95161
251.59        51.60548
252.05        48.41045
252.51        43.59658
252.96        37.08811
253.42        33.44383
253.88        34.85246
254.33        39.74686
254.79        43.96743
255.25        44.43918
255.70        42.10375
256.16        38.96072
256.62        36.93393
257.07        38.00214
257.53        41.47514
257.99        45.44166
258.44        48.38274
258.90        49.34034
259.35        48.41169
259.81        46.65918
260.27        44.68494
260.72        43.17732
261.18        42.45679
261.63        42.02727
262.09        41.67561
262.55        40.88674
263.00        39.62196
263.46        38.21892
263.91        36.95007
264.37        36.42653
264.83        36.59431
265.28        37.15139
265.74        37.73867
266.19        37.77591
266.65        37.25416
267.11        36.34939
267.56         35.3126
268.02        34.61866
268.47        34.33585
268.93        34.30373
269.38        34.35177
269.84        34.24472
270.30        33.89558
270.75        33.39004
271.21        32.74143
271.66        31.92228
272.12        30.98762
272.57        29.92651
273.03        28.89534
273.48        28.06486
273.94         27.5234
274.39        27.20538
274.85        27.02533
275.31        26.78718
275.76         26.4277
276.22        26.00515
276.67        25.57783
277.13         25.3096
277.58        25.16817
278.04        25.12699
278.49        25.00578
278.95         24.6452
279.40        23.99692
279.86        23.20259
280.31        22.40616
280.77        21.91468
281.22        21.74084
281.68        21.80712
282.13        21.94575
282.59        21.95504
283.04        21.77838
283.50        21.49294
283.95        21.17078
284.41        20.94699
284.86        20.84218
285.32        20.82112
285.77         20.8147
286.22        20.75439
286.68         20.6402
287.13        20.47399
287.59        20.32762
288.04        20.23926
288.50        20.24062
288.95          20.285
289.41         20.3413
289.86         20.3275
290.32        20.24718
290.77        20.12785
291.22        20.01701
291.68        19.97946
292.13        20.02755
292.59        20.15104
293.04        20.33729
293.50        20.58722
293.95         20.8833
294.40        21.23392
294.86        21.61249
295.31        21.97052
295.77        22.30405
296.22        22.60622
296.68        22.92101
297.13         23.2992
297.58        23.75317
298.04        24.26145
298.49        24.76638
298.95        25.18932
299.40        25.51775
299.85        25.77674
300.31        26.05156
300.76        26.43818
301.21         26.9587
301.67        27.57307
302.12        28.16912
302.58        28.61448
303.03        28.87074
303.48        28.98962
303.94        29.08488
304.39        29.28572
304.84        29.63308
305.30        30.08642
305.75        30.52951
306.20        30.82079
306.66         30.9432
307.11        30.91826
307.57        30.87065
308.02        30.93177
308.47        31.13869
308.93        31.43528
309.38        31.69498
309.83        31.75005
310.29        31.58277
310.74        31.24971
311.19         30.8679
311.65        30.61833
312.10        30.53373
312.55        30.56057
313.00        30.64034
313.46        30.68301
313.91        30.65193
314.36        30.58228
314.82        30.46115
315.27        30.26114
315.72          29.992
316.18        29.66573
316.63        29.33696
317.08        29.11869
317.53        29.03047
317.99        29.03536
318.44        29.07131
318.89        29.01736
319.35        28.84152
319.80        28.58412
320.25        28.28471
320.70        28.01325
321.16        27.78904
321.61        27.59481
322.06        27.42573
322.51        27.27898
322.97        27.14507
323.42        27.04082
323.87         26.9356
324.32        26.78218
324.78        26.56827
325.23        26.30446
325.68        26.03296
326.13        25.83293
326.59        25.71105
327.04        25.66579
327.49        25.62556
327.94         25.4798
328.39        25.20128
328.85        24.81608
329.30        24.40844
329.75        24.11899
330.20        23.99243
330.66        23.98387
331.11        24.02302
331.56         23.9471
332.01        23.71548
332.46        23.37455
332.92        23.01287
333.37        22.80627
333.82        22.79444
334.27        22.91557
334.72        23.08222
335.17        23.15327
335.63        23.07742
336.08         22.9172
336.53        22.69434
336.98        22.45579
337.43        22.23428
337.88        22.01741
338.34        21.84812
338.79        21.80128
339.24        21.88325
339.69        22.06937
340.14        22.28616
340.59        22.40692
341.05        22.39697
341.50        22.30002
341.95        22.14528
342.40        21.99338
342.85        21.87146
343.30        21.75538
343.75        21.67691
344.20        21.68916
344.66        21.79205
345.11        21.96499
345.56        22.12389
346.01        22.12851
346.46        21.95218
346.91        21.63848
347.36        21.28382
347.81        21.03736
348.26        20.94119
348.72        20.96148
349.17        21.03226
349.62        21.04222
350.07        20.96438
350.52        20.83196
350.97        20.71847
351.42        20.73877
351.87        20.90423
352.32        21.15741
352.77        21.39603
353.22        21.47238
353.67        21.35647
354.13        21.11641
354.58        20.80479
355.03        20.55664
355.48        20.41947
355.93        20.36131
356.38        20.35747
356.83        20.36851
357.28        20.37136
357.73        20.37202
358.18        20.36395
358.63         20.3331
359.08        20.27329
359.53        20.18459
359.98        20.05292
360.43        19.86285
360.88        19.62366
361.33        19.34645
361.78        19.07286
362.23        18.90569
362.68        18.86875
363.13        18.86446
363.58        18.82703
364.03        19.02286
364.48        18.82141
364.93        18.72188
365.38        18.57283
365.83        18.43615
366.28        18.32203
366.73        18.22586
367.18        18.12425
367.63        17.96607
368.08        17.74891
368.53         17.4922
368.98        17.25321
369.43        17.12004
369.88        17.10741
370.33        17.18534
370.78        17.27846
371.23        17.26472
371.68        17.11227
372.13        16.85608
372.58        16.56395
373.03        16.34805
373.48        16.24498
373.93         16.2281
374.38        16.25001
374.83        16.23472
375.28        16.16156
375.72        16.04286
376.17        15.94264
376.62        15.92067
377.07         15.9795
377.52        16.07905
377.97        16.15728
378.42        16.12238
378.87        15.95956
379.32        15.71603
379.77        15.43375
380.22        15.17205
380.67        14.95665
381.11        14.77073
381.56        14.64105
382.01         14.6094
382.46        14.67039
382.91        14.80511
383.36        14.93692
383.81        14.94503
384.26        14.80513
384.71        14.55395
385.15        14.25317
385.60        14.03299
386.05        13.92282
386.50          13.897
386.95        13.92598
387.40        13.96086
387.85        13.98417
388.29        13.99847
388.74        14.03327
389.19        14.09834
389.64        14.18745
390.09        14.27796
390.54        14.33866
390.98        14.32323
391.43        14.23252
391.88        14.09377
392.33        13.92471
392.78        13.77288
393.23        13.65884
393.67        13.50947
394.12        13.36496
394.57        13.43374
395.02        13.47425
395.47        13.45537
395.91        13.32061
396.36        13.24301
396.81        13.23337
397.26        13.19525
397.71        13.13409
398.15        13.10861
398.60        13.13293
399.05        13.13416
399.50        13.12673
399.95        13.21709
400.39        13.36103
400.84        13.36081
401.29        13.21802
401.74        13.06947
402.18        12.96071
402.63        12.91585
403.08        12.92881
403.53        12.91716
403.97        12.87921
404.42        12.88831
404.87        12.93183
405.32         12.9616
405.76        12.96784
406.21        12.92853
406.66        12.86642
407.11        12.88001
407.55         12.9403
408.00        12.90351
408.45        12.76745
408.90        12.57554
409.34        12.39596
409.79        12.39309
410.24        12.53095
410.68        12.58827
411.13        12.54605
411.58        12.53712
412.03        12.57671
412.47        12.62384
412.92        12.66825
413.37        12.72262
413.81        12.75941
414.26        12.74823
414.71        12.68438
415.15        12.58021
415.60        12.46872
416.05        12.41238
416.49        12.42921
416.94        12.49535
417.39        12.58182
417.83        12.64407
418.28        12.66122
418.73        12.64121
419.17        12.59096
419.62        12.52528
420.07        12.45906
420.51        12.39848
420.96        12.34025
421.41        12.29484
421.85        12.26214
422.30        12.18475
422.74        12.10968
423.19        12.26042
423.64        12.58121
424.08        12.73932
424.53        12.66828
424.98        12.63202
425.42        12.64017
425.87         12.4517
426.31        12.15709
426.76        12.16629
427.21        12.42269
427.65        12.46926
428.10        12.30607
428.54         12.2502
428.99        12.30054
429.44        12.39707
429.88        12.45966
430.33        12.21939
430.77        11.81748
431.22        11.77059
431.66        12.06187
432.11        12.28754
432.56        12.37688
433.00        12.44413
433.45        12.38362
433.89        12.13163
434.34        11.93096
434.78        11.37465
435.23        11.90482
435.67        12.36621
436.12         12.5873
436.57        12.70035
437.01        12.60894
437.46        12.55069
437.90        12.59597
438.35        12.67435
438.79        12.39219
439.24        12.26901
439.68        12.20829
440.13         12.1716
440.57        12.14675
441.02        12.22236
441.46        12.35924
441.91        12.27535
442.35        12.05398
442.80        12.20351
443.24        12.61189
443.69           12.57
444.13        12.12698
444.58        11.93638
445.02        12.00982
445.47        12.02038
445.91        11.94249
446.36        11.90609
446.80        11.90479
447.24        11.90187
447.69        11.90668
448.13        11.96576
448.58        12.06108
449.02        12.12126
449.47        12.14378
449.91         12.1842
450.36        12.24103
450.80        12.26941
451.25        12.27212
451.69        12.27523
452.13        12.27623
452.58        12.26018
453.02        12.21672
453.47        12.13678
453.91        12.02312
454.36         11.9053
454.80        11.79532
455.24        11.69868
455.69         11.6511
456.13        11.65859
456.58        11.71867
457.02        11.87038
457.46          12.032
457.91        11.99621
458.35        11.84463
458.79        11.77559
459.24        11.81774
459.68        11.84942
460.13        11.86052
460.57        11.81697
461.01        11.77064
461.46        11.74145
461.90        11.68937
462.34        11.67814
462.79        11.89125
463.23        11.99806
463.68        12.03289
464.12        12.03004
464.56        11.99722
465.01        11.97903
465.45        11.94617
465.89        11.85304
466.34        11.74778
466.78        11.68111
467.22        11.64317
467.67        11.86133
468.11        11.79936
468.55        11.76502
468.99        11.63774
469.44        11.59184
469.88        11.63495
470.32         11.6666
470.77        11.68804
471.21        11.73827
471.65        11.81525
472.10        11.90944
472.54        11.98773
472.98        12.01565
473.42         11.9934
473.87        11.90209
474.31         11.7931
474.75         11.8577
475.20        12.06577
475.64        12.16859
476.08        12.14527
476.52         12.2003
476.97        12.34081
477.41        12.32904
477.85        12.28635
478.29        12.38551
478.74        12.31913
479.18        12.23003
479.62         12.4314
480.06        12.47313
480.50        12.48592
480.95        12.46507
481.39         12.4128
481.83        12.60354
482.27        12.66157
482.72        12.67809
483.16        12.90876
483.60        12.96623
484.04        12.94119
484.48        12.90015
484.93         12.9886
485.37        12.92918
485.81        13.19884
486.25        13.62729
486.69        13.02787
487.14        12.72339
487.58        13.75628
488.02        13.66256
488.46        13.64704
488.90        13.87787
489.34        13.29302
489.79        13.18149
490.23         13.6662
490.67        14.03004
491.11         14.3096
491.55        14.37887
491.99         14.3053
492.43        14.38533
492.88        14.63038
493.32        14.80256
493.76        14.87509
494.20        14.97431
494.64        15.11362
495.08        15.21109
495.52        15.27921
495.96        15.46857
496.41        15.77659
496.85        15.77665
497.29        15.57372
497.73        15.74886
498.17        16.23355
498.61        16.48747
499.05        16.44549
499.49        16.42019
499.93        16.46788
500.37        16.52708
500.82        16.60191
501.26        16.73758
501.70        16.94265
502.14        16.85919
502.58        17.08072
503.02        17.14591
503.46        17.16102
503.90        17.15805
504.34        17.14234
504.78        17.17779
505.22        17.26523
505.66        17.35333
506.10        17.44634
506.54        17.59778
506.98        17.80569
507.42        17.96821
507.86        18.17982
508.30        18.25585
508.74         18.2274
509.18         18.1099
509.62        17.97476
510.06        17.93719
510.50        18.02296
510.94        18.20054
511.38        18.40075
511.82        18.51083
512.26        18.50242
512.70         18.4128
513.14        18.29873
513.58        18.24315
514.02        18.27104
514.46        18.36847
514.90        18.49995
515.34        18.54487
515.78        18.59232
516.22        18.57448
516.66        18.55481
517.10        18.57798
517.54         18.6535
517.98        18.76147
518.42        18.86136
518.86        18.89444
519.30        18.84805
519.74        18.74279
520.18        18.62253
520.62        18.55377
521.06        18.55392
521.50        18.60576
521.93        18.67351
522.37        18.69038
522.81        18.64302
523.25        18.54859
523.69        18.44513
524.13        18.39215
524.57        18.39924
525.01         18.4431
525.45        18.48008
525.89        18.44199
526.32        18.31505
526.76        18.13763
527.20        17.94869
527.64        17.81198
528.08        17.74585
528.52        17.72318
528.96        17.73762
529.40        17.77923
529.83        17.83316
530.27         17.9028
530.71        17.94417
531.15        17.88761
531.59         17.7276
532.03         17.4874
532.46        17.23626
532.90        17.10032
533.34        17.10361
533.78        17.20819
534.22        17.35122
534.66        17.43356
535.09        17.42849
535.53         17.3729
535.97        17.29477
536.41        17.24044
536.85        17.22619
537.28        17.23271
537.72         17.2601
538.16        17.30915
538.60        17.37535
539.04        17.46484
539.47        17.55243
539.91        17.60776
540.35        17.62268
540.79        17.61029
541.22        17.59632
541.66        17.62471
542.10        17.70528
542.54        17.82458
542.97        17.95926
543.41         18.0832
543.85         18.1851
544.29        18.27563
544.72        18.36102
545.16        18.46512
545.60        18.58789
546.04        18.72237
546.47        18.86519
546.91        19.00735
547.35        19.14384
547.79        19.28467
548.22        19.42504
548.66        19.55395
549.10         19.6833
549.53        19.88502
549.97        20.13798
550.41        20.33919
550.84         20.4762
551.28         20.6032
551.72        20.73362
552.15        20.86446
552.59        21.00541
553.03        21.14888
553.46        21.28656
553.90        21.42295
554.34        21.55429
554.77        21.69008
555.21        21.82229
555.65         21.9383
556.08        22.01431
556.52        22.10206
556.96        22.20009
557.39        22.34035
557.83        22.50677
558.27         22.5977
558.70        22.61865
559.14        22.66281
559.57        22.72962
560.01        22.79578
560.45        22.84932
560.88        22.86072
561.32        22.87691
561.75        22.95658
562.19        23.09591
562.63        23.27542
563.06        23.43295
563.50        23.40308
563.93        23.23703
564.37        23.21528
564.80        23.34906
565.24        23.51068
565.68        23.68247
566.11        23.81275
566.55        24.01622
566.98        24.20692
567.42         24.3947
567.85        24.46846
568.29        24.47172
568.72        24.48263
569.16        24.53072
569.60        24.68687
570.03         24.9816
570.47        25.07072
570.90        25.19697
571.34        25.83873
571.77        25.78134
572.21        25.74337
572.64        25.93719
573.08        25.95262
573.51        26.30006
573.95        26.42143
574.38        26.37766
574.82        26.49355
