SpectraSmart Spectrum 2.9.0.0
--------- Device Information -----------
Spectrum Name :  反射率_0
Saving Time :  2024/04/27 22:11:42
Spectro-Module Model Name : SE2030-DUVN
Spectro-Module Serial Number : OS361AC55029948
Wavelength Start : 200
Wavelength End : 1025
Wavelength Unit : Wavelength(nm)
Spectrum Unit : Reflectance(%)
-----------Spectrum Setting ------------
Integration Time : 20ms
Average : 10
Boxcar : 0
Background removal :  enabled
linearity correction :  enabled
SC :  disabled
Intensity correction :  disabled
DWT denoise :  enabled
savitzky-golay :  disabled
FFT :  disabled
Running average :  disabled
Kalman :  disabled
High pass :  disabled
---------------BEGIN--------------------
Wavelength(nm)             Reflectance(%)
200.29               0
200.75       -73.05617
201.21        -34.1371
201.67      -0.8190106
202.13        15.53785
202.58        20.94241
203.04        20.81289
203.50        20.52554
203.96        25.83924
204.42        35.91462
204.88        47.60484
205.34        56.58231
205.80        59.20091
206.26        54.97851
206.72        42.08949
207.18        21.56583
207.64         12.2235
208.10        25.01469
208.55        46.27556
209.01        59.39246
209.47        59.34669
209.93        44.67987
210.39      -0.5927063
210.85        -146.052
211.31       -344.3929
211.77       -149.1284
212.23       -8.510098
212.69        42.41719
213.14        56.66193
213.60        53.20057
214.06        36.26495
214.52        3.577825
214.98       -20.67441
215.44       -9.969687
215.90        12.96764
216.36        31.64248
216.81        41.58787
217.27        45.26337
217.73        46.54467
218.19        46.03255
218.65        43.71751
219.11        39.94483
219.57        34.20166
220.02        27.64008
220.48        25.17507
220.94        27.80971
221.40        33.54092
221.86        39.94556
222.32        44.58535
222.77        47.21198
223.23        48.55724
223.69        48.67899
224.15        47.35987
224.61         44.8828
225.06        41.27039
225.52        37.92131
225.98        37.18171
226.44        39.05212
226.90        41.82612
227.36        44.35488
227.81        45.88696
228.27        46.45895
228.73         46.4494
229.19        45.49242
229.65        42.97103
230.10        39.06892
230.56        34.58389
231.02        30.64317
231.48        28.79174
231.93        29.09179
232.39        30.93915
232.85        33.60601
233.31        36.08783
233.77        37.99617
234.22        39.63963
234.68        40.66456
235.14        40.74183
235.60        39.87151
236.05        37.86887
236.51        35.51324
236.97        34.58921
237.43        35.78832
237.88        38.93615
238.34        42.17338
238.80        43.45883
239.26          42.153
239.71         37.5998
240.17        30.16372
240.63        26.52613
241.08        32.25058
241.54        42.09401
242.00        49.78796
242.46        52.93792
242.91        52.20448
243.37        47.02776
243.83        34.00368
244.28        14.31759
244.74        7.005546
245.20        16.58239
245.66         27.4751
246.11        30.44393
246.57        26.04202
247.03        15.74377
247.48      -0.2845224
247.94        -9.80748
248.40       -1.491894
248.85        15.62546
249.31        32.74934
249.77        44.16338
250.22        49.80802
250.68        52.09533
251.14         51.8422
251.59        49.09471
252.05         43.7418
252.51        34.24598
252.96         20.6494
253.42        11.07574
253.88        11.29799
254.33        18.65988
254.79        26.25805
255.25        29.40242
255.70        29.14562
256.16        27.85279
256.62        27.73283
257.07        30.90782
257.53        36.33805
257.99        41.85469
258.44        45.83992
258.90        47.26163
259.35        46.37339
259.81        44.44413
260.27        42.14455
260.72        40.22392
261.18        39.08287
261.63        38.27142
262.09        37.70596
262.55        37.04297
263.00        36.20356
263.46        35.40651
263.91        34.73965
264.37        34.54415
264.83        34.73006
265.28        35.09151
265.74        35.40179
266.19        35.25974
266.65        34.68293
267.11         33.7991
267.56        32.76955
268.02        31.93425
268.47        31.34801
268.93        30.90705
269.38        30.57399
269.84        30.30492
270.30        30.05168
270.75        29.84502
271.21         29.5472
271.66        28.89956
272.12        27.91388
272.57        26.65862
273.03        25.43966
273.48        24.66458
273.94        24.44686
274.39         24.6033
274.85         24.9014
275.31        24.95605
275.76        24.65919
276.22        24.13885
276.67        23.50732
277.13        22.99384
277.58        22.60847
278.04        22.31891
278.49        21.97852
278.95        21.46637
279.40        20.75202
279.86        19.97702
280.31        19.27353
280.77        18.91305
281.22        18.89365
281.68        19.12156
282.13        19.43186
282.59        19.62723
283.04        19.64167
283.50        19.53078
283.95        19.33112
284.41        19.12362
284.86        18.92897
285.32        18.74287
285.77         18.5386
286.22        18.30194
286.68        18.05265
287.13        17.78432
287.59        17.57549
288.04        17.47472
288.50        17.50705
288.95        17.62586
289.41         17.7645
289.86        17.79041
290.32        17.69445
290.77        17.51458
291.22        17.33284
291.68        17.27126
292.13        17.35178
292.59        17.54207
293.04        17.78896
293.50        18.02813
293.95        18.23179
294.40        18.43448
294.86        18.65093
295.31        18.89594
295.77        19.18263
296.22        19.48486
296.68        19.82117
297.13        20.20377
297.58        20.62873
298.04         21.0795
298.49        21.50929
298.95        21.85039
299.40        22.09373
299.85        22.25992
300.31        22.41504
300.76        22.63079
301.21        22.93248
301.67        23.29248
302.12        23.64652
302.58        23.92222
303.03        24.09161
303.48        24.18299
303.94        24.25472
304.39        24.35843
304.84        24.51908
305.30        24.72248
305.75        24.90453
306.20        24.99521
306.66         24.9919
307.11        24.89345
307.57        24.78877
308.02        24.76221
308.47        24.83922
308.93         24.9846
309.38        25.09536
309.83         25.0271
310.29        24.76984
310.74         24.3724
311.19        23.94832
311.65        23.67729
312.10        23.58763
312.55        23.62085
313.00        23.70947
313.46        23.74975
313.91        23.70011
314.36        23.59504
314.82        23.41736
315.27        23.13513
315.72        22.76266
316.18        22.31901
316.63        21.87593
317.08        21.56915
317.53        21.42702
317.99        21.41121
318.44        21.45327
318.89        21.42103
319.35        21.27451
319.80        21.04852
320.25        20.78275
320.70        20.54845
321.16        20.36167
321.61        20.20197
322.06        20.04345
322.51        19.85124
322.97        19.61624
323.42        19.36623
323.87        19.11709
324.32        18.89536
324.78        18.70975
325.23        18.55081
325.68        18.41722
326.13        18.31029
326.59        18.21403
327.04        18.14228
327.49        18.06036
327.94        17.91774
328.39        17.70425
328.85        17.43101
329.30        17.13962
329.75        16.91282
330.20        16.77768
330.66        16.70728
331.11         16.6715
331.56        16.57975
332.01         16.4071
332.46        16.17808
332.92         15.9336
333.37        15.75613
333.82        15.66535
334.27        15.62978
334.72        15.61214
335.17        15.55337
335.63        15.43053
336.08        15.27871
336.53        15.09778
336.98        14.89374
337.43        14.68295
337.88        14.46867
338.34        14.29404
338.79        14.22692
339.24        14.27825
339.69        14.42084
340.14        14.59468
340.59        14.70154
341.05         14.7064
341.50         14.6338
341.95         14.4988
342.40        14.33799
342.85        14.17066
343.30         13.9905
343.75        13.81075
344.20        13.65318
344.66        13.53054
345.11        13.44429
345.56         13.3917
346.01          13.359
346.46        13.33692
346.91        13.31901
347.36        13.30814
347.81        13.30832
348.26        13.31933
348.72        13.34418
349.17        13.35375
349.62        13.30105
350.07        13.18131
350.52        13.00018
350.97        12.83755
351.42        12.82079
351.87        12.96449
352.32        13.22698
352.77        13.47383
353.22        13.50006
353.67        13.27019
354.13        12.86308
354.58        12.40588
355.03        12.15306
355.48        12.16938
355.93        12.38554
356.38        12.66357
356.83        12.78588
357.28        12.70143
357.73        12.48127
358.18        12.24119
358.63        12.16027
359.08        12.26972
359.53        12.48928
359.98        12.71529
360.43        12.79301
360.88        12.68416
361.33        12.44941
361.78        12.13333
362.23        11.84555
362.68        11.63591
363.13        11.40281
363.58        11.15635
364.03        11.32195
364.48        11.23286
364.93        11.39908
365.38        11.56108
365.83        11.63159
366.28        11.57758
366.73        11.43121
367.18        11.22632
367.63        11.00738
368.08        10.80102
368.53        10.59817
368.98         10.4199
369.43        10.29756
369.88        10.23784
370.33        10.24216
370.78        10.27648
371.23        10.28062
371.68        10.23291
372.13         10.1332
372.58        10.01963
373.03        9.957834
373.48        9.962657
373.93         10.0257
374.38        10.07288
374.83        9.987795
375.28        9.759936
375.72        9.421303
376.17        9.124701
376.62         9.07175
377.07         9.28763
377.52          9.6855
377.97        10.10041
378.42         10.2757
378.87        10.15418
379.32        9.831069
379.77        9.417857
380.22        9.082741
380.67        8.880822
381.11        8.758968
381.56        8.708728
382.01        8.714993
382.46         8.75972
382.91        8.855501
383.36        8.949218
383.81        8.951004
384.26        8.844276
384.71        8.644792
385.15        8.415158
385.60        8.287549
386.05         8.28352
386.50         8.37745
386.95        8.499897
387.40        8.539161
387.85        8.477831
388.29        8.351021
388.74        8.248983
389.19        8.279992
389.64        8.452938
390.09        8.712765
390.54        8.974442
390.98         9.10279
391.43        9.066821
391.88        8.923303
392.33        8.719936
392.78        8.538851
393.23          8.4122
393.67        8.278357
394.12        8.166739
394.57        8.208944
395.02        8.255018
395.47        8.287203
395.91        8.257001
396.36        8.242894
396.81        8.244408
397.26        8.207927
397.71        8.144738
398.15        8.105868
398.60        8.104619
399.05        8.090637
399.50        8.076124
399.95        8.131688
400.39        8.229804
400.84         8.24905
401.29        8.179462
401.74         8.08569
402.18        7.992521
402.63        7.922828
403.08        7.888846
403.53        7.867499
403.97        7.865236
404.42        7.917275
404.87        8.002513
405.32        8.070441
405.76         8.10704
406.21        8.100826
406.66        8.072149
407.11        8.092685
407.55        8.146456
408.00        8.140377
408.45        8.061324
408.90        7.918995
409.34        7.756759
409.79        7.687893
410.24        7.710063
410.68        7.718571
411.13        7.708271
411.58        7.749833
412.03         7.83406
412.47        7.902055
412.92         7.93486
413.37        7.952271
413.81        7.945851
414.26         7.90977
414.71        7.846382
415.15         7.75633
415.60        7.668427
416.05        7.633086
416.49        7.662545
416.94        7.739719
417.39        7.829257
417.83        7.875798
418.28        7.859775
418.73        7.793399
419.17        7.701688
419.62        7.628774
420.07        7.593334
420.51        7.592155
420.96        7.601298
421.41         7.59389
421.85        7.563197
422.30        7.483709
422.74        7.410948
423.19        7.521233
423.64        7.786898
424.08        7.991598
424.53        8.048951
424.98        8.063479
425.42        8.025217
425.87         7.80037
426.31        7.488762
426.76        7.414927
427.21        7.559578
427.65         7.63196
428.10        7.593453
428.54        7.582322
428.99        7.586143
429.44        7.585696
429.88        7.566291
430.33        7.422601
430.77        7.241836
431.22        7.311222
431.66        7.589178
432.11        7.762227
432.56        7.767916
433.00        7.698057
433.45        7.517619
433.89        7.247435
434.34        7.064681
434.78        6.712238
435.23        7.039333
435.67        7.363871
436.12        7.573613
436.57         7.74441
437.01        7.790883
437.46        7.812443
437.90        7.845273
438.35        7.853526
438.79        7.613114
439.24        7.484601
439.68        7.418777
440.13        7.386262
440.57        7.372728
441.02        7.418705
441.46        7.497466
441.91        7.440899
442.35        7.307695
442.80        7.413196
443.24        7.691043
443.69        7.706277
444.13        7.468843
444.58        7.356301
445.02        7.371907
445.47        7.324872
445.91         7.22296
446.36        7.186046
446.80        7.216777
447.24        7.281251
447.69        7.359913
448.13        7.447428
448.58         7.52186
449.02        7.551549
449.47        7.548096
449.91        7.569052
450.36        7.619031
450.80        7.662107
451.25        7.692205
451.69        7.716603
452.13        7.729081
452.58        7.722514
453.02        7.691637
453.47        7.632668
453.91        7.547331
454.36        7.454342
454.80        7.358113
455.24        7.258985
455.69        7.182812
456.13        7.138892
456.58        7.134577
457.02        7.204195
457.46        7.300566
457.91         7.29186
458.35        7.225755
458.79        7.216905
459.24        7.280007
459.68        7.340889
460.13        7.383944
460.57        7.372274
461.01        7.337659
461.46        7.294429
461.90        7.235156
462.34        7.228024
462.79        7.390316
463.23        7.508755
463.68        7.579596
464.12        7.589821
464.56        7.536277
465.01        7.463297
465.45        7.369153
465.89        7.252162
466.34         7.15122
466.78        7.090559
467.22         7.06088
467.67        7.194087
468.11        7.162403
468.55        7.153546
468.99        7.096763
469.44        7.101628
469.88        7.170357
470.32        7.236786
470.77        7.288322
471.21        7.328676
471.65        7.354356
472.10        7.367217
472.54         7.36319
472.98        7.344981
473.42        7.319026
473.87        7.266562
474.31        7.212767
474.75        7.266959
475.20        7.405653
475.64        7.479678
476.08        7.468384
476.52        7.485396
476.97        7.534745
477.41        7.473608
477.85        7.391177
478.29        7.416933
478.74        7.373262
479.18        7.338777
479.62        7.488021
480.06        7.528924
480.50        7.533383
480.95         7.50399
481.39         7.45148
481.83        7.558298
482.27        7.604023
482.72         7.63816
483.16        7.804712
483.60        7.853619
484.04        7.825388
484.48        7.782273
484.93        7.863999
485.37        7.837493
485.81        7.913293
486.25        8.466592
486.69        7.966006
487.14        7.488736
487.58        8.485495
488.02        8.402685
488.46        8.434066
488.90        8.456529
489.34         7.94208
489.79        7.836619
490.23        8.200508
490.67        8.437657
491.11         8.55763
491.55        8.592916
491.99        8.582515
492.43        8.651722
492.88        8.803365
493.32        8.904024
493.76        8.946409
494.20        9.022941
494.64        9.144673
495.08        9.256685
495.52        9.354689
495.96        9.501066
496.41        9.712611
496.85        9.709507
497.29        9.575551
497.73        9.687099
498.17        10.00698
498.61        10.19884
499.05        10.20322
499.49        10.18523
499.93        10.17657
500.37        10.14973
500.82        10.13578
501.26        10.20309
501.70        10.36764
502.14         10.3957
502.58        10.62216
503.02        10.71607
503.46        10.73065
503.90         10.6993
504.34        10.64756
504.78        10.65225
505.22        10.72454
505.66        10.82011
506.10        10.92464
506.54        11.04623
506.98        11.17625
507.42        11.25895
507.86        11.36645
508.30        11.40197
508.74        11.39113
509.18        11.33997
509.62        11.28012
510.06        11.26318
510.50        11.30142
510.94         11.3803
511.38        11.47804
511.82        11.55815
512.26        11.60718
512.70        11.63588
513.14        11.64717
513.58        11.64073
514.02        11.62118
514.46        11.59778
514.90        11.58131
515.34        11.54982
515.78        11.57476
516.22        11.59872
516.66        11.64106
517.10        11.69684
517.54        11.76111
517.98        11.83107
518.42        11.89025
518.86         11.9155
519.30        11.90159
519.74        11.85351
520.18        11.79116
520.62        11.74597
521.06        11.72852
521.50        11.73632
521.93        11.75334
522.37        11.74499
522.81        11.70649
523.25        11.64236
523.69        11.58326
524.13        11.57697
524.57        11.62711
525.01        11.71605
525.45        11.78845
525.89        11.75778
526.32        11.60892
526.76        11.38124
527.20        11.14119
527.64        10.99658
528.08        10.97364
528.52        11.03464
528.96        11.13383
529.40        11.19878
529.83        11.20436
530.27        11.17215
530.71        11.10806
531.15        11.01916
531.59        10.91592
532.03         10.7977
532.46        10.68344
532.90        10.61639
533.34        10.60328
533.78        10.63595
534.22        10.69745
534.66        10.75873
535.09        10.80747
535.53        10.84724
535.97        10.87784
536.41         10.9009
536.85        10.91746
537.28        10.92733
537.72         10.9276
538.16        10.91406
538.60        10.89121
539.04        10.86707
539.47         10.8558
539.91        10.88434
540.35         10.9523
540.79        11.05169
541.22        11.16177
541.66        11.24817
542.10        11.30152
542.54        11.33371
542.97        11.35322
543.41        11.38142
543.85        11.42416
544.29        11.47484
544.72          11.537
545.16        11.62849
545.60        11.74449
546.04        11.88252
546.47        12.02427
546.91        12.13334
547.35        12.20311
547.79        12.24917
548.22        12.29012
548.66        12.35711
549.10        12.46497
549.53         12.6488
549.97        12.87912
550.41        13.06412
550.84        13.18798
551.28        13.29529
551.72        13.40053
552.15        13.51113
552.59        13.63522
553.03        13.75803
553.46        13.87749
553.90        14.00349
554.34        14.13229
554.77        14.27024
555.21        14.39121
555.65        14.45316
556.08        14.43834
556.52          14.395
556.96        14.35961
557.39        14.40781
557.83        14.54138
558.27        14.68073
558.70        14.79348
559.14        14.88097
559.57        14.92797
560.01        14.93635
560.45        14.93147
560.88        14.94555
561.32         15.0174
561.75        15.16495
562.19        15.35093
562.63         15.5138
563.06        15.60073
563.50        15.51892
563.93         15.3304
564.37        15.27018
564.80         15.3581
565.24        15.48735
565.68        15.62459
566.11        15.75204
566.55        15.85862
566.98        15.96464
567.42        16.07163
567.85        16.13506
568.29        16.18774
568.72        16.26841
569.16        16.38061
569.60        16.54999
570.03        16.79357
570.47        16.88298
570.90        16.98518
571.34        17.46447
571.77        17.43768
572.21        17.43195
572.64        17.58546
573.08        17.60723
573.51        17.98843
573.95        18.10581
574.38        18.00724
574.82        18.18897
