SpectraSmart Spectrum 2.9.0.0
--------- Device Information -----------
Spectrum Name :  反射率_0
Saving Time :  2024/04/27 23:01:07
Spectro-Module Model Name : SE2030-DUVN
Spectro-Module Serial Number : OS361AC55029948
Wavelength Start : 200
Wavelength End : 1025
Wavelength Unit : Wavelength(nm)
Spectrum Unit : Reflectance(%)
-----------Spectrum Setting ------------
Integration Time : 20ms
Average : 10
Boxcar : 0
Background removal :  enabled
linearity correction :  enabled
SC :  disabled
Intensity correction :  disabled
DWT denoise :  enabled
savitzky-golay :  disabled
FFT :  disabled
Running average :  disabled
Kalman :  disabled
High pass :  disabled
---------------BEGIN--------------------
Wavelength(nm)             Reflectance(%)
200.29               0
200.75        68.54698
201.21        55.40205
201.67        45.21257
202.13        41.30282
202.58        41.37148
203.04         43.5349
203.50        47.63878
203.96        53.13347
204.42        58.72422
204.88        63.95801
205.34        68.10146
205.80        70.81904
206.26        72.41594
206.72        72.96229
207.18        71.88145
207.64        68.71158
208.10        65.29136
208.55        63.68488
209.01        62.23615
209.47        59.81631
209.93        54.96344
210.39        42.84406
210.85        7.528164
211.31       -30.29024
211.77        24.08337
212.23         57.2559
212.69        67.78959
213.14        69.19742
213.60        64.79565
214.06        54.87603
214.52        38.35564
214.98        28.58304
215.44        37.54795
215.90         51.5901
216.36        63.10952
216.81         71.0279
217.27        76.73322
217.73        81.98348
218.19        85.22144
218.65        83.10728
219.11        74.88892
219.57        60.82949
220.02        44.84054
220.48        38.39192
220.94        44.96317
221.40         59.6084
221.86        75.35901
222.32        85.46567
222.77        89.55436
223.23        90.15161
223.69        89.27991
224.15        88.99469
224.61         89.7581
225.06        90.90808
225.52        91.75423
225.98        90.83025
226.44        88.41734
226.90        85.58406
227.36        83.56527
227.81        83.13051
228.27        84.17504
228.73        86.29318
229.19        88.34203
229.65         88.0868
230.10        84.96803
230.56        80.21479
231.02        75.60312
231.48        73.59766
231.93        74.37716
232.39        77.01575
232.85        80.24363
233.31        82.44582
233.77        83.21946
234.22         83.1729
234.68        82.57481
235.14        81.71482
235.60        80.73235
236.05        79.41518
236.51        77.99635
236.97        77.28671
237.43        77.56934
237.88        78.82663
238.34        80.15832
238.80        80.79659
239.26        80.44408
239.71        79.09534
240.17        76.03625
240.63        72.22221
241.08        70.17745
241.54        69.93132
242.00        70.50511
242.46         70.7851
242.91        70.60052
243.37        69.90237
243.83        68.62834
244.28        68.03961
244.74        70.21404
245.20        73.16532
245.66         74.3505
246.11        73.41101
246.57        70.33808
247.03        64.52653
247.48        54.98771
247.94        45.64859
248.40        43.03981
248.85        45.79232
249.31        51.80107
249.77        58.85975
250.22        65.40781
250.68        71.24041
251.14          75.433
251.59        77.33069
252.05         77.3068
252.51        74.95689
252.96        70.49306
253.42        67.73703
253.88        68.47058
254.33        71.19572
254.79        73.10205
255.25        71.59727
255.70         67.6197
256.16        63.42209
256.62        60.79715
257.07        61.64663
257.53         65.2302
257.99        69.23856
258.44        72.22562
258.90        73.51997
259.35        72.97853
259.81        71.79004
260.27         69.9981
260.72        67.67327
261.18        65.50609
261.63        63.32241
262.09        61.71325
262.55        60.90551
263.00        60.70825
263.46         61.0336
263.91        61.48695
264.37        61.90608
264.83        62.10212
265.28        62.12376
265.74        61.96849
266.19        61.37099
266.65        60.45584
267.11           59.22
267.56        57.96037
268.02        57.27177
268.47        57.18785
268.93        57.55935
269.38        57.96088
269.84        57.75159
270.30        56.79695
270.75        55.32678
271.21        53.70252
271.66         52.4222
272.12        51.64641
272.57        51.14199
273.03        50.79972
273.48        50.35623
273.94        49.78225
274.39        49.12614
274.85        48.40949
275.31        47.52589
275.76        46.48181
276.22        45.37394
276.67        44.29764
277.13        43.53964
277.58        43.06034
278.04        42.81617
278.49        42.61121
278.95        42.30528
279.40         41.7818
279.86        41.16904
280.31        40.44768
280.77        39.74465
281.22        39.04795
281.68         38.4026
282.13          37.783
282.59        37.23822
283.04        36.73399
283.50        36.28136
283.95        35.86575
284.41        35.52469
284.86        35.22308
285.32        34.96939
285.77        34.67478
286.22         34.2634
286.68        33.74788
287.13        33.13232
287.59        32.52138
288.04        31.98646
288.50        31.59216
288.95        31.28395
289.41        31.06542
289.86        30.88184
290.32        30.73484
290.77        30.61811
291.22        30.52452
291.68         30.4346
292.13         30.3286
292.59         30.2168
293.04        30.10467
293.50        30.03909
293.95        30.01735
294.40        30.04094
294.86        30.09003
295.31        30.12001
295.77        30.13692
296.22         30.1509
296.68        30.20931
297.13        30.36008
297.58        30.61739
298.04        30.95551
298.49        31.33063
298.95        31.69334
299.40        32.01945
299.85        32.31921
300.31        32.61702
300.76        32.91558
301.21        33.22509
301.67        33.54163
302.12        33.82967
302.58        34.07952
303.03        34.27567
303.48        34.44135
303.94        34.62479
304.39        34.84954
304.84        35.13413
305.30        35.46403
305.75        35.78482
306.20        36.05486
306.66        36.27015
307.11        36.41437
307.57        36.52048
308.02        36.57518
308.47        36.59926
308.93         36.5946
309.38        36.54964
309.83        36.47436
310.29        36.38383
310.74        36.27103
311.19        36.15171
311.65         36.0425
312.10        35.93136
312.55        35.82149
313.00        35.71745
313.46        35.62657
313.91           35.54
314.36        35.45528
314.82         35.3443
315.27        35.15918
315.72        34.89848
316.18        34.59128
316.63        34.27177
317.08        34.01543
317.53        33.84115
317.99         33.7215
318.44        33.64172
318.89        33.56031
319.35        33.45892
319.80         33.3497
320.25        33.21795
320.70        33.04594
321.16        32.82647
321.61        32.56743
322.06        32.29354
322.51        32.05249
322.97        31.85355
323.42        31.70124
323.87        31.55842
324.32        31.36937
324.78        31.11763
325.23        30.82288
325.68        30.52998
326.13        30.31861
326.59        30.19411
327.04        30.15532
327.49        30.12019
327.94        29.96469
328.39        29.65858
328.85         29.2272
329.30        28.77456
329.75        28.46937
330.20        28.36129
330.66        28.39336
331.11        28.47203
331.56        28.39223
332.01         28.1024
332.46        27.66216
332.92        27.17795
333.37        26.86366
333.82        26.77516
334.27        26.84847
334.72        26.99425
335.17        27.06601
335.63        27.00686
336.08         26.8786
336.53        26.70652
336.98        26.54345
337.43         26.4158
337.88        26.30397
338.34        26.21643
338.79        26.17691
339.24        26.18645
339.69        26.24301
340.14        26.32333
340.59        26.38392
341.05        26.41034
341.50        26.41463
341.95         26.3968
342.40        26.37046
342.85        26.33872
343.30        26.28887
343.75        26.22991
344.20        26.17829
344.66         26.1399
345.11        26.11505
345.56        26.07491
346.01        25.96842
346.46        25.79375
346.91        25.57049
347.36        25.36794
347.81        25.28787
348.26        25.35008
348.72         25.5282
349.17         25.7357
349.62        25.83417
350.07         25.7859
350.52        25.61418
350.97        25.42127
351.42        25.37382
351.87        25.49847
352.32        25.74067
352.77         25.9486
353.22        25.89279
353.67        25.53888
354.13        24.98325
354.58         24.3859
355.03        24.05227
355.48        24.05392
355.93        24.29632
356.38        24.60979
356.83        24.72785
357.28        24.58298
357.73        24.26422
358.18        23.88712
358.63        23.62875
359.08        23.53608
359.53        23.54228
359.98        23.58203
360.43        23.56087
360.88        23.45103
361.33        23.28842
361.78        23.09429
362.23         22.9327
362.68        22.82581
363.13        22.68446
363.58        22.48649
364.03        22.55993
364.48        22.32079
364.93        22.22962
365.38        22.11333
365.83        21.98093
366.28        21.82886
366.73         21.6718
367.18        21.49964
367.63        21.28213
368.08        21.02376
368.53        20.73254
368.98         20.4676
369.43        20.32179
369.88        20.30917
370.33        20.40304
370.78        20.51023
371.23        20.47925
371.68        20.27163
372.13        19.92361
372.58        19.53671
373.03        19.28026
373.48        19.19954
373.93        19.25158
374.38        19.33192
374.83        19.27401
375.28        19.04466
375.72        18.69203
376.17        18.35405
376.62        18.20279
377.07        18.26887
377.52        18.47762
377.97        18.70964
378.42        18.78384
378.87        18.65659
379.32        18.39517
379.77        18.07627
380.22        17.81254
380.67        17.64025
381.11        17.52447
381.56        17.44966
382.01        17.39248
382.46        17.34136
382.91        17.30925
383.36        17.28298
383.81        17.23593
384.26        17.16213
384.71        17.06324
385.15        16.94798
385.60        16.86387
386.05        16.81332
386.50        16.79567
386.95        16.79653
387.40        16.79184
387.85        16.77833
388.29        16.74932
388.74        16.74946
389.19         16.8068
389.64        16.91441
390.09          17.042
390.54        17.14298
390.98        17.14267
391.43        17.03555
391.88        16.85815
392.33        16.62919
392.78        16.40209
393.23        16.20642
393.67        15.96232
394.12        15.72867
394.57        15.76793
395.02        15.79905
395.47        15.77939
395.91         15.6423
396.36        15.58766
396.81        15.62312
397.26        15.63575
397.71        15.61192
398.15        15.59356
398.60        15.59677
399.05        15.54286
399.50        15.48125
399.95        15.58511
400.39        15.81039
400.84        15.91118
401.29        15.85039
401.74        15.72505
402.18        15.57373
402.63        15.44533
403.08        15.37089
403.53        15.31564
403.97        15.29498
404.42        15.37523
404.87        15.51239
405.32        15.60508
405.76        15.62819
406.21        15.56865
406.66        15.47125
407.11        15.47985
407.55        15.56802
408.00        15.55704
408.45        15.42695
408.90        15.20323
409.34        14.96335
409.79        14.91297
410.24        15.03721
410.68        15.11388
411.13        15.12763
411.58        15.22708
412.03        15.38782
412.47        15.48371
412.92        15.48756
413.37        15.44132
413.81        15.37036
414.26        15.32582
414.71        15.31801
415.15        15.33181
415.60        15.35832
416.05        15.38842
416.49        15.41749
416.94         15.4487
417.39        15.47267
417.83         15.4753
418.28        15.44858
418.73         15.3851
419.17        15.31059
419.62        15.27151
420.07        15.28316
420.51        15.34527
420.96        15.40303
421.41        15.38801
421.85        15.29013
422.30        15.06691
422.74        14.83628
423.19        14.95772
423.64        15.38071
424.08        15.67147
424.53        15.70714
424.98        15.74197
425.42        15.76649
425.87        15.50217
426.31        15.08208
426.76        15.03869
427.21        15.31568
427.65        15.34366
428.10        15.12974
428.54        15.07318
428.99        15.17012
429.44        15.33758
429.88        15.47772
430.33        15.25147
430.77        14.82624
431.22        14.85111
431.66        15.27848
432.11        15.56546
432.56        15.61561
433.00        15.53195
433.45        15.24832
433.89        14.93549
434.34        14.85978
434.78        14.21936
435.23        14.80306
435.67        15.34604
436.12        15.63592
436.57        15.71827
437.01        15.50096
437.46        15.38855
437.90        15.47748
438.35        15.64415
438.79         15.3859
439.24        15.31814
439.68        15.31127
440.13        15.32801
440.57        15.33757
441.02        15.42602
441.46        15.54507
441.91        15.35269
442.35        14.99553
442.80        15.15852
443.24           15.71
443.69        15.75705
444.13        15.31613
444.58        15.14411
445.02        15.24507
445.47         15.2187
445.91        15.07069
446.36        15.02292
446.80        15.07816
447.24        15.16591
447.69        15.25882
448.13        15.35562
448.58        15.42224
449.02        15.38916
449.47        15.29172
449.91        15.25515
450.36        15.29568
450.80        15.34476
451.25        15.38409
451.69        15.41048
452.13        15.41196
452.58        15.37934
453.02          15.323
453.47        15.26687
453.91        15.21741
454.36        15.19424
454.80        15.17424
455.24         15.1042
455.69        15.01793
456.13        14.94569
456.58        14.92383
457.02        15.06064
457.46        15.26825
457.91        15.26908
458.35        15.13955
458.79        15.09477
459.24        15.16089
459.68        15.19223
460.13        15.19374
460.57        15.14963
461.01        15.12966
461.46        15.14998
461.90        15.13021
462.34        15.10973
462.79        15.31875
463.23        15.34286
463.68        15.27154
464.12        15.21355
464.56        15.19306
465.01        15.24558
465.45        15.29241
465.89        15.21097
466.34        15.05081
466.78        14.89752
467.22        14.77402
467.67        15.02863
468.11        14.99582
468.55        15.04171
468.99        14.97461
469.44        14.95957
469.88        14.99379
470.32        14.97146
470.77        14.91606
471.21        14.91334
471.65        14.97516
472.10        15.07586
472.54        15.18046
472.98        15.25825
473.42        15.30217
473.87        15.27918
474.31          15.219
474.75        15.31039
475.20        15.50506
475.64        15.50266
476.08        15.31767
476.52        15.26604
476.97        15.36964
477.41        15.31886
477.85        15.25402
478.29        15.36949
478.74        15.27437
479.18         15.1512
479.62        15.38881
480.06        15.42769
480.50        15.43042
480.95        15.39447
481.39        15.31227
481.83        15.50401
482.27        15.50452
482.72         15.4348
483.16        15.64052
483.60           15.68
484.04        15.66051
484.48        15.71787
484.93        15.98252
485.37        15.82354
485.81         15.8938
486.25        16.48066
486.69        16.12322
487.14        15.59334
487.58        16.56799
488.02        16.45007
488.46        16.54062
488.90        16.85982
489.34         16.2849
489.79        16.11864
490.23         16.6031
490.67        16.85152
491.11        16.97025
491.55        16.93677
491.99        16.82447
492.43        16.84872
492.88        17.02348
493.32        17.17212
493.76        17.27362
494.20        17.43019
494.64        17.64858
495.08        17.84082
495.52        17.98756
495.96        18.21485
496.41        18.49743
496.85        18.36852
497.29        17.98855
497.73        18.06574
498.17        18.54133
498.61        18.83173
499.05        18.83992
499.49        18.83605
499.93        18.87091
500.37        18.91612
500.82        18.98306
501.26        19.12086
501.70        19.34208
502.14        19.23415
502.58        19.47675
503.02        19.55098
503.46        19.57664
503.90         19.5861
504.34        19.57647
504.78        19.60503
505.22        19.67044
505.66        19.72298
506.10        19.77239
506.54        19.88751
506.98        20.07062
507.42        20.20301
507.86        20.40555
508.30        20.49258
508.74        20.50035
509.18        20.44181
509.62        20.36243
510.06        20.33498
510.50        20.37801
510.94        20.47147
511.38        20.58578
511.82        20.67224
512.26        20.71568
512.70         20.7343
513.14        20.74008
513.58        20.74246
514.02        20.74759
514.46        20.76425
514.90        20.79895
515.34        20.79095
515.78        20.85975
516.22        20.90651
516.66        20.96089
517.10        21.00819
517.54        21.04494
517.98        21.07242
518.42        21.08614
518.86        21.08427
519.30        21.06673
519.74        21.03199
520.18        20.99313
520.62         20.9696
521.06        20.96709
521.50        20.98742
521.93        21.01008
522.37        20.99204
522.81        20.93013
523.25        20.83144
523.69         20.7405
524.13        20.72779
524.57        20.80031
525.01        20.93187
525.45        21.05303
525.89        21.05415
526.32        20.91289
526.76        20.67748
527.20        20.41762
527.64        20.24813
528.08        20.19914
528.52        20.22949
528.96        20.30162
529.40        20.35612
529.83        20.36812
530.27        20.35958
530.71        20.31869
531.15        20.22527
531.59        20.08513
532.03        19.90514
532.46        19.72609
532.90        19.62913
533.34        19.62755
533.78        19.69995
534.22        19.80468
534.66         19.8751
535.09           19.89
535.53        19.86999
535.97        19.83205
536.41        19.80712
536.85        19.80503
537.28        19.81591
537.72        19.82967
538.16        19.82946
538.60        19.81492
539.04        19.80087
539.47        19.79667
539.91          19.826
540.35        19.88675
540.79        19.97302
541.22        20.07002
541.66        20.15565
542.10        20.22235
542.54        20.27821
542.97         20.3255
543.41         20.3799
543.85        20.44433
544.29        20.51747
544.72        20.60118
545.16        20.71432
545.60        20.85161
546.04        21.00751
546.47        21.17347
546.91        21.33021
547.35        21.46849
547.79         21.5999
548.22        21.71725
548.66        21.80686
549.10        21.88361
549.53        22.02735
549.97        22.22494
550.41        22.37893
550.84        22.48124
551.28        22.59189
551.72         22.7118
552.15        22.81408
552.59        22.90658
553.03        22.98862
553.46        23.07442
553.90         23.2042
554.34        23.37647
554.77        23.58552
555.21         23.7924
555.65        23.93491
556.08        23.97672
556.52        23.99379
556.96         24.0068
557.39        24.08287
557.83        24.21586
558.27        24.28657
558.70        24.30255
559.14        24.36614
559.57        24.47165
560.01        24.59123
560.45         24.6957
560.88        24.72694
561.32        24.73103
561.75        24.77927
562.19        24.87862
562.63        25.02692
563.06        25.16345
563.50        25.10285
563.93        24.90147
564.37        24.86895
564.80        25.01699
565.24        25.19352
565.68        25.36036
566.11        25.51278
566.55        25.64081
566.98        25.76358
567.42        25.87779
567.85        25.90775
568.29        25.90431
568.72         25.9415
569.16        26.03671
569.60        26.19299
570.03         26.4273
570.47        26.48208
570.90        26.65276
571.34         27.0575
571.77        27.11319
572.21        27.04536
572.64        27.28284
573.08        27.22213
573.51        27.62676
573.95        27.73608
574.38         27.7023
574.82        27.73066
