SpectraSmart Spectrum 2.9.0.0
--------- Device Information -----------
Spectrum Name :  反射率_0
Saving Time :  2024/04/27 23:05:43
Spectro-Module Model Name : SE2030-DUVN
Spectro-Module Serial Number : OS361AC55029948
Wavelength Start : 200
Wavelength End : 1025
Wavelength Unit : Wavelength(nm)
Spectrum Unit : Reflectance(%)
-----------Spectrum Setting ------------
Integration Time : 20ms
Average : 10
Boxcar : 0
Background removal :  enabled
linearity correction :  enabled
SC :  disabled
Intensity correction :  disabled
DWT denoise :  enabled
savitzky-golay :  disabled
FFT :  disabled
Running average :  disabled
Kalman :  disabled
High pass :  disabled
---------------BEGIN--------------------
Wavelength(nm)             Reflectance(%)
200.29               0
200.75       -62.25911
201.21       -25.89844
201.67        7.308607
202.13        23.94974
202.58        29.57323
203.04        30.61383
203.50        31.02906
203.96        34.63967
204.42         41.0942
204.88        48.05971
205.34         53.3533
205.80        55.46261
206.26        54.14055
206.72         48.3965
207.18         38.1217
207.64        30.88291
208.10        33.04103
208.55        40.80262
209.01        44.66742
209.47        40.23819
209.93        24.33952
210.39       -19.25661
210.85       -153.5121
211.31       -323.4059
211.77       -133.4902
212.23       -3.884694
212.69        42.37038
213.14        55.98342
213.60        54.61176
214.06        42.16513
214.52        18.72186
214.98        7.194963
215.44        24.70133
215.90        48.65333
216.36        65.30846
216.81        71.66917
217.27        70.91209
217.73        66.52524
218.19        59.88519
218.65        52.74852
219.11        46.11193
219.57        39.06063
220.02        32.96154
220.48        32.59808
220.94        38.24408
221.40        47.47734
221.86        56.43264
222.32        61.40186
222.77        62.47243
223.23        61.10596
223.69        58.52775
224.15        55.80313
224.61        53.22131
225.06        50.35802
225.52        47.89322
225.98        46.88309
226.44        47.38153
226.90        48.58517
227.36        49.88136
227.81        50.82233
228.27        51.37655
228.73        51.66679
229.19        51.29539
229.65        49.57795
230.10        46.52839
230.56        42.89646
231.02        39.53471
231.48         37.6328
231.93        37.30313
232.39        38.18148
232.85         39.8815
233.31        41.87991
233.77        43.90051
234.22        46.09473
234.68        48.01534
235.14        49.22832
235.60        49.72588
236.05        49.44604
236.51        49.10207
236.97        50.11901
237.43        52.85024
237.88        56.96405
238.34        60.82883
238.80        63.02857
239.26        63.29375
239.71        61.46012
240.17        57.75158
240.63        56.28852
241.08        60.19681
241.54        66.10902
242.00        70.61069
242.46        72.50868
242.91         72.3277
243.37          69.803
243.83        63.30469
244.28        53.56051
244.74        49.81595
245.20        54.30232
245.66        59.32603
246.11        60.10246
246.57         56.6935
247.03        49.74754
247.48        38.81269
247.94         30.2913
248.40        31.99837
248.85        39.82299
249.31        50.13868
249.77        60.41039
250.22        69.09277
250.68        76.12434
251.14         80.9728
251.59        83.41085
252.05        83.97552
252.51        82.41768
252.96        78.57365
253.42        74.90839
253.88        73.30177
254.33        73.60345
254.79        74.06854
255.25        72.47326
255.70        69.20723
256.16        65.85762
256.62        63.97926
257.07        65.19083
257.53        68.79259
257.99          72.785
258.44        75.43851
258.90         75.8148
259.35        73.99509
259.81        71.39403
260.27         68.6682
260.72        66.62315
261.18        65.68858
261.63        65.11874
262.09        64.86692
262.55        64.45836
263.00        63.73066
263.46        63.00353
263.91        62.17766
264.37        61.50782
264.83        60.93165
265.28        60.33771
265.74        59.77044
266.19         59.0372
266.65        58.21086
267.11        57.29411
267.56        56.31765
268.02        55.44198
268.47        54.65723
268.93        53.94679
269.38         53.2844
269.84        52.66613
270.30        52.06213
270.75        51.46388
271.21        50.81418
271.66           49.97
272.12        48.94204
272.57        47.73248
273.03        46.49657
273.48        45.38181
273.94        44.49533
274.39        43.75641
274.85        43.12049
275.31        42.41285
275.76        41.58071
276.22        40.71695
276.67        39.86955
277.13        39.22678
277.58        38.74247
278.04        38.40617
278.49         38.0295
278.95        37.48042
279.40        36.68467
279.86        35.77791
280.31        34.86178
280.77        34.22072
281.22        33.84627
281.68        33.69768
282.13        33.59595
282.59        33.35994
283.04         32.9295
283.50        32.39707
283.95        31.85803
284.41        31.50923
284.86        31.36441
285.32        31.37012
285.77        31.40373
286.22        31.34021
286.68        31.16581
287.13        30.89336
287.59        30.60954
288.04        30.35869
288.50        30.19355
288.95        30.06124
289.41        29.96372
289.86        29.85279
290.32        29.74356
290.77        29.64551
291.22        29.58413
291.68        29.58258
292.13        29.64109
292.59        29.77497
293.04        29.97763
293.50        30.26902
293.95        30.63621
294.40        31.07581
294.86        31.58525
295.31        32.15237
295.77        32.77124
296.22        33.41852
296.68        34.07086
297.13        34.66723
297.58        35.19965
298.04        35.68634
298.49         36.1454
298.95        36.63056
299.40        37.15355
299.85        37.70353
300.31        38.30198
300.76        38.93855
301.21        39.59964
301.67        40.27268
302.12        40.88022
302.58        41.36317
303.03        41.68946
303.48        41.90178
303.94        42.06656
304.39        42.22885
304.84        42.43246
305.30        42.67378
305.75        42.92455
306.20        43.18771
306.66        43.46967
307.11        43.74153
307.57        44.01389
308.02        44.22544
308.47        44.37944
308.93        44.48177
309.38        44.52279
309.83        44.52982
310.29        44.52101
310.74        44.48039
311.19        44.40717
311.65        44.29349
312.10        44.12515
312.55        43.91766
313.00        43.71334
313.46        43.57393
313.91         43.5018
314.36        43.48571
314.82        43.45391
315.27        43.28842
315.72        42.96915
316.18        42.53705
316.63        42.08089
317.08        41.76543
317.53        41.62368
317.99        41.60213
318.44        41.60095
318.89        41.44131
319.35         41.0841
319.80        40.59419
320.25        40.07306
320.70        39.68703
321.16         39.4733
321.61        39.38416
322.06        39.34449
322.51          39.238
322.97        39.02099
323.42        38.74487
323.87        38.42932
324.32        38.11583
324.78        37.81807
325.23        37.52411
325.68        37.24155
326.13        36.99658
326.59        36.77868
327.04        36.61297
327.49        36.44908
327.94        36.20956
328.39        35.87823
328.85        35.46515
329.30        35.04901
329.75        34.74551
330.20        34.58892
330.66        34.53334
331.11        34.52301
331.56        34.40758
332.01          34.149
332.46         33.7905
332.92        33.38879
333.37         33.0854
333.82        32.90849
334.27        32.80674
334.72        32.74879
335.17        32.68409
335.63        32.57857
336.08        32.47832
336.53        32.32796
336.98        32.04628
337.43        31.63808
337.88          31.133
338.34         30.6609
338.79        30.44461
339.24        30.52852
339.69         30.8428
340.14        31.24247
340.59        31.48451
341.05        31.49516
341.50         31.3489
341.95        31.11271
342.40        30.90809
342.85        30.77907
343.30        30.67869
343.75        30.61105
344.20        30.58889
344.66         30.6083
345.11        30.67418
345.56        30.73595
346.01        30.70119
346.46        30.55412
346.91        30.31641
347.36         30.0651
347.81        29.92142
348.26         29.9107
348.72        30.00061
349.17        30.10759
349.62         30.0972
350.07        29.93983
350.52        29.67482
350.97        29.40083
351.42        29.27507
351.87        29.32578
352.32        29.49443
352.77        29.66714
353.22        29.67253
353.67        29.47589
354.13        29.15316
354.58        28.77629
355.03        28.51028
355.48        28.40491
355.93         28.4145
356.38        28.47991
356.83        28.51042
357.28        28.47298
357.73        28.38922
358.18        28.28697
358.63        28.20724
359.08        28.15483
359.53        28.10889
359.98        28.02724
360.43        27.85025
360.88        27.57483
361.33        27.22909
361.78        26.86812
362.23        26.61183
362.68        26.49349
363.13        26.41786
363.58        26.32772
364.03        26.46822
364.48        26.26608
364.93        26.17639
365.38        26.04961
365.83        25.92219
366.28        25.79669
366.73        25.66719
367.18         25.5276
367.63        25.35769
368.08        25.15995
368.53        24.94823
368.98        24.74474
369.43        24.58039
369.88        24.46462
370.33        24.38965
370.78        24.33811
371.23        24.28296
371.68        24.20844
372.13        24.10916
372.58        23.99495
373.03        23.88252
373.48        23.77814
373.93        23.69033
374.38        23.58208
374.83        23.39475
375.28        23.12995
375.72        22.79831
376.17        22.52191
376.62        22.44857
377.07        22.59064
377.52        22.88003
377.97        23.17381
378.42        23.24936
378.87        23.05998
379.32        22.68838
379.77        22.23728
380.22        21.86306
380.67        21.61432
381.11        21.44116
381.56         21.3336
382.01         21.2747
382.46         21.2492
382.91        21.27496
383.36        21.29835
383.81        21.22791
384.26        21.05094
384.71        20.78588
385.15        20.51076
385.60        20.38683
386.05        20.43233
386.50        20.60381
386.95        20.80243
387.40        20.87207
387.85        20.78409
388.29         20.5828
388.74        20.38249
389.19        20.29768
389.64        20.34404
390.09        20.46064
390.54        20.58495
390.98        20.61731
391.43        20.54085
391.88        20.39936
392.33        20.19908
392.78        19.97853
393.23        19.76773
393.67        19.47456
394.12        19.17617
394.57        19.20497
395.02        19.22452
395.47        19.18229
395.91        19.00191
396.36        18.93546
396.81        18.98986
397.26        19.01797
397.71        19.00059
398.15        18.98413
398.60        18.98411
399.05        18.90978
399.50        18.79947
399.95        18.82922
400.39        18.94319
400.84        18.85671
401.29        18.58281
401.74        18.32976
402.18        18.16534
402.63         18.1212
403.08         18.1759
403.53         18.1882
403.97        18.14622
404.42        18.15708
404.87        18.21021
405.32        18.25144
405.76        18.27039
406.21        18.23207
406.66        18.15994
407.11         18.1815
407.55        18.25298
408.00        18.17273
408.45         17.9513
408.90        17.67272
409.34        17.43516
409.79        17.46044
410.24        17.67593
410.68        17.73311
411.13        17.60081
411.58        17.48269
412.03        17.42361
412.47        17.40911
412.92        17.44208
413.37         17.5237
413.81        17.60804
414.26        17.64229
414.71        17.60922
415.15        17.52673
415.60        17.41727
416.05        17.33023
416.49        17.28615
416.94        17.26932
417.39        17.26638
417.83        17.25843
418.28        17.23155
418.73        17.18306
419.17        17.12924
419.62        17.09667
420.07        17.09685
420.51        17.13327
420.96         17.1569
421.41        17.11383
421.85        16.99601
422.30        16.74523
422.74        16.48413
423.19        16.59935
423.64        17.02948
424.08        17.29948
424.53        17.27367
424.98        17.22722
425.42        17.15366
425.87        16.75632
426.31        16.20421
426.76        16.10194
427.21        16.39238
427.65        16.45248
428.10        16.27177
428.54        16.24758
428.99        16.36805
429.44        16.55928
429.88        16.70195
430.33        16.40988
430.77        15.86957
431.22        15.77941
431.66        16.13056
432.11        16.41358
432.56        16.53983
433.00        16.65245
433.45        16.59077
433.89        16.23749
434.34        15.91071
434.78        15.09094
435.23        15.70226
435.67        16.21874
436.12        16.42756
436.57        16.50225
437.01        16.33074
437.46        16.24342
437.90        16.33038
438.35        16.49484
438.79        16.20187
439.24        16.08795
439.68        16.01976
440.13         15.9573
440.57        15.89977
441.02        15.98556
441.46        16.16845
441.91        16.08506
442.35        15.83721
442.80        16.05155
443.24        16.59779
443.69        16.63297
444.13         16.1782
444.58        15.96167
445.02        15.99411
445.47         15.9046
445.91         15.7098
446.36        15.63235
446.80          15.679
447.24        15.77878
447.69        15.90961
448.13        16.07761
448.58        16.24161
449.02        16.31836
449.47        16.31378
449.91        16.31463
450.36        16.33074
450.80        16.30462
451.25        16.24698
451.69        16.20315
452.13        16.17471
452.58        16.13747
453.02        16.09233
453.47        16.04703
453.91        16.00005
454.36        15.97874
454.80        15.95043
455.24        15.84443
455.69        15.69691
456.13        15.54474
456.58        15.44386
457.02        15.53439
457.46        15.73146
457.91        15.74186
458.35        15.62981
458.79        15.59443
459.24        15.65703
459.68        15.67404
460.13        15.65855
460.57        15.60651
461.01        15.59268
461.46        15.62884
461.90        15.62601
462.34        15.61637
462.79        15.83533
463.23        15.85635
463.68        15.77722
464.12        15.71819
464.56        15.70532
465.01        15.77188
465.45           15.83
465.89        15.74301
466.34        15.56174
466.78        15.38024
467.22        15.22913
467.67         15.4786
468.11         15.4473
468.55        15.50869
468.99        15.46246
469.44        15.47526
469.88         15.5403
470.32        15.54536
470.77        15.50933
471.21        15.51311
471.65         15.5676
472.10        15.65137
472.54        15.72824
472.98        15.76686
473.42        15.76521
473.87        15.69263
474.31        15.59728
474.75        15.69792
475.20        15.94794
475.64        16.02884
476.08        15.92891
476.52        15.93946
476.97        16.07588
477.41        16.02317
477.85        15.94281
478.29         16.0635
478.74        15.98491
479.18        15.89041
479.62        16.17827
480.06        16.24682
480.50        16.26382
480.95        16.23211
481.39        16.15518
481.83         16.3882
482.27        16.44109
482.72        16.43023
483.16        16.70781
483.60         16.7823
484.04        16.76633
484.48        16.80894
484.93        17.04764
485.37        16.85785
485.81        16.94971
486.25        17.50208
486.69        17.05799
487.14        16.61785
487.58        17.72572
488.02        17.55167
488.46        17.71927
488.90        17.72129
489.34        17.40538
489.79        17.26062
490.23        17.81841
490.67        18.17902
491.11         18.4313
491.55        18.43451
491.99        18.27386
492.43        18.30803
492.88        18.55784
493.32          18.766
493.76        18.89467
494.20        19.06164
494.64        19.27243
495.08        19.43168
495.52        19.53478
495.96        19.74981
496.41        20.05397
496.85        19.93162
497.29        19.54299
497.73        19.66925
498.17        20.23397
498.61        20.52519
499.05        20.46329
499.49        20.49442
499.93          20.652
500.37        20.72624
500.82         20.7298
501.26        20.85496
501.70         21.1203
502.14        20.99756
502.58        21.23503
503.02         21.3129
503.46        21.36374
503.90        21.40713
504.34         21.4313
504.78        21.48411
505.22        21.55882
505.66        21.60895
506.10        21.64234
506.54        21.72888
506.98        21.87438
507.42         21.9521
507.86        22.11472
508.30        22.19422
508.74        22.23564
509.18        22.24379
509.62        22.23906
510.06        22.25194
510.50        22.29084
510.94        22.34813
511.38        22.41753
511.82         22.4887
512.26        22.55585
512.70        22.62333
513.14        22.68635
513.58        22.72715
514.02         22.7431
514.46        22.75377
514.90          22.772
515.34        22.73965
515.78        22.79179
516.22        22.81644
516.66        22.84938
517.10        22.88121
517.54        22.90852
517.98        22.93182
518.42        22.94042
518.86        22.92108
519.30        22.87287
519.74        22.80062
520.18        22.72341
520.62        22.67002
521.06        22.64921
521.50        22.65807
521.93        22.68016
522.37        22.67867
522.81        22.64825
523.25        22.59335
523.69        22.54025
524.13        22.53106
524.57        22.56871
525.01        22.63566
525.45        22.68633
525.89        22.64996
526.32        22.51259
526.76        22.31016
527.20         22.0919
527.64        21.93937
528.08        21.87445
528.52        21.86913
528.96        21.89829
529.40         21.9207
529.83        21.91901
530.27        21.91035
530.71        21.88195
531.15        21.81375
531.59        21.70788
532.03        21.56702
532.46        21.42782
532.90         21.3648
533.34        21.38656
533.78         21.4728
534.22        21.57322
534.66        21.60849
535.09         21.5612
535.53        21.46286
535.97        21.35296
536.41        21.29809
536.85         21.3159
537.28        21.38352
537.72        21.47731
538.16        21.55626
538.60          21.608
539.04        21.65284
539.47        21.68851
539.91          21.724
540.35         21.7576
540.79        21.78666
541.22        21.82243
541.66        21.88604
542.10        21.97947
542.54        22.10092
542.97        22.22185
543.41        22.30997
543.85        22.35653
544.29        22.37247
544.72        22.39091
545.16        22.48034
545.60        22.64506
546.04        22.86452
546.47         23.0923
546.91        23.24987
547.35        23.31792
547.79        23.33185
548.22        23.33085
548.66        23.36913
549.10        23.47738
549.53        23.71945
549.97        24.04016
550.41        24.26695
550.84        24.37228
551.28        24.44039
551.72        24.50663
552.15        24.59718
552.59        24.73207
553.03        24.88856
553.46        25.04938
553.90        25.21116
554.34        25.36224
554.77        25.51423
555.21        25.64949
555.65        25.73984
556.08        25.75743
556.52         25.7698
556.96        25.78534
557.39         25.8555
557.83        25.96739
558.27        26.00299
558.70        25.97354
559.14        25.99181
559.57        26.05668
560.01        26.13863
560.45        26.21602
560.88        26.24168
561.32        26.26523
561.75        26.35617
562.19        26.51011
562.63        26.70599
563.06        26.87255
563.50        26.81437
563.93         26.5959
564.37        26.55546
564.80        26.70844
565.24        26.89077
565.68        27.05922
566.11        27.20515
566.55        27.31883
566.98        27.42353
567.42        27.52265
567.85        27.54619
568.29        27.54936
568.72        27.60379
569.16        27.71492
569.60        27.88725
570.03           28.14
570.47        28.16558
570.90        28.27451
571.34        28.77329
571.77         28.7354
572.21        28.65295
572.64        28.89694
573.08        28.83261
573.51        29.28256
573.95        29.47303
574.38        29.51569
574.82        29.60476
