SpectraSmart Spectrum 2.9.0.0
--------- Device Information -----------
Spectrum Name :  反射率_0
Saving Time :  2024/04/27 22:37:25
Spectro-Module Model Name : SE2030-DUVN
Spectro-Module Serial Number : OS361AC55029948
Wavelength Start : 200
Wavelength End : 1025
Wavelength Unit : Wavelength(nm)
Spectrum Unit : Reflectance(%)
-----------Spectrum Setting ------------
Integration Time : 20ms
Average : 10
Boxcar : 0
Background removal :  enabled
linearity correction :  enabled
SC :  disabled
Intensity correction :  disabled
DWT denoise :  enabled
savitzky-golay :  disabled
FFT :  disabled
Running average :  disabled
Kalman :  disabled
High pass :  disabled
---------------BEGIN--------------------
Wavelength(nm)             Reflectance(%)
200.29               0
200.75       -15.84718
201.21         1.42894
201.67        16.57646
202.13        23.35903
202.58        24.69854
203.04        23.66128
203.50        24.34101
203.96        31.25084
204.42        42.68002
204.88        55.01062
205.34        64.82726
205.80         69.6864
206.26        69.59966
206.72        64.31868
207.18        52.43287
207.64        39.36977
208.10        34.59783
208.55        37.71915
209.01        40.24262
209.47        37.72654
209.93        27.97476
210.39        1.153404
210.85        -76.5183
211.31       -147.0875
211.77       -16.71336
212.23        54.40123
212.69        75.87519
213.14        79.06397
213.60        71.80405
214.06        53.42333
214.52        19.56335
214.98       -9.777861
215.44       -6.592933
215.90        11.65222
216.36        28.80351
216.81        39.30305
217.27        44.76528
217.73        48.71724
218.19        50.99623
218.65        50.25426
219.11        46.46581
219.57        39.60592
220.02         31.3126
220.48        27.85254
220.94        30.94914
221.40        37.85136
221.86        46.36901
222.32        54.43703
222.77         61.2085
223.23        66.88367
223.69        70.40302
224.15        70.42924
224.61        67.31388
225.06        61.58785
225.52        55.34438
225.98        52.56966
226.44        53.91652
226.90         57.0908
227.36        60.31977
227.81         62.3315
228.27        63.19247
228.73        63.40078
229.19        62.78846
229.65        61.01541
230.10        58.19893
230.56        54.88401
231.02         51.7599
231.48        49.84512
231.93        49.22684
232.39        49.67567
232.85        50.86202
233.31        52.35046
233.77        53.87181
234.22        55.48872
234.68        56.79924
235.14        57.37446
235.60        57.16518
236.05        56.13424
236.51        54.75177
236.97        54.13334
237.43        54.73984
237.88        56.51954
238.34        58.33187
238.80        59.14396
239.26         58.6246
239.71        56.49158
240.17        52.96244
240.63        51.66718
241.08        55.28922
241.54        60.70228
242.00          64.549
242.46        65.42459
242.91        63.44257
243.37        57.36362
243.83         43.5322
244.28        23.07933
244.74        15.60992
245.20        26.25449
245.66         38.5406
246.11        43.06243
246.57        40.85448
247.03        33.60785
247.48        21.92034
247.94        16.25847
248.40        25.15804
248.85        40.60238
249.31        54.47577
249.77         61.4658
250.22        62.68394
250.68        61.23926
251.14        58.75296
251.59        56.09001
252.05        53.15528
252.51        48.53691
252.96        42.36996
253.42        39.19173
253.88        41.19096
254.33        46.81404
254.79        51.37983
255.25        51.53899
255.70        48.55606
256.16        44.64029
256.62        42.61037
257.07        45.31605
257.53        51.40762
257.99        58.06578
258.44         62.8447
258.90        64.12775
259.35        62.28754
259.81        59.14597
260.27        55.82466
260.72        53.59509
261.18        52.87973
261.63        52.83989
262.09        53.15434
262.55        53.15768
263.00        52.70509
263.46        52.14769
263.91        51.63634
264.37        51.67944
264.83        52.16497
265.28         52.8103
265.74        53.30022
266.19        53.03482
266.65        52.07264
267.11        50.60889
267.56        48.99543
268.02        47.88075
268.47        47.36965
268.93        47.27181
269.38        47.34456
269.84        47.23674
270.30        46.82087
270.75        46.21651
271.21        45.45695
271.66        44.53127
272.12        43.51134
272.57        42.36683
273.03        41.26793
273.48        40.40042
273.94        39.85928
274.39        39.54919
274.85        39.38982
275.31        39.16107
275.76        38.78287
276.22        38.33718
276.67        37.83805
277.13        37.42705
277.58        37.06057
278.04        36.74147
278.49        36.33902
278.95        35.80062
279.40        35.07304
279.86          34.276
280.31        33.46518
280.77        32.85004
281.22        32.41735
281.68        32.15333
282.13        31.94364
282.59        31.69033
283.04         31.3413
283.50         30.9529
283.95        30.55337
284.41        30.23348
284.86        29.99684
285.32        29.84042
285.77        29.70656
286.22        29.55935
286.68        29.40268
287.13        29.20993
287.59        29.04833
288.04        28.93679
288.50        28.90584
288.95        28.90951
289.41         28.9052
289.86         28.7797
290.32        28.54384
290.77         28.2268
291.22        27.92459
291.68        27.77138
292.13         27.7866
292.59        27.94822
293.04        28.18083
293.50        28.39314
293.95        28.54859
294.40        28.68524
294.86        28.85569
295.31        29.13087
295.77        29.53356
296.22        30.02233
296.68        30.55167
297.13        31.02726
297.58        31.43058
298.04        31.78641
298.49        32.13211
298.95        32.54406
299.40        33.02779
299.85        33.54826
300.31        34.08751
300.76        34.57735
301.21        35.00621
301.67        35.40668
302.12         35.7399
302.58        35.99133
303.03        36.15501
303.48        36.25131
303.94        36.38494
304.39        36.66537
304.84        37.11517
305.30         37.6888
305.75        38.23954
306.20        38.58725
306.66        38.70691
307.11        38.63113
307.57        38.48392
308.02        38.39182
308.47        38.41015
308.93        38.49451
309.38        38.57317
309.83        38.56755
310.29         38.4688
310.74        38.30191
311.19        38.10945
311.65        37.94697
312.10        37.81662
312.55        37.70672
313.00         37.6158
313.46        37.54524
313.91        37.48347
314.36        37.43431
314.82        37.36995
315.27        37.23994
315.72        37.04065
316.18        36.79732
316.63        36.54362
317.08        36.35678
317.53        36.25476
317.99        36.20922
318.44        36.19729
318.89        36.16505
319.35        36.09201
319.80        35.99271
320.25        35.86798
320.70        35.72546
321.16        35.56281
321.61        35.38257
322.06        35.18817
322.51        34.99176
322.97        34.79601
323.42        34.61993
323.87        34.45313
324.32         34.2836
324.78        34.10738
325.23        33.93309
325.68        33.78371
326.13        33.70391
326.59        33.68371
327.04        33.72704
327.49        33.76472
327.94        33.69538
328.39        33.49627
328.85        33.18993
329.30        32.85547
329.75        32.61354
330.20        32.50467
330.66        32.47988
331.11        32.51094
331.56        32.49542
332.01        32.40187
332.46        32.26339
332.92        32.08398
333.37        31.90637
333.82        31.73695
334.27        31.55811
334.72        31.40016
335.17        31.31672
335.63        31.30741
336.08        31.38542
336.53        31.47049
336.98        31.43712
337.43        31.26358
337.88        30.98807
338.34        30.71533
338.79        30.62697
339.24        30.76192
339.69        31.05763
340.14        31.40332
340.59        31.62087
341.05        31.65313
341.50        31.55371
341.95        31.37686
342.40        31.21828
342.85        31.11383
343.30        31.03746
343.75        30.97141
344.20        30.89027
344.66         30.7941
345.11        30.69859
345.56        30.62918
346.01        30.61469
346.46         30.6551
346.91        30.72989
347.36        30.81027
347.81        30.85324
348.26        30.84907
348.72        30.81545
349.17        30.75748
349.62        30.68663
350.07        30.60894
350.52        30.51061
350.97        30.42904
351.42        30.42467
351.87         30.4986
352.32        30.63467
352.77        30.74203
353.22        30.67963
353.67        30.43129
354.13        30.06144
354.58        29.66617
355.03        29.45315
355.48        29.47071
355.93        29.65481
356.38        29.89962
356.83        30.03761
357.28         30.0206
357.73        29.90058
358.18        29.73028
358.63        29.59234
359.08        29.50979
359.53        29.44453
359.98        29.37836
360.43        29.29096
360.88        29.17258
361.33        29.03351
361.78        28.85785
362.23        28.64924
362.68        28.41788
363.13        28.10836
363.58        27.73479
364.03        27.65276
364.48        27.33668
364.93        27.20764
365.38        27.08865
365.83        26.96535
366.28        26.82149
366.73         26.6657
367.18        26.50345
367.63        26.32899
368.08        26.14649
368.53        25.96109
368.98        25.77073
369.43        25.57301
369.88        25.37391
370.33        25.17743
370.78        25.00997
371.23        24.91382
371.68        24.88858
372.13        24.91003
372.58        24.93497
373.03        24.89278
373.48        24.76532
373.93        24.58191
374.38        24.35633
374.83        24.11106
375.28        23.86639
375.72        23.60899
376.17        23.40724
376.62        23.32595
377.07        23.36349
377.52        23.48324
377.97        23.60772
378.42        23.61296
378.87        23.47195
379.32        23.23342
379.77        22.93514
380.22        22.63646
380.67        22.36346
381.11        22.09515
381.56        21.87424
382.01        21.76988
382.46        21.78818
382.91        21.91697
383.36        22.05249
383.81        22.02847
384.26        21.81492
384.71         21.4557
385.15        21.07189
385.60        20.89098
386.05        20.94604
386.50         21.1698
386.95        21.42717
387.40        21.50663
387.85        21.37041
388.29        21.08968
388.74        20.80773
389.19        20.67527
389.64        20.71756
390.09        20.85972
390.54        21.03283
390.98        21.12746
391.43        21.11697
391.88        21.04302
392.33        20.90076
392.78        20.71432
393.23         20.5126
393.67        20.20497
394.12        19.87741
394.57        19.88447
395.02        19.88184
395.47          19.814
395.91        19.60934
396.36        19.53842
396.81        19.61053
397.26        19.67353
397.71        19.69565
398.15        19.70603
398.60        19.71852
399.05        19.64419
399.50        19.53641
399.95        19.59964
400.39        19.77969
400.84        19.77097
401.29        19.56999
401.74        19.36749
402.18        19.22544
402.63         19.1848
403.08        19.22902
403.53        19.22016
403.97        19.15191
404.42        19.13422
404.87        19.16239
405.32        19.18951
405.76        19.20609
406.21        19.17539
406.66        19.11158
407.11        19.12967
407.55        19.18141
408.00        19.06299
408.45        18.80021
408.90        18.50627
409.34        18.28878
409.79        18.36745
410.24        18.66086
410.68        18.79356
411.13         18.7258
411.58        18.67731
412.03        18.67854
412.47        18.68263
412.92        18.68963
413.37        18.71116
413.81        18.73634
414.26        18.76649
414.71        18.79431
415.15        18.82414
415.60        18.84222
416.05        18.83361
416.49        18.79917
416.94        18.74098
417.39         18.6793
417.83        18.64814
418.28        18.64844
418.73         18.6624
419.17        18.68119
419.62        18.69172
420.07        18.69638
420.51         18.7127
420.96        18.71734
421.41        18.69544
421.85        18.64385
422.30         18.4804
422.74        18.30252
423.19         18.4878
423.64        18.96152
424.08         19.2122
424.53        19.12967
424.98        19.08346
425.42        19.08331
425.87        18.77597
426.31        18.31545
426.76        18.33344
427.21        18.75579
427.65        18.88385
428.10        18.70943
428.54        18.71282
428.99        18.89162
429.44         19.1181
429.88         19.2683
430.33        19.00098
430.77         18.4869
431.22        18.35947
431.66        18.64239
432.11        18.94706
432.56        19.19093
433.00        19.42658
433.45        19.43464
433.89        19.07541
434.34        18.70674
434.78        17.72267
435.23        18.40252
435.67        18.98058
436.12        19.22042
436.57        19.32027
437.01        19.14481
437.46        19.07597
437.90        19.21608
438.35        19.45355
438.79        19.15726
439.24        19.07564
439.68        19.05066
440.13        19.03126
440.57        19.00529
441.02        19.12936
441.46        19.34861
441.91        19.21692
442.35        18.87683
442.80        19.14528
443.24        19.85287
443.69        19.88629
444.13        19.29047
444.58        19.05496
445.02        19.19547
445.47        19.19528
445.91        19.05202
446.36        19.02886
446.80        19.12315
447.24        19.24836
447.69        19.37297
448.13        19.49563
448.58         19.5759
449.02        19.52605
449.47        19.38735
449.91        19.31221
450.36        19.32408
450.80        19.33969
451.25        19.35458
451.69        19.39129
452.13        19.43763
452.58        19.47124
453.02        19.47928
453.47        19.45093
453.91        19.38368
454.36        19.31234
454.80        19.22674
455.24        19.09136
455.69        18.95856
456.13        18.85774
456.58         18.8224
457.02        18.97122
457.46        19.18863
457.91        19.13454
458.35        18.91773
458.79        18.82396
459.24        18.88868
459.68         18.9267
460.13        18.93193
460.57        18.86779
461.01        18.81756
461.46        18.80629
461.90        18.75036
462.34        18.72552
462.79        19.02222
463.23        19.11607
463.68        19.09407
464.12         19.0517
464.56        19.01361
465.01        19.03868
465.45        19.05256
465.89        18.93537
466.34        18.75588
466.78        18.60919
467.22        18.51339
467.67        18.88859
468.11        18.89145
468.55        18.98723
468.99        18.93099
469.44        18.92713
469.88        18.97253
470.32        18.92943
470.77        18.83815
471.21        18.82742
471.65        18.91522
472.10        19.06609
472.54        19.21557
472.98        19.29333
473.42        19.28802
473.87        19.17149
474.31        19.01137
474.75        19.08649
475.20        19.34614
475.64         19.4015
476.08        19.24419
476.52         19.2328
476.97        19.38643
477.41        19.32642
477.85        19.24376
478.29        19.40636
478.74        19.32685
479.18        19.22427
479.62        19.58221
480.06        19.67869
480.50        19.71355
480.95        19.68259
481.39        19.58371
481.83        19.83659
482.27        19.85165
482.72        19.78277
483.16        20.05069
483.60        20.09197
484.04        20.07642
484.48        20.04108
484.93        20.14164
485.37        20.09359
485.81        20.75807
486.25        20.89897
486.69        20.39489
487.14        20.16925
487.58        21.15081
488.02        20.93748
488.46        21.04985
488.90        21.39367
489.34        20.83635
489.79          20.611
490.23         21.1296
490.67        21.44618
491.11        21.68992
491.55        21.67369
491.99         21.4888
492.43        21.51282
492.88        21.76638
493.32        21.97726
493.76        22.11302
494.20        22.31312
494.64        22.58584
495.08        22.81767
495.52        22.98635
495.96        23.26873
496.41        23.61914
496.85        23.44544
497.29        22.95083
497.73        23.06988
498.17        23.71522
498.61        24.07597
499.05        24.04158
499.49        24.03567
499.93        24.12605
500.37         24.2349
500.82        24.35348
501.26        24.52764
501.70        24.76765
502.14        24.55541
502.58         24.7867
503.02        24.84107
503.46        24.88126
503.90         24.9338
504.34        24.97821
504.78         25.0584
505.22        25.16149
505.66        25.23391
506.10        25.28555
506.54        25.40011
506.98        25.58426
507.42        25.68778
507.86        25.88462
508.30        25.97248
508.74        26.00379
509.18        25.98566
509.62        25.95236
510.06        25.95651
510.50        26.01032
510.94        26.09928
511.38        26.20166
511.82        26.28151
512.26        26.32816
512.70        26.35747
513.14        26.37687
513.58        26.38646
514.02         26.3908
514.46        26.40568
514.90        26.44656
515.34        26.44647
515.78        26.55781
516.22        26.64814
516.66        26.74385
517.10        26.80997
517.54        26.83774
517.98        26.83393
518.42        26.80199
518.86        26.75354
519.30        26.69643
519.74        26.63091
520.18        26.56987
520.62        26.53146
521.06        26.52113
521.50        26.53893
521.93        26.57314
522.37        26.59355
522.81        26.59374
523.25        26.57218
523.69        26.54533
524.13        26.54079
524.57        26.56086
525.01        26.59789
525.45        26.61453
525.89        26.55229
526.32        26.40325
526.76        26.19967
527.20        25.99961
527.64        25.89852
528.08        25.91429
528.52        26.00924
528.96        26.12995
529.40        26.19248
529.83        26.16867
530.27        26.08759
530.71        25.96047
531.15        25.80663
531.59        25.64309
532.03        25.46903
532.46        25.30751
532.90        25.21071
533.34        25.18372
533.78        25.21337
534.22        25.27548
534.66        25.32835
535.09         25.3551
535.53        25.37206
535.97         25.3713
536.41        25.34716
536.85        25.30378
537.28        25.24189
537.72        25.18962
538.16         25.1901
538.60        25.25236
539.04        25.37051
539.47        25.50143
539.91        25.59311
540.35        25.62712
540.79        25.62371
541.22        25.61432
541.66        25.65158
542.10        25.74737
542.54        25.88629
542.97        26.03467
543.41        26.15622
543.85        26.23887
544.29        26.29931
544.72        26.36213
545.16        26.48278
545.60         26.6629
546.04        26.88166
546.47        27.11143
546.91        27.30507
547.35        27.44623
547.79        27.56278
548.22        27.66028
548.66        27.73854
549.10        27.82409
549.53        28.01369
549.97        28.28956
550.41        28.52129
550.84        28.68816
551.28        28.88145
551.72        29.10335
552.15        29.26227
552.59        29.35113
553.03        29.60468
553.46        29.62652
553.90        29.78546
554.34          29.962
554.77        30.16704
555.21        30.36208
555.65        30.49369
556.08        30.52673
556.52        30.54589
556.96        30.57672
557.39        30.70196
557.83         30.9078
558.27        31.04202
558.70        31.09611
559.14        31.17249
559.57        31.26197
560.01        31.34058
560.45        31.39762
560.88        31.39994
561.32        31.41571
561.75        31.52197
562.19        31.71335
562.63        31.96308
563.06        32.18361
563.50        32.14075
563.93        31.90682
564.37         31.8775
564.80        32.06935
565.24        32.28809
565.68        32.48281
566.11        32.64589
566.55        32.76831
566.98        32.87812
567.42        32.98648
567.85        33.01733
568.29        33.03771
568.72        33.14198
569.16         33.3368
569.60        33.55888
570.03        33.81295
570.47        33.85602
570.90        34.10352
571.34        34.39306
571.77        34.59586
572.21        34.51639
572.64        34.82673
573.08        34.77515
573.51        34.86525
573.95        35.11956
574.38        35.48643
574.82        35.52861
