SpectraSmart Spectrum 2.9.0.0
--------- Device Information -----------
Spectrum Name :  反射率_0
Saving Time :  2024/04/27 22:20:47
Spectro-Module Model Name : SE2030-DUVN
Spectro-Module Serial Number : OS361AC55029948
Wavelength Start : 200
Wavelength End : 1025
Wavelength Unit : Wavelength(nm)
Spectrum Unit : Reflectance(%)
-----------Spectrum Setting ------------
Integration Time : 20ms
Average : 10
Boxcar : 0
Background removal :  enabled
linearity correction :  enabled
SC :  disabled
Intensity correction :  disabled
DWT denoise :  enabled
savitzky-golay :  disabled
FFT :  disabled
Running average :  disabled
Kalman :  disabled
High pass :  disabled
---------------BEGIN--------------------
Wavelength(nm)             Reflectance(%)
200.29               0
200.75        87.94768
201.21         110.538
201.67        119.2802
202.13        113.2169
202.58         97.5767
203.04        76.90777
203.50        57.52477
203.96        49.71286
204.42        53.79869
204.88        63.72827
205.34        74.19685
205.80        81.30013
206.26        84.92322
206.72        86.32116
207.18        85.61069
207.64        83.67532
208.10        82.18805
208.55        81.65234
209.01        79.92532
209.47        75.29055
209.93        65.24387
210.39        40.14295
210.85        -33.6168
211.31       -116.9889
211.77       -5.947646
212.23        63.83017
212.69        87.54075
213.14        93.75457
213.60        91.27371
214.06        81.46287
214.52        62.47088
214.98        47.19491
215.44        51.27219
215.90        63.05205
216.36        73.33342
216.81        79.24872
217.27        82.13326
217.73         84.1339
218.19        85.14673
218.65         84.3649
219.11        81.80653
219.57        77.32754
220.02        72.41035
220.48        71.91112
220.94        76.61582
221.40        84.16313
221.86        91.56047
222.32        96.06252
222.77        97.62653
223.23        97.48452
223.69        96.48633
224.15        95.46056
224.61        94.57997
225.06        93.43508
225.52        92.19864
225.98        90.98628
226.44        90.02795
226.90        89.37874
227.36        88.92533
227.81        88.35875
228.27          87.737
228.73        86.98483
229.19        85.99779
229.65        84.71258
230.10        83.17817
230.56        81.74506
231.02        80.62411
231.48        80.17974
231.93        80.30495
232.39        80.95294
232.85        81.78257
233.31        82.44796
233.77        82.81654
234.22        82.97328
234.68        82.88097
235.14        82.47095
235.60        81.75905
236.05        80.75243
236.51        79.58233
236.97         78.7429
237.43        78.50833
237.88        78.98069
238.34        79.66608
238.80        80.41186
239.26        81.19908
239.71        82.33094
240.17        83.69607
240.63        84.85404
241.08        85.03987
241.54        84.09539
242.00        82.83377
242.46        81.41761
242.91        79.50089
243.37        75.95748
243.83        68.92535
244.28        58.81756
244.74        54.92231
245.20         60.1644
245.66        66.59269
246.11        69.72137
246.57        70.29159
247.03        69.56385
247.48        67.67686
247.94        66.58035
248.40        68.02976
248.85        70.36601
249.31        73.09751
249.77        76.17311
250.22        79.07536
250.68        81.48711
251.14        83.24197
251.59        84.28558
252.05        84.82617
252.51        84.73309
252.96        83.17392
253.42        79.83849
253.88        75.69163
254.33        72.41306
254.79        70.67369
255.25        69.52413
255.70        68.55675
256.16        68.26231
256.62        68.94277
257.07        70.91997
257.53        73.88872
257.99        76.74435
258.44        78.46841
258.90         78.7446
259.35        77.48804
259.81        75.70924
260.27        73.78692
260.72        72.21658
261.18           71.45
261.63        70.92564
262.09        70.64838
262.55        70.13824
263.00        69.28091
263.46        68.41341
263.91        67.59689
264.37        67.33864
264.83        67.53048
265.28        67.91442
265.74        68.29483
266.19        68.14308
266.65        67.51993
267.11        66.53016
267.56        65.39742
268.02        64.59227
268.47        64.15907
268.93        63.97859
269.38        63.84778
269.84        63.49857
270.30        62.85032
270.75        62.00854
271.21        61.06937
271.66        60.10609
272.12        59.19015
272.57        58.23148
273.03        57.32436
273.48         56.5102
273.94        55.85726
274.39        55.30606
274.85         54.7912
275.31        54.07751
275.76        53.11878
276.22        52.04741
276.67        50.98145
277.13        50.25259
277.58        49.81234
278.04        49.61025
278.49        49.37255
278.95        48.87286
279.40        47.99967
279.86         46.9459
280.31        45.82122
280.77        44.95292
281.22        44.34246
281.68        43.96021
282.13        43.64513
282.59          43.276
283.04        42.77655
283.50        42.22764
283.95        41.67133
284.41        41.24371
284.86        40.93528
285.32        40.72516
285.77        40.50652
286.22        40.19482
286.68        39.79408
287.13        39.30691
287.59        38.82795
288.04        38.39863
288.50        38.07938
288.95        37.81185
289.41        37.60889
289.86        37.42373
290.32        37.26744
290.77        37.12903
291.22        37.00985
291.68        36.89739
292.13        36.77887
292.59        36.68466
293.04        36.61825
293.50        36.62418
293.95        36.70172
294.40        36.84925
294.86        37.07771
295.31        37.39083
295.77        37.78592
296.22        38.23552
296.68        38.70665
297.13        39.11939
297.58        39.45993
298.04         39.7524
298.49        40.00837
298.95        40.27735
299.40        40.56651
299.85        40.86335
300.31        41.20643
300.76         41.6132
301.21        42.08346
301.67        42.61195
302.12        43.09504
302.58        43.43448
303.03        43.59317
303.48        43.62334
303.94        43.64448
304.39        43.78005
304.84        44.07349
305.30        44.48085
305.75         44.8835
306.20        45.15425
306.66        45.27634
307.11        45.26545
307.57        45.21209
308.02        45.17833
308.47        45.20403
308.93        45.26245
309.38        45.29946
309.83        45.27305
310.29        45.18473
310.74        45.04575
311.19        44.88531
311.65        44.73936
312.10        44.60189
312.55        44.46448
313.00        44.34254
313.46        44.26194
313.91        44.21294
314.36        44.19533
314.82        44.14852
315.27        43.97081
315.72        43.65313
316.18        43.23973
316.63        42.81929
317.08        42.55603
317.53        42.48524
317.99        42.55265
318.44        42.67544
318.89        42.70026
319.35        42.58233
319.80        42.36794
320.25        42.11052
320.70        41.90336
321.16        41.76577
321.61        41.67017
322.06        41.58221
322.51        41.45523
322.97        41.27071
323.42        41.06831
323.87        40.85097
324.32        40.62919
324.78        40.40702
325.23        40.18581
325.68        39.98809
326.13        39.86129
326.59        39.79677
327.04        39.80898
327.49        39.82208
327.94        39.72252
328.39        39.48485
328.85         39.1267
329.30        38.75455
329.75        38.52574
330.20        38.48705
330.66        38.58081
331.11        38.73075
331.56        38.74926
332.01        38.59074
332.46        38.31236
332.92        37.99026
333.37        37.80349
333.82        37.78724
334.27        37.87729
334.72        38.02338
335.17        38.14668
335.63        38.20016
336.08        38.23502
336.53        38.20188
336.98        38.03391
337.43        37.73719
337.88        37.33401
338.34        36.94017
338.79        36.75958
339.24        36.83721
339.69        37.12173
340.14        37.48686
340.59         37.7179
341.05        37.75076
341.50        37.64626
341.95        37.48087
342.40        37.39068
342.85        37.41136
343.30        37.48846
343.75        37.57047
344.20        37.58198
344.66        37.50666
345.11         37.3791
345.56        37.22806
346.01        37.08818
346.46        36.97816
346.91        36.88879
347.36        36.83506
347.81        36.83804
348.26        36.89821
348.72        37.01304
349.17        37.14497
349.62        37.23513
350.07        37.26289
350.52        37.22635
350.97        37.17173
351.42        37.17792
351.87        37.25514
352.32        37.38154
352.77        37.46749
353.22        37.37798
353.67        37.09838
354.13        36.69167
354.58        36.26591
355.03          36.044
355.48        36.07533
355.93        36.29637
356.38        36.56578
356.83        36.66082
357.28        36.52777
357.73        36.23401
358.18        35.89579
358.63        35.69526
359.08        35.67053
359.53         35.7509
359.98        35.83841
360.43        35.78574
360.88         35.5571
361.33        35.20707
361.78        34.79795
362.23        34.45565
362.68        34.22478
363.13        34.01627
363.58        33.79267
364.03         33.8008
364.48        33.53226
364.93        33.39331
365.38        33.24708
365.83        33.11703
366.28         32.9986
366.73        32.88809
367.18        32.76085
367.63        32.56969
368.08        32.31202
368.53        32.00449
368.98        31.69804
369.43        31.47306
369.88        31.34879
370.33        31.30437
370.78         31.2864
371.23        31.20712
371.68        31.03935
372.13        30.80137
372.58        30.54269
373.03        30.34398
373.48        30.22914
373.93        30.18379
374.38        30.14618
374.83        30.01921
375.28        29.78803
375.72        29.47154
376.17        29.19029
376.62        29.08751
377.07        29.17776
377.52        29.39233
377.97         29.6005
378.42        29.60158
378.87         29.3555
379.32        28.94302
379.77        28.45946
380.22         28.0463
380.67        27.74977
381.11        27.52723
381.56        27.37482
382.01        27.28657
382.46        27.24931
382.91        27.27316
383.36        27.30236
383.81        27.24292
384.26        27.07868
384.71        26.82944
385.15        26.55965
385.60         26.4125
386.05        26.40441
386.50        26.49732
386.95        26.61802
387.40        26.65127
387.85         26.5742
388.29        26.41308
388.74        26.25804
389.19        26.17552
389.64        26.17395
390.09        26.20863
390.54        26.24438
390.98        26.22381
391.43        26.14715
391.88        26.04347
392.33         25.8977
392.78        25.72792
393.23        25.55903
393.67        25.27769
394.12        24.97938
394.57        25.09676
395.02        25.19078
395.47        25.18731
395.91        24.98182
396.36        24.90331
396.81        24.96427
397.26        24.98047
397.71         24.9324
398.15         24.8875
398.60        24.87095
399.05        24.76168
399.50        24.62332
399.95        24.70571
400.39        24.93618
400.84        24.93473
401.29        24.68214
401.74        24.39467
402.18        24.14806
402.63        23.99727
403.08        23.95432
403.53        23.90187
403.97         23.8435
404.42         23.9031
404.87        24.03141
405.32        24.10023
405.76        24.08521
406.21        23.96378
406.66        23.80148
407.11        23.81716
407.55        23.96729
408.00        23.96973
408.45        23.80949
408.90        23.54872
409.34        23.29824
409.79        23.36374
410.24        23.66413
410.68        23.75762
411.13        23.60978
411.58        23.48715
412.03        23.43618
412.47        23.41377
412.92        23.42435
413.37        23.48376
413.81        23.55665
414.26        23.60941
414.71        23.62419
415.15        23.60947
415.60        23.57205
416.05        23.54046
416.49        23.52452
416.94        23.51276
417.39        23.48781
417.83        23.42477
418.28        23.31699
418.73        23.17081
419.17        23.03036
419.62        22.96665
420.07        23.00342
420.51        23.12841
420.96        23.27583
421.41        23.36887
421.85        23.38287
422.30        23.23324
422.74        23.03703
423.19        23.26239
423.64        23.81796
424.08        24.05261
424.53        23.86842
424.98        23.79016
425.42        23.84173
425.87        23.56821
426.31        23.09918
426.76        23.12422
427.21        23.52743
427.65        23.46211
428.10         23.0092
428.54        22.87418
428.99        23.07043
429.44        23.44073
429.88        23.77082
430.33        23.43508
430.77        22.68269
431.22        22.55043
431.66        23.02783
432.11        23.41145
432.56        23.58771
433.00        23.67606
433.45         23.4924
433.89        23.14123
434.34        22.98527
434.78        21.85244
435.23        22.55547
435.67        23.22975
436.12        23.59313
436.57        23.68658
437.01        23.35985
437.46        23.21221
437.90        23.37947
438.35         23.6888
438.79        23.36368
439.24        23.30293
439.68        23.30313
440.13        23.30203
440.57        23.28148
441.02        23.41316
441.46        23.62815
441.91        23.42863
442.35        22.97447
442.80        23.16931
443.24        23.83272
443.69        23.78388
444.13        23.09943
444.58        22.84685
445.02        23.04214
445.47        23.14142
445.91        23.08971
446.36        23.07822
446.80        23.09211
447.24        23.06877
447.69        23.03559
448.13        23.08903
448.58        23.20452
449.02        23.24024
449.47        23.20626
449.91        23.22316
450.36        23.29684
450.80        23.34639
451.25        23.36416
451.69        23.37275
452.13        23.36425
452.58        23.31128
453.02         23.2282
453.47         23.1518
453.91        23.08971
454.36        23.07265
454.80        23.05725
455.24        22.94549
455.69        22.78641
456.13        22.63272
456.58        22.55067
457.02        22.72252
457.46        23.01927
457.91        23.01817
458.35        22.82657
458.79        22.76026
459.24        22.85445
459.68        22.89338
460.13        22.88435
460.57         22.8057
461.01        22.76302
461.46        22.78268
461.90        22.74454
462.34        22.71078
462.79        23.03098
463.23         23.0801
463.68        22.99818
464.12        22.95096
464.56        22.97366
465.01        23.11214
465.45        23.24199
465.89        23.16536
466.34        22.95521
466.78        22.74854
467.22        22.57854
467.67        22.97646
468.11        22.92599
468.55        22.98487
468.99        22.87393
469.44        22.86786
469.88        22.96421
470.32        22.99242
470.77        22.95931
471.21         22.9509
471.65        22.97624
472.10        23.01502
472.54        23.04461
472.98        23.06636
473.42        23.08578
473.87        23.04342
474.31        22.97233
474.75        23.13461
475.20        23.45136
475.64        23.47236
476.08        23.22963
476.52        23.21819
476.97        23.47264
477.41        23.51332
477.85        23.52767
478.29        23.77516
478.74        23.64364
479.18        23.42813
479.62        23.76053
480.06        23.82693
480.50        23.88665
480.95        23.91418
481.39        23.87687
481.83        24.23523
482.27        24.26127
482.72        24.17221
483.16        24.49566
483.60        24.54949
484.04        24.52555
484.48        24.50004
484.93        24.70608
485.37        24.62159
485.81        25.29592
486.25        25.91504
486.69        25.52213
487.14        24.97243
487.58        25.66568
488.02        25.52657
488.46        25.62714
488.90        26.19518
489.34        25.68685
489.79        25.32454
490.23        25.72801
490.67        25.87213
491.11        26.03447
491.55        26.14855
491.99        26.24729
492.43        26.42598
492.88         26.6706
493.32        26.88406
493.76        27.04241
494.20        27.21887
494.64        27.42803
495.08        27.58002
495.52        27.68865
495.96        27.95467
496.41         28.3396
496.85        28.32834
497.29        28.04269
497.73        28.16503
498.17        28.63106
498.61        28.96983
499.05        29.05692
499.49        29.01024
499.93        28.91599
500.37        28.91024
500.82        29.01247
501.26        29.21944
501.70        29.54477
502.14        29.38214
502.58        29.76874
503.02        29.90851
503.46        29.97946
503.90        30.01995
504.34        30.01776
504.78          30.054
505.22        30.12457
505.66        30.15874
506.10        30.17051
506.54        30.26285
506.98        30.44656
507.42        30.54904
507.86        30.77848
508.30        30.89302
508.74        30.95132
509.18        30.95399
509.62        30.94144
510.06        30.97723
510.50        31.07182
510.94        31.20752
511.38        31.33649
511.82        31.38249
512.26        31.33206
512.70        31.21714
513.14        31.09192
513.58        31.02964
514.02        31.05158
514.46        31.15504
514.90        31.31193
515.34        31.36511
515.78        31.47494
516.22        31.50959
516.66        31.53304
517.10        31.55625
517.54        31.58496
517.98        31.60851
518.42        31.61794
518.86        31.60786
519.30        31.57807
519.74        31.53465
520.18         31.4901
520.62        31.46048
521.06        31.45097
521.50        31.46003
521.93        31.47787
522.37        31.47811
522.81        31.45838
523.25        31.42117
523.69        31.38277
524.13        31.36983
524.57        31.38418
525.01         31.4148
525.45        31.43442
525.89         31.3998
526.32        31.30221
526.76        31.17056
527.20          31.032
527.64        30.93421
528.08        30.88944
528.52        30.87614
528.96        30.88934
529.40        30.92075
529.83         30.9573
530.27        31.00672
530.71        31.02976
531.15        30.96646
531.59        30.81452
532.03        30.59646
532.46        30.37758
532.90        30.27885
533.34        30.32034
533.78        30.46298
534.22        30.64265
534.66         30.7605
535.09        30.78492
535.53        30.75176
535.97        30.68438
536.41        30.62609
536.85        30.59433
537.28        30.57807
537.72        30.57408
538.16        30.57486
538.60        30.58221
539.04        30.61159
539.47        30.66221
539.91        30.74719
540.35        30.85725
540.79        30.98938
541.22        31.12776
541.66        31.25118
542.10        31.35127
542.54        31.43425
542.97        31.50154
543.41        31.57549
543.85        31.65763
544.29        31.74599
544.72        31.84038
545.16        31.96047
545.60        32.09965
546.04        32.25467
546.47         32.4172
546.91        32.56864
547.35        32.70043
547.79        32.83161
548.22        32.95809
548.66         33.0629
549.10        33.16899
549.53        33.39289
549.97        33.70622
550.41        33.94589
550.84        34.09204
551.28        34.23328
551.72        34.37402
552.15        34.48116
552.59        34.56821
553.03        34.63538
553.46        34.69546
553.90        34.79492
554.34        34.93367
554.77        35.11267
555.21        35.29897
555.65        35.43917
556.08        35.48695
556.52        35.53952
556.96        35.60263
557.39        35.73559
557.83         35.9157
558.27        35.98357
558.70        35.95792
559.14        35.98429
559.57        36.07237
560.01        36.22342
560.45         36.3837
560.88        36.41476
561.32        36.38254
561.75        36.41782
562.19        36.55037
562.63        36.79274
563.06        37.05526
563.50        37.05244
563.93        36.83247
564.37        36.79747
564.80        36.95734
565.24        37.10928
565.68        37.22833
566.11        37.35604
566.55        37.49345
566.98        37.65326
567.42        37.82659
567.85        37.89321
568.29        37.92006
568.72        38.02705
569.16        38.22307
569.60         38.4475
570.03        38.70716
570.47        38.70123
570.90        38.92846
571.34        39.26934
571.77        39.46654
572.21        39.45641
572.64        39.95744
573.08        39.70988
573.51        39.88707
573.95        39.96173
574.38        40.20552
574.82        40.05307
