SpectraSmart Spectrum 2.9.0.0
--------- Device Information -----------
Spectrum Name :  反射率_0
Saving Time :  2024/04/27 22:29:20
Spectro-Module Model Name : SE2030-DUVN
Spectro-Module Serial Number : OS361AC55029948
Wavelength Start : 200
Wavelength End : 1025
Wavelength Unit : Wavelength(nm)
Spectrum Unit : Reflectance(%)
-----------Spectrum Setting ------------
Integration Time : 20ms
Average : 10
Boxcar : 0
Background removal :  enabled
linearity correction :  enabled
SC :  disabled
Intensity correction :  disabled
DWT denoise :  enabled
savitzky-golay :  disabled
FFT :  disabled
Running average :  disabled
Kalman :  disabled
High pass :  disabled
---------------BEGIN--------------------
Wavelength(nm)             Reflectance(%)
200.29               0
200.75         84.7173
201.21        112.2101
201.67        125.2427
202.13        121.7757
202.58        108.0554
203.04         88.7287
203.50        71.03086
203.96        66.61065
204.42        75.06662
204.88        89.07853
205.34        103.1296
205.80        113.5997
206.26        120.8648
206.72        127.3766
207.18         131.627
207.64         126.289
208.10        112.6026
208.55        99.54463
209.01        89.85929
209.47        80.79065
209.93        67.72881
210.39        39.47545
210.85       -38.57263
211.31        -116.803
211.77         6.97046
212.23        79.13889
212.69        102.7864
213.14        108.9134
213.60        106.6637
214.06        97.44036
214.52        78.41877
214.98        59.63629
215.44         58.1131
215.90        65.39017
216.36        74.37129
216.81        82.80574
217.27        91.00743
217.73        100.4249
218.19         108.764
218.65        111.1984
219.11        106.2612
219.57        94.35256
220.02        78.75381
220.48        69.88916
220.94        71.76116
221.40         80.6255
221.86        91.01636
222.32        97.37513
222.77         99.2467
223.23        98.75481
223.69        97.54184
224.15        97.24724
224.61        98.13003
225.06        99.56052
225.52        100.6649
225.98        99.62685
226.44        96.84453
226.90        93.69891
227.36        91.53519
227.81         91.2327
228.27        92.72798
228.73        95.45712
229.19        98.55179
229.65        100.1615
230.10        99.49738
230.56         97.4311
231.02        94.76867
231.48        92.75272
231.93        91.59743
232.39        91.04711
232.85        90.85423
233.31        90.83636
233.77        90.87669
234.22        91.10864
234.68         91.2885
235.14        90.98177
235.60        90.13768
236.05        88.78944
236.51        87.32548
236.97        86.88209
237.43        87.83448
237.88        89.92062
238.34        92.06812
238.80        93.46759
239.26        93.89745
239.71        93.62862
240.17        91.92728
240.63        89.10795
241.08        86.84943
241.54        85.54138
242.00         85.1414
242.46        85.01791
242.91        85.02065
243.37         85.2653
243.83        86.28089
244.28        88.87156
244.74        91.59263
245.20        92.35712
245.66         91.9821
246.11        92.07066
246.57        92.92337
247.03         94.4958
247.48        96.63065
247.94        97.35513
248.40        95.22104
248.85        91.74611
249.31        89.23391
249.77        89.02065
250.22        90.46825
250.68        92.70794
251.14        94.68076
251.59        95.65779
252.05        95.71136
252.51         94.4817
252.96        92.00735
253.42        90.41087
253.88        90.50825
254.33        91.49228
254.79        91.66753
255.25        88.91763
255.70         83.9483
256.16        78.78703
256.62        75.30383
257.07        75.51599
257.53        78.78142
257.99        82.79247
258.44        85.70727
258.90        86.58818
259.35        85.38824
259.81        83.57436
260.27        81.58886
260.72        79.99217
261.18        79.29175
261.63        78.75787
262.09        78.63173
262.55         78.6787
263.00        78.68324
263.46        78.87482
263.91        78.84161
264.37        78.50316
264.83        77.77232
265.28        76.70678
265.74        75.65932
266.19        74.74554
266.65        74.10304
267.11        73.58522
267.56        73.05562
268.02        72.43697
268.47        71.64598
268.93        70.77379
269.38        69.86474
269.84        69.03103
270.30        68.29147
270.75        67.60276
271.21        66.92656
271.66        66.14137
272.12        65.25056
272.57        64.22466
273.03         63.1881
273.48        62.21148
273.94        61.38871
274.39        60.64042
274.85        59.91267
275.31        58.98359
275.76        57.81044
276.22        56.53389
276.67         55.2831
277.13        54.41316
277.58        53.86738
278.04        53.59472
278.49        53.27688
278.95        52.63515
279.40        51.54996
279.86        50.23924
280.31        48.86655
280.77        47.84695
281.22         47.1906
281.68        46.84299
282.13        46.57521
282.59        46.18217
283.04        45.56717
283.50        44.83588
283.95        44.08973
284.41        43.56104
284.86        43.25348
285.32        43.11793
285.77        42.96529
286.22        42.59792
286.68        42.00908
287.13        41.24376
287.59        40.49536
288.04        39.94981
288.50        39.69166
288.95        39.60588
289.41        39.60952
289.86        39.50865
290.32        39.28654
290.77        38.98461
291.22        38.67319
291.68        38.44369
292.13        38.30486
292.59        38.24149
293.04        38.22762
293.50        38.26556
293.95        38.33894
294.40        38.47407
294.86        38.66218
295.31        38.87064
295.77        39.10349
296.22         39.3424
296.68        39.63239
297.13        40.02064
297.58        40.50675
298.04        41.06429
298.49        41.59517
298.95        41.98546
299.40        42.20594
299.85        42.29734
300.31         42.3742
300.76        42.57799
301.21        42.94974
301.67        43.44839
302.12        43.93952
302.58        44.28068
303.03        44.41862
303.48        44.42395
303.94        44.42532
304.39        44.55226
304.84        44.85146
305.30        45.27636
305.75        45.69592
306.20        45.96933
306.66        46.07984
307.11        46.04552
307.57        45.98433
308.02         45.9995
308.47        46.13151
308.93         46.3342
309.38        46.50615
309.83        46.53726
310.29        46.41559
310.74        46.17275
311.19        45.87914
311.65        45.63783
312.10        45.46257
312.55        45.32845
313.00        45.22273
313.46        45.12533
313.91        45.01801
314.36        44.92081
314.82        44.79815
315.27        44.58748
315.72        44.28456
316.18        43.90808
316.63        43.52854
317.08        43.28458
317.53        43.19979
317.99        43.23244
318.44        43.28143
318.89        43.16359
319.35        42.84167
319.80        42.37827
320.25        41.88968
320.70        41.56904
321.16        41.45528
321.61        41.48993
322.06        41.57323
322.51        41.54849
322.97        41.36097
323.42        41.07573
323.87        40.72769
324.32        40.38529
324.78        40.07377
325.23        39.77583
325.68        39.50201
326.13        39.28355
326.59        39.10786
327.04        39.00081
327.49        38.90051
327.94        38.70876
328.39        38.40481
328.85        38.00477
329.30        37.59758
329.75         37.3124
330.20        37.19242
330.66        37.19029
331.11        37.25636
331.56        37.24952
332.01        37.12847
332.46        36.92397
332.92        36.68269
333.37        36.53186
333.82        36.48681
334.27        36.50288
334.72        36.51789
335.17        36.43524
335.63        36.22077
336.08        35.93537
336.53        35.60779
336.98        35.29785
337.43        35.03963
337.88        34.82538
338.34        34.67382
338.79        34.62033
339.24         34.6626
339.69        34.79011
340.14        34.95643
340.59        35.08418
341.05        35.14409
341.50        35.14704
341.95        35.10559
342.40        35.05807
342.85        35.01565
343.30        34.96528
343.75        34.89788
344.20        34.79932
344.66        34.67824
345.11        34.55228
345.56        34.43828
346.01        34.35559
346.46        34.30785
346.91        34.27755
347.36        34.28035
347.81        34.33731
348.26        34.44379
348.72        34.60002
349.17        34.72783
349.62        34.70603
350.07        34.51722
350.52        34.18758
350.97        33.86028
351.42        33.76735
351.87        33.94424
352.32        34.31306
352.77        34.67652
353.22        34.73127
353.67        34.41698
354.13        33.84588
354.58        33.18458
355.03         32.7536
355.48        32.63977
355.93        32.75302
356.38        32.94159
356.83        32.96746
357.28        32.77182
357.73        32.43683
358.18        32.08074
358.63        31.88067
359.08        31.87192
359.53        31.97884
359.98         32.0979
360.43        32.07716
360.88        31.87779
361.33         31.5519
361.78        31.16286
362.23        30.84188
362.68         30.6337
363.13         30.4438
363.58        30.22946
364.03        30.24582
364.48        29.95773
364.93        29.79657
365.38        29.62388
365.83        29.47345
366.28        29.34303
366.73        29.22619
367.18        29.09691
367.63        28.90372
368.08        28.64393
368.53        28.33961
368.98        28.03773
369.43        27.81184
369.88        27.68117
370.33        27.62354
370.78        27.60213
371.23        27.55726
371.68        27.46233
372.13        27.32272
372.58        27.15238
373.03        26.97548
373.48        26.80301
373.93        26.63864
374.38        26.45559
374.83        26.21227
375.28        25.91233
375.72        25.56434
376.17        25.27216
376.62        25.15155
377.07        25.21209
377.52        25.39933
377.97        25.59775
378.42        25.62725
378.87        25.44998
379.32        25.13333
379.77        24.75929
380.22        24.45218
380.67        24.25207
381.11        24.12059
381.56        24.05052
382.01         24.0309
382.46        24.04575
382.91        24.09918
383.36        24.14675
383.81        24.11517
384.26        23.98924
384.71        23.78302
385.15        23.53501
385.60        23.34562
386.05        23.22918
386.50        23.16887
386.95        23.13161
387.40        23.06324
387.85         22.9569
388.29        22.82302
388.74        22.72127
389.19        22.68153
389.64        22.70249
390.09        22.75198
390.54         22.8025
390.98        22.80963
391.43         22.7716
391.88        22.70616
392.33        22.59767
392.78        22.46075
393.23        22.31793
393.67        22.07487
394.12        21.81349
394.57        21.90649
395.02        21.97296
395.47        21.95121
395.91        21.76564
396.36        21.72728
396.81        21.84752
397.26        21.95089
397.71        21.99666
398.15        22.01098
398.60        22.01015
399.05        21.90133
399.50        21.74854
399.95        21.78336
400.39        21.94719
400.84         21.9003
401.29        21.64398
401.74        21.39771
402.18        21.23079
402.63        21.18514
403.08        21.23703
403.53        21.22296
403.97        21.13554
404.42        21.10603
404.87        21.12864
405.32        21.15106
405.76        21.16524
406.21        21.12633
406.66        21.07179
407.11        21.16453
407.55        21.35417
408.00        21.40278
408.45        21.28156
408.90        21.02137
409.34        20.72459
409.79        20.67027
410.24        20.82779
410.68        20.87653
411.13        20.79893
411.58        20.81024
412.03         20.9015
412.47        20.94362
412.92        20.91501
413.37        20.85988
413.81        20.79422
414.26        20.75748
414.71        20.75266
415.15        20.76809
415.60        20.78681
416.05        20.79292
416.49        20.78318
416.94        20.76317
417.39        20.73699
417.83        20.71168
418.28        20.68426
418.73        20.64142
419.17        20.60154
419.62        20.59803
420.07        20.64149
420.51        20.73262
420.96        20.81452
421.41        20.82222
421.85        20.74283
422.30        20.50584
422.74        20.23837
423.19        20.38242
423.64        20.86205
424.08         21.1037
424.53        20.99388
424.98        20.94728
425.42        20.97256
425.87        20.67962
426.31        20.21247
426.76        20.22509
427.21        20.62494
427.65        20.65348
428.10        20.34054
428.54        20.25139
428.99        20.39248
429.44        20.64857
429.88        20.85932
430.33        20.53249
430.77        19.88748
431.22        19.78519
431.66        20.22861
432.11        20.61814
432.56        20.84735
433.00         21.0802
433.45         21.0842
433.89         20.6692
434.34        20.22757
434.78        19.11294
435.23        19.80779
435.67        20.44235
436.12        20.76681
436.57        20.98483
437.01        20.88944
437.46        20.80604
437.90        20.83303
438.35        20.87329
438.79        20.33387
439.24        20.14789
439.68        20.16994
440.13         20.3019
440.57        20.45185
441.02        20.65788
441.46        20.82977
441.91        20.54183
442.35        20.00747
442.80        20.15942
443.24        20.82714
443.69        20.81698
444.13        20.17879
444.58        19.94817
445.02        20.13399
445.47        20.19646
445.91        20.10545
446.36        20.09189
446.80        20.14552
447.24        20.18773
447.69        20.21516
448.13        20.27313
448.58        20.33328
449.02        20.29319
449.47         20.1803
449.91        20.12768
450.36        20.15094
450.80        20.16838
451.25        20.18451
451.69        20.23658
452.13        20.31207
452.58        20.37983
453.02        20.40824
453.47        20.35921
453.91        20.22858
454.36        20.06722
454.80        19.88946
455.24        19.69767
455.69        19.55738
456.13        19.48629
456.58        19.50733
457.02        19.72596
457.46        20.01333
457.91        20.01637
458.35        19.83742
458.79        19.76306
459.24        19.82903
459.68        19.84204
460.13        19.80697
460.57        19.70559
461.01         19.6299
461.46        19.60303
461.90        19.52985
462.34        19.47429
462.79        19.73799
463.23        19.78653
463.68        19.72288
464.12        19.66325
464.56        19.63514
465.01        19.68661
465.45         19.7395
465.89         19.6681
466.34        19.53898
466.78        19.45419
467.22        19.40751
467.67        19.79752
468.11        19.73375
468.55        19.71413
468.99        19.53721
469.44         19.4997
469.88        19.61288
470.32        19.70974
470.77        19.76644
471.21        19.80776
471.65        19.82802
472.10        19.82982
472.54         19.8062
472.98        19.77596
473.42         19.7525
473.87         19.6768
474.31        19.59003
474.75        19.73747
475.20        20.05154
475.64        20.14182
476.08        20.00046
476.52        20.00167
476.97        20.16638
477.41        20.09418
477.85        19.98508
478.29        20.12388
478.74         20.0082
479.18        19.86835
479.62        20.20256
480.06        20.26132
480.50        20.25277
480.95        20.17647
481.39        20.04004
481.83        20.28549
482.27        20.31444
482.72        20.28222
483.16        20.60904
483.60        20.70466
484.04        20.72643
484.48        20.71234
484.93        20.85023
485.37        20.84783
485.81          21.516
486.25        21.91702
486.69        21.06976
487.14        20.82278
487.58        21.72709
488.02        21.72462
488.46        21.49618
488.90        21.75262
489.34        21.40995
489.79        21.17306
490.23        21.57347
490.67        21.83555
491.11        22.11829
491.55        22.14448
491.99        21.99664
492.43        22.05873
492.88        22.34557
493.32        22.60014
493.76        22.77117
494.20        22.95743
494.64        23.16641
495.08        23.29905
495.52        23.37238
495.96        23.62829
496.41        24.03112
496.85        23.95543
497.29        23.56301
497.73        23.74889
498.17        24.40832
498.61        24.72678
499.05        24.60586
499.49        24.50533
499.93        24.50864
500.37        24.53008
500.82         24.5813
501.26        24.74279
501.70        25.02799
502.14        24.90238
502.58        25.23895
503.02        25.35235
503.46        25.39292
503.90        25.40266
504.34        25.38226
504.78        25.41479
505.22        25.50154
505.66        25.57774
506.10        25.64841
506.54        25.79063
506.98        26.00674
507.42        26.14723
507.86        26.38696
508.30        26.51433
508.74         26.5802
509.18        26.59109
509.62        26.57817
510.06        26.59125
510.50        26.64316
510.94           26.72
511.38        26.80866
511.82        26.88747
512.26        26.94732
512.70        26.99858
513.14        27.03743
513.58        27.04501
514.02        27.02155
514.46        26.99108
514.90        26.97601
515.34        26.91869
515.78        26.98086
516.22        27.02692
516.66        27.09026
517.10        27.14443
517.54        27.18161
517.98        27.20704
518.42        27.21364
518.86        27.19532
519.30        27.15375
519.74        27.08993
520.18         27.0247
520.62        26.99109
521.06        26.99592
521.50        27.03282
521.93        27.07767
522.37        27.08018
522.81        27.03313
523.25        26.94829
523.69        26.85612
524.13        26.80495
524.57        26.80371
525.01         26.8353
525.45        26.86571
525.89        26.84198
526.32         26.7494
526.76        26.61484
527.20        26.46831
527.64        26.36065
528.08        26.30538
528.52         26.2847
528.96        26.27936
529.40        26.25923
529.83        26.21341
530.27        26.15648
530.71        26.08985
531.15        26.01607
531.59        25.93938
532.03        25.85776
532.46        25.77963
532.90        25.73378
533.34        25.71918
533.78        25.72782
534.22        25.74217
534.66        25.73418
535.09        25.69518
535.53        25.64119
535.97        25.57874
536.41        25.52301
536.85        25.48192
537.28        25.45366
537.72        25.44491
538.16        25.46207
538.60        25.50567
539.04        25.57854
539.47         25.6617
539.91        25.74117
540.35        25.80538
540.79        25.86202
541.22        25.91512
541.66        25.97451
542.10        26.04265
542.54         26.1179
542.97        26.19607
543.41        26.28601
543.85         26.3852
544.29        26.49607
544.72        26.61473
545.16        26.75244
545.60        26.90165
546.04        27.05746
546.47         27.2197
546.91        27.38417
547.35        27.54489
547.79        27.71446
548.22        27.87569
548.66        27.99469
549.10        28.08876
549.53        28.26497
549.97        28.51804
550.41        28.74022
550.84        28.92187
551.28        29.12924
551.72        29.34756
552.15        29.51825
552.59        29.64419
553.03        29.73292
553.46        29.80957
553.90        29.93693
554.34        30.11923
554.77        30.34792
555.21        30.58088
555.65        30.75013
556.08        30.81118
556.52        30.85899
556.96        30.90908
557.39        31.03034
557.83        31.20905
558.27         31.2932
558.70        31.30013
559.14        31.37546
559.57        31.51474
560.01        31.67838
560.45          31.817
560.88        31.83779
561.32        31.79987
561.75        31.80313
562.19        31.87728
562.63        32.04865
563.06        32.24531
563.50        32.21904
563.93        32.02185
564.37        32.01825
564.80        32.21586
565.24        32.42926
565.68        32.62209
566.11        32.80841
566.55        32.98141
566.98        33.15778
567.42        33.32726
567.85        33.38395
568.29        33.39266
568.72        33.45176
569.16        33.57115
569.60        33.78156
570.03        34.10938
570.47        34.13099
570.90         34.2258
571.34        34.94664
571.77        34.85888
572.21        34.84449
572.64        35.21746
573.08        35.06534
573.51        35.41209
573.95        35.55768
574.38        35.66811
574.82        35.85639
