SpectraSmart Spectrum 2.9.0.0
--------- Device Information -----------
Spectrum Name :  反射率_0
Saving Time :  2024/04/27 23:06:05
Spectro-Module Model Name : SE2030-DUVN
Spectro-Module Serial Number : OS361AC55029948
Wavelength Start : 200
Wavelength End : 1025
Wavelength Unit : Wavelength(nm)
Spectrum Unit : Reflectance(%)
-----------Spectrum Setting ------------
Integration Time : 20ms
Average : 10
Boxcar : 0
Background removal :  enabled
linearity correction :  enabled
SC :  disabled
Intensity correction :  disabled
DWT denoise :  enabled
savitzky-golay :  disabled
FFT :  disabled
Running average :  disabled
Kalman :  disabled
High pass :  disabled
---------------BEGIN--------------------
Wavelength(nm)             Reflectance(%)
200.29               0
200.75       -63.34902
201.21       -40.22528
201.67       -16.60365
202.13      -0.1433374
202.58        11.85599
203.04         22.2575
203.50         31.8189
203.96         39.4814
204.42         44.6791
204.88        48.06676
205.34        49.90025
205.80          50.683
206.26        50.51132
206.72        48.24358
207.18        44.06378
207.64        41.76644
208.10        43.65314
208.55        48.34799
209.01        49.59219
209.47         44.0359
209.93        28.38053
210.39       -13.06299
210.85       -140.0704
211.31       -301.9519
211.77       -124.0822
212.23       -2.337447
212.69        41.29248
213.14        54.43898
213.60        53.51249
214.06        42.61633
214.52        19.73479
214.98       0.5947117
215.44        4.626517
215.90        17.50795
216.36        28.90034
216.81        35.78148
217.27        39.20691
217.73        42.00022
218.19        43.30642
218.65        40.78293
219.11        34.15523
219.57        23.40755
220.02        11.83663
220.48        9.356925
220.94        17.94144
221.40        32.53657
221.86        47.01229
222.32        55.64209
222.77        58.50496
223.23        58.17285
223.69        56.04971
224.15        53.29403
224.61        50.31912
225.06        46.41579
225.52        43.12399
225.98        42.98234
226.44        45.76369
226.90         49.8255
227.36        53.07697
227.81        53.84284
228.27        52.34437
228.73        49.07642
229.19        45.06921
229.65        42.56719
230.10        42.32853
230.56        43.89631
231.02         45.7906
231.48        46.10302
231.93        44.54093
232.39        41.96421
232.85        39.55399
233.31        38.94468
233.77        40.26577
234.22        42.85339
234.68        45.42373
235.14        46.42834
235.60        45.55491
236.05        43.06547
236.51        40.04166
236.97        38.89093
237.43        40.56042
237.88        44.48797
238.34        48.53639
238.80        50.48346
239.26        49.63068
239.71        45.46416
240.17        38.02402
240.63        33.14989
241.08        36.60035
241.54        44.40642
242.00        50.69093
242.46         52.5842
242.91        50.20174
243.37        42.13079
243.83        24.22283
244.28        1.164341
244.74      -0.2268928
245.20        20.27651
245.66        37.77363
246.11        41.30291
246.57        32.64553
247.03         12.1751
247.48       -21.03799
247.94       -46.07201
248.40       -39.13956
248.85        -12.7844
249.31         17.4183
249.77        39.60365
250.22         52.4058
250.68        59.76281
251.14        63.10762
251.59        63.36001
252.05        61.07897
252.51        54.82114
252.96        44.23631
253.42        35.18788
253.88        32.43438
254.33        35.08421
254.79        38.23295
255.25        37.66239
255.70        34.19338
256.16        30.12641
256.62        27.78045
257.07        29.46908
257.53        34.09849
257.99        39.31628
258.44        43.20465
258.90         44.4564
259.35        43.33119
259.81        41.11816
260.27        38.68112
260.72        36.99765
261.18        36.35559
261.63         36.1377
262.09        36.00502
262.55        35.35029
263.00        34.13943
263.46        32.76482
263.91        31.51291
264.37        30.97323
264.83        31.11278
265.28        31.62635
265.74        32.21392
266.19        32.41187
266.65        32.19053
267.11        31.68056
267.56        31.00993
268.02        30.45237
268.47         30.0485
268.93        29.71922
269.38        29.41298
269.84        29.07651
270.30        28.68183
270.75        28.26006
271.21        27.79515
271.66        27.21551
272.12        26.54332
272.57        25.78226
273.03        25.03215
273.48        24.37884
273.94        23.89185
274.39        23.52347
274.85        23.25505
275.31        23.00407
275.76        22.72713
276.22        22.44397
276.67        22.15145
277.13        21.91253
277.58        21.69016
278.04        21.49711
278.49        21.22584
278.95        20.80702
279.40         20.2136
279.86        19.54874
280.31        18.90621
280.77        18.50983
281.22        18.36195
281.68          18.409
282.13        18.52673
282.59        18.56358
283.04         18.4717
283.50        18.29391
283.95        18.07446
284.41         17.9028
284.86        17.78916
285.32        17.71363
285.77        17.61734
286.22        17.43757
286.68        17.18453
287.13        16.86864
287.59        16.58085
288.04        16.39326
288.50        16.34353
288.95        16.38177
289.41        16.45812
289.86        16.46737
290.32        16.39752
290.77        16.27461
291.22        16.14905
291.68        16.09433
292.13        16.12116
292.59        16.21053
293.04        16.32673
293.50        16.43331
293.95        16.51624
294.40        16.60691
294.86        16.72184
295.31        16.87809
295.77        17.08938
296.22        17.33201
296.68        17.62882
297.13        17.99602
297.58        18.42756
298.04        18.90287
298.49        19.35945
298.95        19.70457
299.40        19.92657
299.85        20.05117
300.31         20.1658
300.76        20.37835
301.21        20.71986
301.67        21.14857
302.12        21.57864
302.58          21.901
303.03        22.08422
303.48        22.17222
303.94        22.23799
304.39        22.35748
304.84         22.5605
305.30        22.81976
305.75        23.07397
306.20        23.25527
306.66        23.35589
307.11        23.37512
307.57        23.37494
308.02        23.39973
308.47        23.46974
308.93        23.55988
309.38        23.60732
309.83        23.52953
310.29        23.32467
310.74          23.019
311.19        22.68371
311.65        22.42959
312.10        22.27277
312.55        22.18805
313.00        22.14092
313.46        22.07513
313.91        21.97043
314.36        21.85022
314.82        21.70718
315.27        21.52353
315.72        21.30712
316.18        21.06718
316.63        20.84088
317.08        20.70956
317.53        20.68379
317.99        20.73123
318.44        20.80128
318.89        20.79617
319.35        20.68862
319.80        20.50838
320.25        20.28378
320.70        20.06779
321.16        19.87538
321.61        19.69476
322.06        19.52798
322.51         19.3815
322.97        19.25257
323.42         19.1559
323.87        19.06242
324.32        18.92513
324.78        18.73421
325.23        18.49869
325.68        18.26725
326.13        18.12573
326.59         18.0819
327.04        18.12804
327.49        18.18242
327.94        18.11592
328.39        17.89734
328.85        17.56041
329.30        17.19341
329.75        16.95892
330.20        16.90412
330.66        16.97278
331.11        17.08489
331.56        17.07028
332.01         16.8833
332.46        16.57741
332.92        16.22851
333.37        15.97963
333.82        15.87506
334.27        15.86512
334.72        15.90928
335.17        15.94275
335.63        15.93283
336.08        15.91692
336.53        15.86892
336.98        15.74963
337.43        15.56451
337.88        15.32494
338.34        15.10269
338.79         15.0182
339.24        15.09842
339.69        15.30406
340.14        15.55611
340.59        15.72302
341.05        15.76023
341.50          15.704
341.95        15.58183
342.40        15.44956
342.85        15.32915
343.30        15.20232
343.75        15.07286
344.20        14.94825
344.66         14.8392
345.11        14.75937
345.56        14.70278
346.01        14.65067
346.46        14.59655
346.91        14.53014
347.36        14.48797
347.81        14.52581
348.26        14.64675
348.72        14.84051
349.17        15.00969
349.62        14.99727
350.07        14.78176
350.52        14.40585
350.97        14.04062
351.42         13.9608
351.87        14.21109
352.32        14.69688
352.77        15.20143
353.22        15.39143
353.67        15.19852
354.13        14.74764
354.58        14.20452
355.03        13.88604
355.48        13.87981
355.93        14.08804
356.38         14.3811
356.83        14.55838
357.28        14.56159
357.73        14.45986
358.18        14.31999
358.63        14.24034
359.08        14.24288
359.53        14.27546
359.98        14.29919
360.43        14.26473
360.88        14.15876
361.33        14.00846
361.78        13.81347
362.23        13.60678
362.68        13.41614
363.13        13.17245
363.58        12.89904
364.03        13.03289
364.48        12.93197
364.93        13.08379
365.38        13.25748
365.83        13.40827
366.28        13.50345
366.73        13.56093
367.18        13.55911
367.63          13.452
368.08        13.24609
368.53        12.95691
368.98        12.66025
369.43        12.47997
369.88        12.44636
370.33        12.53137
370.78        12.66158
371.23        12.71065
371.68        12.64037
372.13         12.4811
372.58        12.28976
373.03        12.16078
373.48        12.12127
373.93        12.14558
374.38        12.17815
374.83        12.13304
375.28        11.99744
375.72        11.79747
376.17        11.62499
376.62        11.58388
377.07        11.68603
377.52        11.87409
377.97        12.07246
378.42        12.16587
378.87        12.12346
379.32        11.99396
379.77        11.79639
380.22        11.55735
380.67        11.30236
381.11        11.02621
381.56        10.79483
382.01        10.71536
382.46        10.80174
382.91         11.0206
383.36        11.26692
383.81         11.3723
384.26        11.29849
384.71        11.09386
385.15        10.83525
385.60        10.67666
386.05        10.64871
386.50        10.70821
386.95        10.80753
387.40        10.87199
387.85        10.88257
388.29        10.86409
388.74        10.85162
389.19        10.86697
389.64        10.91216
390.09        10.96049
390.54        11.00638
390.98        11.04459
391.43        11.06928
391.88        11.08651
392.33        11.06036
392.78        10.95677
393.23         10.7866
393.67        10.52202
394.12        10.24803
394.57         10.1958
395.02        10.19852
395.47        10.21383
395.91        10.17234
396.36        10.15901
396.81        10.16539
397.26        10.12904
397.71        10.06705
398.15        10.04271
398.60        10.06942
399.05        10.08275
399.50        10.07848
399.95        10.11804
400.39        10.16539
400.84        10.07897
401.29        9.886302
401.74        9.731881
402.18         9.66104
402.63        9.681705
403.08        9.767185
403.53        9.817362
403.97        9.817811
404.42         9.83217
404.87         9.86292
405.32        9.893576
405.76        9.920094
406.21         9.91454
406.66        9.884034
407.11        9.889592
407.55        9.905726
408.00        9.831074
408.45        9.670605
408.90        9.467973
409.34        9.282487
409.79        9.236388
410.24        9.309813
410.68        9.349817
411.13        9.341348
411.58        9.377997
412.03        9.453525
412.47        9.506375
412.92        9.518957
413.37        9.509484
413.81         9.47253
414.26        9.408268
414.71        9.319534
415.15        9.208817
415.60        9.096884
416.05        9.021852
416.49        8.995678
416.94        9.005436
417.39        9.034177
417.83        9.053755
418.28         9.04903
418.73        9.025107
419.17         8.98252
419.62         8.92509
420.07        8.864058
420.51        8.809072
420.96           8.763
421.41        8.742754
421.85        8.746492
422.30        8.721902
422.74        8.702219
423.19        8.850581
423.64        9.124573
424.08        9.285746
424.53        9.254185
424.98        9.178826
425.42        9.060865
425.87        8.743427
426.31        8.350323
426.76         8.25641
427.21         8.43922
427.65        8.568714
428.10        8.580176
428.54        8.595812
428.99         8.59552
429.44        8.568938
429.88        8.505589
430.33        8.298403
430.77        8.056673
431.22        8.097959
431.66        8.387242
432.11        8.603025
432.56        8.678472
433.00        8.705466
433.45        8.616139
433.89        8.377536
434.34        8.172092
434.78        7.722348
435.23        8.016299
435.67        8.278997
436.12        8.399527
436.57        8.467964
437.01        8.414565
437.46         8.38156
437.90         8.41196
438.35         8.45913
438.79         8.26295
439.24        8.178028
439.68        8.141028
440.13        8.128388
440.57        8.123249
441.02        8.171222
441.46        8.246269
441.91        8.161486
442.35        7.997585
442.80        8.123502
443.24         8.46892
443.69        8.548627
444.13        8.347031
444.58        8.246466
445.02        8.245913
445.47        8.145663
445.91        7.972142
446.36        7.885139
446.80        7.896054
447.24        7.955604
447.69        8.046135
448.13        8.166164
448.58        8.288117
449.02        8.377178
449.47        8.418518
449.91        8.431528
450.36        8.417176
450.80        8.349721
451.25        8.265612
451.69        8.241041
452.13        8.282257
452.58        8.358546
453.02        8.423855
453.47        8.408661
453.91        8.298864
454.36        8.138993
454.80        7.957308
455.24        7.792176
455.69        7.685432
456.13        7.632258
456.58        7.641708
457.02        7.754194
457.46        7.915075
457.91        7.981455
458.35        7.979365
458.79        7.998286
459.24        8.050128
459.68        8.062295
460.13        8.046887
460.57        8.011176
461.01        7.998361
461.46        8.009243
461.90        8.006788
462.34        8.019005
462.79        8.164553
463.23        8.223104
463.68        8.218325
464.12        8.175874
464.56        8.105523
465.01        8.044744
465.45        7.976393
465.89        7.876374
466.34        7.780014
466.78        7.717277
467.22        7.692333
467.67        7.872242
468.11        7.900732
468.55        7.972863
468.99        7.976869
469.44        7.985313
469.88        7.994124
470.32         7.94733
470.77        7.875919
471.21        7.856683
471.65        7.904558
472.10        7.999291
472.54        8.100907
472.98        8.156982
473.42        8.157206
473.87        8.095745
474.31         8.01517
474.75        8.058045
475.20        8.205917
475.64        8.286612
476.08        8.270834
476.52        8.276744
476.97        8.308024
477.41        8.211979
477.85         8.10066
478.29        8.135849
478.74        8.124819
479.18        8.144119
479.62         8.36797
480.06        8.441574
480.50        8.438645
480.95        8.372366
481.39        8.271465
481.83        8.363751
482.27        8.411702
482.72        8.460509
483.16        8.663554
483.60        8.736338
484.04        8.718397
484.48        8.680158
484.93         8.76466
485.37        8.722549
485.81        8.797314
486.25         9.37518
486.69        8.689133
487.14        8.271297
487.58        9.403398
488.02        9.136935
488.46        9.329777
488.90        9.407994
489.34        8.963573
489.79        8.879866
490.23        9.234012
490.67        9.470702
491.11        9.601647
491.55        9.601805
491.99        9.528482
492.43        9.579893
492.88        9.766265
493.32        9.922074
493.76         10.0217
494.20        10.13931
494.64        10.27829
495.08        10.38678
495.52        10.46363
495.96        10.58779
496.41        10.77666
496.85        10.72641
497.29        10.54114
497.73        10.65309
498.17        11.02299
498.61        11.27465
499.05        11.33035
499.49         11.3529
499.93        11.36985
500.37        11.35481
500.82        11.33736
501.26        11.38783
501.70        11.52701
502.14          11.501
502.58         11.6976
503.02         11.7768
503.46        11.80278
503.90        11.80242
504.34        11.79494
504.78        11.84868
505.22        11.96652
505.66        12.10294
506.10         12.2298
506.54        12.33769
506.98        12.41863
507.42        12.41947
507.86        12.44737
508.30         12.4408
508.74        12.43901
509.18        12.43474
509.62        12.44415
510.06         12.4915
510.50        12.57692
510.94        12.69269
511.38        12.81184
511.82        12.89016
512.26        12.91628
512.70        12.90326
513.14        12.87014
513.58        12.84396
514.02        12.83653
514.46        12.85142
514.90        12.88758
515.34        12.89749
515.78        12.95168
516.22        12.98985
516.66        13.03683
517.10        13.09307
517.54        13.15596
517.98        13.22187
518.42        13.27002
518.86        13.27164
519.30        13.22346
519.74        13.13518
520.18        13.04151
520.62        12.99572
521.06        13.01084
521.50        13.07573
521.93        13.15578
522.37        13.18552
522.81        13.15197
523.25        13.06944
523.69        12.97925
524.13        12.94713
524.57        12.98319
525.01        13.06313
525.45        13.13427
525.89        13.11434
526.32        12.98699
526.76        12.79251
527.20         12.5842
527.64        12.44799
528.08        12.40666
528.52        12.42816
528.96        12.48614
529.40        12.53929
529.83        12.56855
530.27        12.58649
530.71        12.57778
531.15        12.51615
531.59        12.40466
532.03        12.25309
532.46        12.09996
532.90        12.02041
533.34        12.02764
533.78        12.10102
534.22        12.20615
534.66        12.28807
535.09        12.32889
535.53        12.34403
535.97         12.3429
536.41        12.34224
536.85        12.34836
537.28        12.35441
537.72        12.36001
538.16        12.36488
538.60        12.37158
539.04        12.38835
539.47        12.41358
539.91        12.45063
540.35        12.49575
540.79        12.54732
541.22        12.60694
541.66        12.67737
542.10        12.75602
542.54        12.84235
542.97        12.91946
543.41        12.96969
543.85        12.99064
544.29         12.9903
544.72        12.99197
545.16        13.04493
545.60        13.15222
546.04        13.29896
546.47        13.45851
546.91        13.58152
547.35         13.6558
547.79        13.70442
548.22        13.74004
548.66        13.78253
549.10        13.84869
549.53        13.98002
549.97         14.1636
550.41        14.33191
550.84        14.47305
551.28         14.6245
551.72        14.77687
552.15        14.89661
552.59        14.98488
553.03        15.04358
553.46        15.09035
553.90        15.16542
554.34        15.27373
554.77        15.41063
555.21        15.54834
555.65        15.64244
556.08        15.66732
556.52        15.67241
556.96        15.67708
557.39        15.73281
557.83        15.83642
558.27        15.90985
558.70        15.94083
559.14        15.96907
559.57        15.98958
560.01        15.99534
560.45        16.00042
560.88        16.01747
561.32        16.08262
561.75        16.22332
562.19        16.40699
562.63        16.57759
563.06        16.68045
563.50        16.60962
563.93        16.42579
564.37        16.37333
564.80        16.47031
565.24        16.60346
565.68        16.73687
566.11        16.85136
566.55        16.93617
566.98        17.01368
567.42        17.08718
567.85        17.11281
568.29        17.12609
568.72        17.16937
569.16        17.25651
569.60        17.39941
570.03        17.61195
570.47        17.71101
570.90        17.87334
571.34        18.21749
571.77        18.26373
572.21        18.19064
572.64        18.29383
573.08        18.32279
573.51        18.75479
573.95        18.84984
574.38        18.71115
574.82        18.74866
