SpectraSmart Spectrum 2.9.0.0
--------- Device Information -----------
Spectrum Name :  反射率_0
Saving Time :  2024/04/27 22:20:27
Spectro-Module Model Name : SE2030-DUVN
Spectro-Module Serial Number : OS361AC55029948
Wavelength Start : 200
Wavelength End : 1025
Wavelength Unit : Wavelength(nm)
Spectrum Unit : Reflectance(%)
-----------Spectrum Setting ------------
Integration Time : 20ms
Average : 10
Boxcar : 0
Background removal :  enabled
linearity correction :  enabled
SC :  disabled
Intensity correction :  disabled
DWT denoise :  enabled
savitzky-golay :  disabled
FFT :  disabled
Running average :  disabled
Kalman :  disabled
High pass :  disabled
---------------BEGIN--------------------
Wavelength(nm)             Reflectance(%)
200.29               0
200.75       -17.03444
201.21        37.06328
201.67        76.33699
202.13        91.07261
202.58        90.14626
203.04        81.52188
203.50        70.42447
203.96        63.95039
204.42        63.51905
204.88        66.20289
205.34        69.05579
205.80        69.46878
206.26        66.68951
206.72        59.83712
207.18        49.98246
207.64        47.31151
208.10        56.30142
208.55        68.96737
209.01        75.87798
209.47        74.32778
209.93        62.87154
210.39        29.32454
210.85       -76.92413
211.31       -219.1768
211.77       -74.63873
212.23        28.08853
212.69        65.58978
213.14         77.3172
213.60        77.24458
214.06        69.11533
214.52          51.702
214.98        37.64286
215.44        41.58912
215.90        52.07034
216.36        60.44025
216.81        63.85427
217.27        63.51645
217.73        61.81171
218.19        59.07944
218.65        55.36787
219.11        51.10354
219.57        45.91357
220.02        41.45317
220.48        42.84763
220.94        50.29531
221.40        60.83089
221.86        70.58633
222.32        76.13997
222.77        77.69695
223.23        76.81572
223.69         74.8535
224.15        73.10665
224.61         71.8344
225.06        70.49412
225.52        69.33077
225.98        68.50822
226.44        68.09247
226.90        67.98828
227.36        67.94096
227.81        67.58817
228.27        66.93224
228.73        65.96198
229.19        64.56446
229.65        62.71067
230.10        60.53851
230.56        58.46386
231.02        56.77102
231.48        55.89415
231.93        55.75813
232.39        56.25915
232.85        57.12497
233.31        58.04013
233.77        58.86314
234.22        59.70753
234.68        60.30389
235.14         60.3808
235.60        59.90841
236.05        58.78894
236.51        57.55725
236.97        57.41119
237.43        58.74647
237.88        61.43713
238.34        63.97255
238.80        64.87263
239.26        63.60543
239.71        59.50498
240.17        52.55192
240.63        48.39931
241.08         52.2596
241.54        60.29406
242.00        66.59159
242.46        68.24027
242.91        65.37151
243.37        56.17239
243.83        36.22148
244.28        11.94125
244.74         13.5755
245.20        39.69787
245.66         61.4204
246.11        67.83026
246.57         62.0719
247.03        44.54491
247.48        15.36394
247.94       -4.504138
248.40        6.248924
248.85        34.79601
249.31        62.80286
249.77        76.00668
250.22        76.39828
250.68        71.38266
251.14        65.41404
251.59        61.55859
252.05        59.96269
252.51        58.78776
252.96        57.32915
253.42        56.11184
253.88        55.23065
254.33        55.65539
254.79        56.16618
255.25        55.01423
255.70        52.61988
256.16         50.1046
256.62        48.90667
257.07        50.59291
257.53        54.36156
257.99        58.33368
258.44        60.98145
258.90        61.39902
259.35        59.72682
259.81        57.27453
260.27         54.5989
260.72        52.36307
261.18        51.03314
261.63        50.10204
262.09        49.62807
262.55        49.36034
263.00        49.13727
263.46         49.0932
263.91        49.09826
264.37        49.27526
264.83        49.49614
265.28        49.66399
265.74         49.6923
266.19          49.284
266.65        48.51646
267.11        47.45166
267.56        46.28724
268.02         45.4366
268.47        44.94371
268.93        44.70925
269.38         44.5544
269.84        44.22001
270.30        43.62518
270.75        42.85939
271.21        41.99305
271.66         41.0805
272.12        40.18963
272.57        39.27341
273.03        38.41884
273.48        37.67756
273.94        37.11656
274.39        36.68897
274.85        36.37619
275.31        36.05869
275.76        35.67912
276.22         35.2743
276.67        34.84341
277.13        34.49849
277.58        34.18842
278.04         33.9294
278.49        33.57254
278.95         33.0256
279.40        32.24459
279.86        31.36341
280.31        30.49424
280.77        29.92072
281.22        29.64003
281.68        29.59996
282.13        29.63299
282.59        29.56337
283.04        29.32115
283.50        28.97234
283.95        28.57745
284.41        28.27286
284.86         28.0718
285.32        27.95777
285.77        27.83268
286.22        27.59782
286.68        27.26149
287.13        26.83589
287.59        26.46157
288.04        26.27019
288.50        26.30603
288.95        26.47701
289.41        26.67685
289.86        26.69837
290.32        26.52607
290.77         26.2297
291.22        25.91241
291.68        25.72052
292.13        25.69045
292.59        25.79021
293.04        26.00083
293.50        26.31917
293.95        26.71671
294.40        27.20551
294.86        27.73805
295.31         28.2273
295.77        28.66181
296.22        29.04055
296.68        29.42497
297.13         29.8958
297.58        30.47327
298.04        31.12771
298.49        31.79033
298.95        32.37712
299.40        32.86898
299.85        33.29601
300.31          33.744
300.76        34.30293
301.21        34.99357
301.67        35.78204
302.12         36.5459
302.58        37.15324
303.03        37.56276
303.48        37.83176
303.94        38.09382
304.39        38.49782
304.84        39.08377
305.30        39.79344
305.75        40.47782
306.20        40.96134
306.66        41.21815
307.11        41.27847
307.57         41.2704
308.02        41.31878
308.47        41.47498
308.93        41.69558
309.38         41.8853
309.83        41.93506
310.29        41.83801
310.74        41.63227
311.19        41.40168
311.65        41.26744
312.10          41.242
312.55        41.28792
313.00        41.36505
313.46        41.41437
313.91        41.40673
314.36        41.36767
314.82        41.27919
315.27        41.10796
315.72        40.86164
316.18        40.55901
316.63        40.25582
317.08        40.06575
317.53         40.0113
317.99        40.05803
318.44        40.14359
318.89        40.14621
319.35        40.03106
319.80        39.83106
320.25        39.59285
320.70         39.4007
321.16        39.26796
321.61        39.16995
322.06        39.06586
322.51        38.89648
322.97        38.64441
323.42        38.35599
323.87         38.0476
324.32        37.75131
324.78        37.48195
325.23        37.23805
325.68         37.0445
326.13        36.94962
326.59        36.93976
327.04        37.02139
327.49        37.10777
327.94        37.06758
328.39        36.86692
328.85        36.52628
329.30        36.14144
329.75        35.85985
330.20          35.733
330.66        35.71186
331.11        35.74844
331.56        35.70345
332.01         35.5414
332.46        35.30549
332.92        35.05193
333.37        34.91412
333.82        34.91505
334.27        35.01155
334.72        35.14594
335.17        35.22884
335.63        35.21952
336.08        35.16138
336.53        35.06414
336.98        34.96108
337.43        34.86797
337.88        34.77333
338.34        34.68008
338.79        34.60359
339.24        34.54716
339.69        34.51814
340.14        34.50492
340.59         34.4854
341.05        34.45219
341.50        34.40755
341.95        34.36566
342.40        34.35886
342.85        34.38945
343.30        34.44727
343.75        34.48619
344.20        34.43378
344.66        34.28476
345.11        34.06163
345.56         33.8357
346.01        33.71766
346.46        33.72913
346.91         33.8301
347.36        33.95976
347.81        34.02065
348.26        33.98865
348.72        33.90131
349.17        33.78036
349.62        33.66235
350.07        33.56204
350.52        33.45627
350.97        33.37664
351.42        33.37584
351.87        33.45292
352.32        33.59583
352.77        33.71381
353.22        33.66701
353.67        33.43346
354.13        33.06412
354.58        32.65611
355.03         32.4205
355.48        32.40497
355.93        32.55424
356.38        32.73126
356.83        32.71985
357.28         32.4753
357.73        32.06882
358.18        31.63801
358.63        31.39533
359.08        31.38196
359.53        31.51773
359.98        31.67493
360.43        31.65734
360.88        31.41758
361.33        31.02365
361.78        30.56033
362.23        30.19437
362.68        29.98012
363.13        29.80769
363.58        29.62548
364.03         29.6781
364.48        29.41812
364.93        29.28407
365.38        29.12496
365.83        28.95695
366.28        28.77609
366.73        28.57894
367.18        28.36036
367.63        28.10416
368.08        27.81542
368.53        27.50768
368.98        27.20556
369.43        26.94435
369.88        26.73599
370.33        26.57353
370.78        26.44245
371.23        26.31897
371.68        26.18634
372.13         26.0363
372.58        25.87259
373.03        25.70255
373.48        25.52958
373.93        25.36506
374.38        25.17429
374.83        24.90185
375.28        24.55363
375.72        24.14318
376.17        23.79727
376.62        23.67046
377.07        23.77562
377.52        24.03927
377.97        24.32119
378.42        24.40171
378.87        24.23169
379.32        23.89467
379.77        23.47178
380.22        23.08697
380.67        22.78648
381.11        22.52894
381.56         22.3439
382.01        22.28076
382.46        22.33402
382.91        22.49566
383.36        22.65986
383.81         22.6543
384.26        22.44811
384.71        22.08736
385.15        21.68575
385.60        21.46264
386.05        21.45408
386.50        21.59568
386.95        21.78186
387.40        21.84636
387.85        21.75363
388.29         21.5555
388.74        21.35067
389.19        21.22529
389.64        21.19505
390.09        21.20838
390.54        21.23635
390.98        21.23488
391.43        21.19865
391.88        21.15185
392.33        21.06569
392.78        20.92952
393.23        20.76248
393.67        20.48182
394.12        20.18737
394.57        20.25898
395.02        20.34928
395.47        20.39021
395.91        20.28164
396.36        20.26349
396.81        20.33644
397.26        20.35586
397.71        20.31724
398.15        20.29138
398.60        20.30416
399.05        20.25598
399.50        20.18328
399.95        20.27084
400.39         20.4564
400.84         20.4277
401.29        20.20374
401.74        20.01873
402.18        19.94028
402.63        19.99718
403.08        20.12782
403.53        20.11613
403.97        19.94687
404.42        19.76724
404.87        19.62989
405.32        19.57528
405.76        19.61563
406.21        19.68306
406.66        19.75813
407.11        19.90802
407.55        20.06331
408.00        20.02452
408.45        19.81029
408.90         19.5269
409.34        19.28981
409.79        19.33228
410.24        19.58916
410.68        19.70304
411.13         19.6425
411.58        19.63069
412.03        19.68918
412.47         19.7448
412.92        19.78846
413.37        19.84086
413.81        19.88945
414.26        19.93515
414.71        19.97156
415.15        19.99854
415.60        20.01364
416.05        20.02406
416.49        20.03378
416.94        20.04094
417.39        20.04036
417.83        20.02493
418.28        19.99163
418.73         19.9387
419.17         19.8951
419.62        19.90882
420.07        19.99397
420.51        20.14261
420.96        20.29826
421.41        20.39581
421.85        20.41672
422.30        20.28919
422.74        20.11953
423.19        20.32302
423.64        20.82313
424.08        21.05153
424.53        20.92285
424.98        20.89861
425.42        20.99859
425.87         20.8204
426.31        20.46792
426.76        20.54144
427.21        20.93772
427.65        20.90788
428.10        20.52547
428.54        20.42695
428.99        20.62646
429.44        20.97944
429.88        21.30155
430.33        21.03993
430.77        20.41442
431.22        20.36638
431.66        20.87188
432.11        21.23962
432.56        21.37112
433.00        21.43609
433.45         21.2886
433.89        21.01434
434.34        20.93801
434.78        19.97894
435.23        20.69592
435.67        21.37817
436.12        21.75673
436.57        21.86467
437.01        21.56794
437.46         21.4312
437.90        21.58635
438.35        21.87473
438.79        21.57828
439.24         21.5257
439.68        21.52451
440.13        21.51602
440.57        21.49824
441.02        21.62111
441.46        21.81591
441.91        21.70944
442.35        21.39979
442.80        21.47637
443.24        21.85494
443.69        21.90543
444.13        21.63265
444.58        21.54068
445.02        21.62835
445.47        21.64683
445.91        21.58762
446.36        21.57976
446.80        21.62013
447.24        21.65835
447.69        21.69476
448.13        21.78319
448.58        21.89103
449.02        21.89457
449.47        21.81606
449.91        21.79093
450.36        21.83206
450.80        21.85699
451.25         21.8574
451.69        21.85354
452.13        21.83778
452.58        21.78799
453.02        21.71721
453.47        21.65742
453.91        21.61496
454.36        21.61764
454.80        21.62682
455.24        21.55413
455.69        21.44478
456.13        21.34616
456.58         21.3133
457.02        21.50803
457.46        21.80667
457.91        21.81041
458.35        21.63017
458.79        21.57909
459.24        21.69193
459.68        21.75896
460.13        21.77358
460.57        21.69363
461.01        21.61729
461.46        21.57916
461.90        21.47984
462.34        21.40135
462.79        21.67962
463.23        21.71894
463.68        21.64792
464.12        21.61584
464.56         21.6517
465.01        21.80289
465.45        21.94166
465.89        21.86683
466.34        21.64546
466.78        21.40627
467.22        21.20117
467.67        21.56426
468.11        21.54939
468.55        21.67309
468.99        21.63442
469.44        21.63225
469.88        21.65422
470.32        21.55712
470.77        21.40279
471.21        21.36099
471.65        21.45953
472.10        21.65044
472.54        21.85041
472.98        21.96555
473.42        21.97902
473.87        21.86266
474.31        21.69915
474.75        21.81464
475.20          22.151
475.64        22.25552
476.08        22.11283
476.52        22.12029
476.97        22.29514
477.41        22.22413
477.85        22.12848
478.29        22.21906
478.74        22.09866
479.18        21.90125
479.62        22.23894
480.06        22.30589
480.50        22.33754
480.95        22.32716
481.39        22.26066
481.83        22.59382
482.27        22.64843
482.72        22.61079
483.16        22.96875
483.60        23.04835
484.04        23.01299
484.48        23.03791
484.93          23.323
485.37        23.10894
485.81        23.46059
486.25        24.22804
486.69        24.00811
487.14        23.53769
487.58        24.36683
488.02         23.9994
488.46        24.05017
488.90         24.6191
489.34        23.95715
489.79        23.73855
490.23        24.34129
490.67        24.67071
491.11        24.91717
491.55        24.97348
491.99        24.91507
492.43        24.99557
492.88        25.22449
493.32        25.40253
493.76        25.50291
494.20        25.64608
494.64        25.85135
495.08        26.01134
495.52        26.12328
495.96         26.4165
496.41        26.83883
496.85        26.72551
497.29        26.27315
497.73        26.49289
498.17        27.27306
498.61        27.69969
499.05        27.64388
499.49        27.59163
499.93         27.6276
500.37        27.66231
500.82        27.70958
501.26        27.86318
501.70        28.14192
502.14        27.94644
502.58        28.26615
503.02        28.34543
503.46        28.35744
503.90        28.34798
504.34        28.31401
504.78        28.34052
505.22        28.42443
505.66        28.49257
506.10        28.55039
506.54        28.68362
506.98        28.89471
507.42        29.01929
507.86        29.24517
508.30        29.32845
508.74        29.32671
509.18        29.25083
509.62         29.1586
510.06        29.14062
510.50        29.21924
510.94        29.37321
511.38        29.55344
511.82        29.68028
512.26        29.73039
512.70        29.72458
513.14        29.70398
513.58        29.72321
514.02        29.79408
514.46         29.9175
514.90         30.0511
515.34        30.02244
515.78        29.99302
516.22        29.85379
516.66        29.71743
517.10        29.67318
517.54        29.74335
517.98        29.89424
518.42        30.07124
518.86        30.19125
519.30         30.2265
519.74        30.19969
520.18        30.13984
520.62        30.09173
521.06         30.0721
521.50        30.07091
521.93        30.07387
522.37        30.05105
522.81        30.00095
523.25        29.93042
523.69        29.87105
524.13        29.86929
524.57        29.92748
525.01        30.02686
525.45        30.11016
525.89        30.08772
526.32         29.9422
526.76        29.71615
527.20        29.47215
527.64        29.31503
528.08        29.27089
528.52         29.3017
528.96        29.37136
529.40        29.42171
529.83        29.42874
530.27        29.41771
530.71        29.37482
531.15        29.27929
531.59        29.13684
532.03        28.95202
532.46        28.77249
532.90        28.69227
533.34        28.72283
533.78        28.83675
534.22        28.97171
534.66        29.03005
535.09        28.98608
535.53        28.87626
535.97        28.74129
536.41         28.6518
536.85        28.62978
537.28        28.65637
537.72        28.70792
538.16        28.74266
538.60        28.75226
539.04        28.76013
539.47        28.77907
539.91        28.84319
540.35         28.9492
540.79        29.08634
541.22         29.2312
541.66        29.35103
542.10        29.43533
542.54        29.49655
542.97         29.5431
543.41        29.60555
543.85        29.68818
544.29        29.78535
544.72        29.89334
545.16        30.02608
545.60        30.17449
546.04         30.3357
546.47         30.5019
546.91        30.65499
547.35        30.78748
547.79        30.91885
548.22        31.04362
548.66        31.14394
549.10        31.24298
549.53        31.45234
549.97        31.75472
550.41        32.01105
550.84        32.20433
551.28         32.4132
551.72        32.62739
552.15         32.7917
552.59        32.91278
553.03         32.9975
553.46        33.07193
553.90        33.19508
554.34        33.36892
554.77        33.60127
555.21        33.85582
555.65         33.9907
556.08        34.08851
556.52        34.14483
556.96        34.20361
557.39        34.31848
557.83        34.47332
558.27          34.509
558.70        34.45602
559.14        34.49624
559.57        34.62808
560.01        34.79828
560.45        34.95459
560.88        34.98425
561.32        34.94607
561.75        34.99197
562.19        35.12797
562.63        35.25224
563.06         35.3288
563.50        35.29177
563.93        35.18293
564.37        35.23672
564.80        35.43467
565.24        35.59853
565.68        35.72104
566.11        35.89289
566.55        36.11503
566.98         36.3572
567.42         36.5796
567.85        36.64286
568.29        36.60921
568.72        36.60369
569.16        36.68608
569.60         36.8742
570.03         37.1866
570.47        37.31258
570.90        37.67292
571.34        38.06863
571.77        38.22169
572.21         38.1172
572.64        38.50025
573.08        38.20039
573.51        38.37814
573.95        38.60649
574.38        39.02807
574.82        38.95595
