SpectraSmart Spectrum 2.9.0.0
--------- Device Information -----------
Spectrum Name :  反射率_0
Saving Time :  2024/04/27 23:02:40
Spectro-Module Model Name : SE2030-DUVN
Spectro-Module Serial Number : OS361AC55029948
Wavelength Start : 200
Wavelength End : 1025
Wavelength Unit : Wavelength(nm)
Spectrum Unit : Reflectance(%)
-----------Spectrum Setting ------------
Integration Time : 20ms
Average : 10
Boxcar : 0
Background removal :  enabled
linearity correction :  enabled
SC :  disabled
Intensity correction :  disabled
DWT denoise :  enabled
savitzky-golay :  disabled
FFT :  disabled
Running average :  disabled
Kalman :  disabled
High pass :  disabled
---------------BEGIN--------------------
Wavelength(nm)             Reflectance(%)
200.29               0
200.75        107.6749
201.21        122.4836
201.67        126.1488
202.13        123.0043
202.58        116.1138
203.04        107.2184
203.50        99.01784
203.96        96.18083
204.42        98.67868
204.88        103.7065
205.34        109.0955
205.80        113.3686
206.26         116.613
206.72        119.8909
207.18        122.3301
207.64        119.6072
208.10        112.3226
208.55        105.7495
209.01        101.1162
209.47         97.2859
209.93        92.40801
210.39        82.16198
210.85        58.10606
211.31        57.21066
211.77        113.2403
212.23        133.7119
212.69        137.9174
213.14        137.9508
213.60        135.4356
214.06        129.1313
214.52         117.472
214.98        107.5056
215.44        108.6485
215.90        115.2397
216.36        120.9474
216.81        122.9315
217.27        122.4198
217.73        120.8573
218.19        118.9521
218.65        117.6939
219.11        117.7137
219.57        118.7481
220.02        121.4184
220.48        127.0815
220.94        134.6547
221.40        142.6344
221.86        149.0728
222.32        152.6917
222.77        153.6943
223.23        152.9594
223.69        151.8971
224.15        152.2206
224.61        154.1079
225.06        157.3046
225.52        160.2132
225.98        159.4237
226.44        155.3984
226.90        150.4578
227.36        147.0522
227.81         146.906
228.27        150.1374
228.73        155.8359
229.19        162.6037
229.65        167.2734
230.10        168.3624
230.56        166.9596
231.02        164.5797
231.48        163.5213
231.93        164.0915
232.39        165.7682
232.85         167.374
233.31        167.6229
233.77        166.3456
234.22        164.0338
234.68        161.7414
235.14        160.5073
235.60        160.5287
236.05        161.7463
236.51        162.9258
236.97        162.0049
237.43        158.3423
237.88        152.7726
238.34        147.1007
238.80        143.8731
239.26        143.5096
239.71         146.736
240.17        151.8916
240.63         151.925
241.08        142.8574
241.54        130.7836
242.00        121.9608
242.46        117.6252
242.91        116.4576
243.37        117.5448
243.83        121.9621
244.28        128.7729
244.74        129.6673
245.20        124.8204
245.66        119.5382
246.11        115.7178
246.57        112.2421
247.03        107.1373
247.48         100.095
247.94        94.87472
248.40        96.49612
248.85        103.5536
249.31         111.274
249.77        115.1865
250.22        115.6743
250.68        114.5343
251.14        114.0843
251.59        116.9315
252.05        123.9413
252.51        135.8333
252.96        150.8112
253.42        157.8934
253.88         151.065
254.33        137.2175
254.79        126.2867
255.25        122.2397
255.70        123.0403
256.16        126.7382
256.62        130.8873
257.07        133.1464
257.53        134.2214
257.99        134.5018
258.44        134.1589
258.90        134.2793
259.35        134.1956
259.81        134.5276
260.27        134.6909
260.72        134.1969
261.18        133.7499
261.63        132.8406
262.09        132.3629
262.55        132.3817
263.00        132.6153
263.46        133.2469
263.91        133.4703
264.37        133.0225
264.83        131.7596
265.28        129.8692
265.74        128.0607
266.19        126.6102
266.65        125.7663
267.11        125.2235
267.56        124.7105
268.02        124.0055
268.47        122.9547
268.93        121.7545
269.38        120.4554
269.84        119.2276
270.30        118.0995
270.75        116.9718
271.21        115.9046
271.66        114.8852
272.12        113.9326
272.57        112.9615
273.03        111.9086
273.48        110.4912
273.94        108.8213
274.39        106.9087
274.85        105.0591
275.31        103.4421
275.76        102.0452
276.22        100.9148
276.67        99.85378
277.13        98.89893
277.58         97.8617
278.04        96.86346
278.49        95.73598
278.95        94.54182
279.40        93.15799
279.86        91.73773
280.31        90.20425
280.77        88.75535
281.22        87.32373
281.68        86.03437
282.13        84.79885
282.59         83.7171
283.04        82.68052
283.50        81.74178
283.95        80.81291
284.41        79.92831
284.86        79.02304
285.32        78.16598
285.77        77.27394
286.22        76.36726
286.68        75.47182
287.13        74.51905
287.59         73.5955
288.04          72.674
288.50        71.82958
288.95         71.0074
289.41        70.24628
289.86        69.47689
290.32        68.74486
290.77        68.02055
291.22        67.35547
291.68        66.80151
292.13        66.33039
292.59        65.95961
293.04        65.62308
293.50        65.28559
293.95        64.91473
294.40        64.53649
294.86        64.20634
295.31        63.98771
295.77        63.90537
296.22        63.91884
296.68        63.97643
297.13        63.96367
297.58         63.8634
298.04        63.71917
298.49        63.56704
298.95        63.51737
299.40        63.55982
299.85           63.66
300.31        63.78526
300.76        63.84131
301.21        63.81812
301.67        63.76694
302.12        63.65519
302.58        63.52219
303.03        63.34687
303.48        63.15814
303.94        63.03396
304.39        63.00724
304.84         63.1086
305.30        63.32273
305.75        63.54736
306.20        63.70638
306.66        63.78908
307.11         63.7733
307.57        63.72131
308.02        63.63447
308.47        63.54683
308.93        63.46084
309.38        63.33402
309.83        63.16476
310.29        62.96535
310.74        62.72356
311.19        62.47976
311.65        62.28347
312.10        62.12408
312.55        61.99881
313.00        61.87777
313.46        61.71449
313.91        61.48835
314.36        61.22137
314.82        60.93679
315.27        60.67033
315.72        60.43625
316.18        60.23278
316.63         60.0393
317.08        59.85242
317.53        59.66576
317.99        59.47295
318.44         59.2825
318.89        59.08795
319.35        58.88796
319.80        58.69018
320.25        58.47967
320.70        58.24136
321.16        57.96606
321.61         57.6642
322.06        57.36805
322.51         57.1368
322.97        56.96992
323.42        56.87148
323.87        56.76608
324.32        56.54002
324.78         56.1689
325.23        55.71444
325.68        55.26245
326.13        54.96784
326.59        54.85773
327.04         54.9133
327.49        55.05474
327.94        55.16765
328.39        55.20376
328.85        55.17024
329.30        55.10308
329.75        55.00623
330.20        54.89269
330.66        54.73965
331.11        54.58023
331.56        54.40265
332.01        54.21549
332.46        54.02586
332.92        53.85735
333.37        53.81174
333.82        53.87864
334.27          54.033
334.72        54.19996
335.17        54.25558
335.63        54.15435
336.08        53.95981
336.53        53.71415
336.98        53.51635
337.43        53.40734
337.88        53.36548
338.34        53.37997
338.79        53.45016
339.24         53.5573
339.69        53.70169
340.14        53.86177
340.59         53.9973
341.05         54.0972
341.50        54.17713
341.95        54.22287
342.40        54.23269
342.85        54.20884
343.30        54.13477
343.75        54.06835
344.20        54.10251
344.66        54.25161
345.11        54.49849
345.56        54.71202
346.01        54.67573
346.46        54.36792
346.91         53.8691
347.36        53.39199
347.81          53.263
348.26         53.5381
348.72        54.09972
349.17        54.73248
349.62        55.09812
350.07        55.09924
350.52         54.8358
350.97        54.44203
351.42        54.13614
351.87        53.98985
352.32        53.93591
352.77        53.91166
353.22        53.82813
353.67        53.65985
354.13        53.45839
354.58        53.24202
355.03        53.08223
355.48        52.99223
355.93        52.94653
356.38         52.8841
356.83        52.71594
357.28        52.42797
357.73        52.05444
358.18        51.66978
358.63        51.38675
359.08        51.23061
359.53        51.16573
359.98        51.12622
360.43        51.01036
360.88        50.78769
361.33        50.47908
361.78        50.12987
362.23        49.83736
362.68        49.62732
363.13        49.43266
363.58        49.18299
364.03        49.00381
364.48        48.50428
364.93        48.02493
365.38        47.54525
365.83        47.21623
366.28        47.06061
366.73        47.03487
367.18        47.03879
367.63        46.90017
368.08        46.58239
368.53        46.14449
368.98        45.67609
369.43         45.3223
369.88        45.12355
370.33        45.02702
370.78        44.98444
371.23        44.92025
371.68        44.79987
372.13        44.64441
372.58        44.44697
373.03        44.19432
373.48        43.89489
373.93        43.55726
374.38        43.21076
374.83        42.90387
375.28        42.65224
375.72        42.43463
376.17        42.27317
376.62        42.14807
377.07        42.04354
377.52        41.94808
377.97        41.83868
378.42        41.68107
378.87        41.46925
379.32        41.22237
379.77        40.94244
380.22        40.63118
380.67        40.30201
381.11        39.96303
381.56        39.66499
382.01        39.49265
382.46        39.45889
382.91        39.53198
383.36        39.63472
383.81        39.64585
384.26        39.53062
384.71        39.31779
385.15        39.04168
385.60        38.80164
386.05        38.61168
386.50        38.45078
386.95         38.3013
387.40        38.13766
387.85         37.9614
388.29        37.77269
388.74        37.62841
389.19        37.51739
389.64        37.43184
390.09        37.34567
390.54        37.26622
390.98        37.20102
391.43        37.16967
391.88        37.17131
392.33        37.13168
392.78        37.00585
393.23        36.81372
393.67        36.41741
394.12        35.97956
394.57        36.16467
395.02        36.35077
395.47        36.41433
395.91        36.18748
396.36        36.12304
396.81        36.22989
397.26        36.25003
397.71        36.16133
398.15        36.06795
398.60        36.01447
399.05        35.83066
399.50        35.61149
399.95        35.72222
400.39        36.05958
400.84        36.07139
401.29        35.74333
401.74        35.40822
402.18        35.17423
402.63        35.11238
403.08         35.1987
403.53        35.19245
403.97        35.08503
404.42        35.07846
404.87        35.15467
405.32        35.21435
405.76        35.23846
406.21        35.16319
406.66         35.0359
407.11         35.1011
407.55         35.2764
408.00        35.17939
408.45        34.81597
408.90        34.32408
409.34        33.89022
409.79        33.94287
410.24        34.38052
410.68        34.58992
411.13         34.5143
411.58        34.52903
412.03        34.64823
412.47        34.70925
412.92        34.69172
413.37        34.64601
413.81        34.57372
414.26        34.50615
414.71        34.44327
415.15        34.38591
415.60         34.3234
416.05        34.26475
416.49        34.21613
416.94        34.17277
417.39        34.13837
417.83        34.11759
418.28        34.10125
418.73        34.07363
419.17        34.03771
419.62        34.00378
420.07        33.98515
420.51        33.99068
420.96        33.98791
421.41        33.96329
421.85        33.90907
422.30        33.68197
422.74        33.40594
423.19        33.68644
423.64        34.37812
424.08         34.5666
424.53        34.17758
424.98        34.05758
425.42        34.25999
425.87         34.0867
426.31        33.66299
426.76        33.90193
427.21        34.61675
427.65        34.58057
428.10        33.91124
428.54        33.68547
428.99        33.94196
429.44        34.35211
429.88        34.65203
430.33        34.20506
430.77         33.2782
431.22        32.96465
431.66        33.30156
432.11        33.68984
432.56        34.02265
433.00        34.26942
433.45        34.12498
433.89        33.75475
434.34        33.62267
434.78        32.00907
435.23        32.92374
435.67        33.79817
436.12        34.20744
436.57        34.17657
437.01        33.53009
437.46        33.22773
437.90        33.47694
438.35        34.00217
438.79        33.66361
439.24        33.70231
439.68        33.80383
440.13         33.8869
440.57        33.90236
441.02        34.04908
441.46        34.22524
441.91        33.78789
442.35         33.0141
442.80        33.13685
443.24         33.9574
443.69        34.05658
444.13        33.43538
444.58        33.22129
445.02        33.40874
445.47        33.39935
445.91        33.19434
446.36        33.11564
446.80        33.16673
447.24        33.22976
447.69        33.29359
448.13        33.41736
448.58        33.54876
449.02        33.51287
449.47        33.35212
449.91        33.27817
450.36         33.3178
450.80        33.34257
451.25        33.35218
451.69        33.39513
452.13        33.45768
452.58        33.49379
453.02        33.49736
453.47        33.47651
453.91        33.42992
454.36        33.41001
454.80        33.36968
455.24        33.19497
455.69        32.96563
456.13        32.75021
456.58        32.63993
457.02        32.89282
457.46        33.32074
457.91         33.3195
458.35        33.04372
458.79        32.95087
459.24        33.09235
459.68        33.15207
460.13        33.13774
460.57        33.04425
461.01         33.0266
461.46        33.06788
461.90        32.96947
462.34        33.04378
462.79        33.38349
463.23        33.41858
463.68        33.24221
464.12        33.12014
464.56        33.11053
465.01        33.27959
465.45        33.45534
465.89        33.34824
466.34         33.0609
466.78        32.79064
467.22         32.5775
467.67          33.176
468.11         33.1144
468.55        33.19946
468.99          33.031
469.44         33.0119
469.88        33.14191
470.32        33.17298
470.77        33.11543
471.21        33.09613
471.65        33.12642
472.10        33.17456
472.54        33.20642
472.98        33.22298
473.42        33.23082
473.87        33.14561
474.31         33.0091
474.75        33.18466
475.20        33.56128
475.64        33.50398
476.08        33.08207
476.52        33.02595
476.97        33.38612
477.41        33.48037
477.85        33.56602
478.29          33.933
478.74        33.79483
479.18        33.49707
479.62        33.97072
480.06        34.00328
480.50        33.96452
480.95        33.91023
481.39        33.82944
481.83        34.03982
482.27         34.1366
482.72        33.89871
483.16        34.26547
483.60        34.27724
484.04        34.22373
484.48        34.23717
484.93        34.49975
485.37        34.24067
485.81        34.85111
486.25        35.12938
486.69        35.07994
487.14        34.61924
487.58         35.1966
488.02        35.29419
488.46        35.31124
488.90         35.4724
489.34        35.18699
489.79        34.66211
490.23        35.24389
490.67        35.42673
491.11        35.57736
491.55        35.52979
491.99        35.36729
492.43        35.40311
492.88        35.64481
493.32        35.88285
493.76          36.067
494.20        36.28827
494.64        36.54957
495.08        36.73756
495.52        36.85312
495.96        37.12817
496.41        37.49445
496.85         37.3391
497.29        36.84221
497.73        36.88761
498.17        37.40486
498.61        37.81991
499.05        37.96266
499.49        37.95415
499.93        37.87204
500.37        37.82944
500.82        37.86025
501.26        38.05194
501.70        38.43039
502.14        38.15388
502.58        38.57388
503.02        38.69058
503.46        38.73963
503.90        38.76195
504.34        38.74786
504.78         38.8094
505.22        38.93544
505.66        39.03453
506.10        39.10384
506.54         39.2235
506.98         39.3934
507.42        39.48521
507.86        39.63748
508.30        39.69249
508.74        39.69597
509.18         39.6537
509.62        39.60402
510.06        39.60788
510.50        39.67723
510.94        39.79188
511.38        39.92425
511.82        40.02821
512.26        40.08796
512.70        40.12233
513.14        40.13242
513.58         40.1045
514.02        40.04416
514.46        39.98207
514.90        39.95724
515.34        39.89212
515.78         40.0247
516.22        40.15217
516.66        40.30191
517.10        40.40039
517.54         40.4287
517.98        40.40097
518.42        40.33759
518.86        40.28015
519.30        40.24355
519.74        40.21916
520.18         40.1994
520.62        40.17184
521.06        40.13624
521.50        40.10219
521.93        40.08569
522.37        40.09842
522.81        40.14333
523.25        40.20592
523.69         40.2678
524.13         40.3023
524.57        40.30057
525.01        40.27114
525.45        40.21381
525.89        40.12927
526.32         40.0204
526.76        39.89974
527.20        39.78773
527.64        39.72174
528.08        39.70736
528.52         39.7311
528.96        39.76782
529.40         39.7763
529.83        39.74085
530.27        39.67876
530.71        39.59374
531.15        39.49696
531.59        39.39706
532.03        39.29401
532.46        39.19696
532.90        39.13642
533.34        39.11506
533.78        39.13006
534.22        39.16823
534.66         39.2076
535.09        39.23497
535.53        39.25968
535.97         39.2832
536.41        39.31778
536.85        39.36394
537.28        39.41902
537.72        39.46432
538.16        39.46554
538.60        39.42376
539.04        39.36413
539.47        39.31169
539.91        39.32613
540.35        39.40839
540.79         39.5479
541.22        39.71151
541.66        39.84898
542.10         39.9422
542.54        40.00506
542.97         40.0508
543.41        40.12326
543.85        40.22726
544.29         40.3568
544.72        40.49008
545.16         40.6189
545.60        40.72982
546.04        40.82352
546.47         40.9276
546.91        41.08234
547.35        41.28339
547.79        41.53172
548.22        41.76173
548.66        41.85663
549.10        41.83189
549.53           41.87
549.97        41.99866
550.41        42.11669
550.84        42.23239
551.28        42.42861
551.72        42.67193
552.15        42.85724
552.59        42.97918
553.03        43.05516
553.46        43.11909
553.90        43.25643
554.34        43.46948
554.77        43.74115
555.21        44.00777
555.65        44.17204
556.08        44.17179
556.52        44.14373
556.96        44.11686
557.39        44.19853
557.83        44.37268
558.27        44.42493
558.70        44.37411
559.14        44.42794
559.57        44.58379
560.01        44.75208
560.45        44.88145
560.88         44.9533
561.32        45.00816
561.75        44.98503
562.19        44.95784
562.63        45.17164
563.06        45.53015
563.50        45.56123
563.93        45.30602
564.37         45.2749
564.80        45.47306
565.24        45.65292
565.68        45.77701
566.11        45.88824
566.55        45.99235
566.98        46.09595
567.42        46.21718
567.85        46.28736
568.29        46.37754
568.72        46.54427
569.16        46.77165
569.60        47.04488
570.03        47.38021
570.47        47.30264
570.90        47.39197
571.34        47.95771
571.77        48.02668
572.21        47.89417
572.64        48.24031
573.08        48.26311
573.51        48.38083
573.95        48.58855
574.38        48.82739
574.82        48.81563
