SpectraSmart Spectrum 2.9.0.0
--------- Device Information -----------
Spectrum Name :  反射率_0
Saving Time :  2024/04/27 22:45:39
Spectro-Module Model Name : SE2030-DUVN
Spectro-Module Serial Number : OS361AC55029948
Wavelength Start : 200
Wavelength End : 1025
Wavelength Unit : Wavelength(nm)
Spectrum Unit : Reflectance(%)
-----------Spectrum Setting ------------
Integration Time : 20ms
Average : 10
Boxcar : 0
Background removal :  enabled
linearity correction :  enabled
SC :  disabled
Intensity correction :  disabled
DWT denoise :  enabled
savitzky-golay :  disabled
FFT :  disabled
Running average :  disabled
Kalman :  disabled
High pass :  disabled
---------------BEGIN--------------------
Wavelength(nm)             Reflectance(%)
200.29               0
200.75       -54.39919
201.21       -25.96945
201.67        4.170622
202.13        20.17091
202.58        26.43456
203.04        28.66051
203.50        31.65475
203.96        40.29896
204.42        52.93535
204.88        65.79433
205.34        75.58961
205.80        80.08262
206.26        79.32014
206.72         72.8038
207.18         59.3659
207.64        46.33866
208.10        43.43214
208.55        48.28307
209.01        51.52751
209.47        48.18006
209.93        35.48996
210.39        1.360774
210.85       -102.5658
211.31       -230.4671
211.77         -80.991
212.23        17.96458
212.69        53.09706
213.14        64.34995
213.60        64.92509
214.06        58.41758
214.52        43.62981
214.98        30.72862
215.44        32.78388
215.90         40.9946
216.36        48.12912
216.81        51.81714
217.27        52.70489
217.73        52.45319
218.19        51.40479
218.65        49.53125
219.11        47.13521
219.57        44.47368
220.02        41.27639
220.48        38.86499
220.94        37.69444
221.40        37.26312
221.86        39.28006
222.32        45.42667
222.77        54.42057
223.23         64.5052
223.69        72.27132
224.15        74.03711
224.61        69.97149
225.06        61.25518
225.52        51.57876
225.98        47.98018
226.44         51.2723
226.90        57.43784
227.36        62.77226
227.81        64.40968
228.27        62.61192
228.73        58.52253
229.19        53.21794
229.65        49.03193
230.10        47.03607
230.56        46.73986
231.02        47.37865
231.48        48.02648
231.93        48.27734
232.39        48.53448
232.85        48.88712
233.31        49.42443
233.77        50.15234
234.22        51.06212
234.68        51.76063
235.14        51.87972
235.60        51.39912
236.05        50.27679
236.51        49.34747
236.97        50.27534
237.43        53.46475
237.88         58.4418
238.34        63.20562
238.80         65.9153
239.26        66.14767
239.71        63.59459
240.17        58.07294
240.63        54.01951
241.08        55.97646
241.54        61.15179
242.00        65.39245
242.46        66.42304
242.91        64.17493
243.37        57.42356
243.83        42.44812
244.28        21.56825
244.74        16.27713
245.20         29.8933
245.66        43.24254
246.11         46.2981
246.57         40.1277
247.03          25.648
247.48        2.938839
247.94       -11.38002
248.40       -1.009823
248.85        22.44093
249.31        46.64796
249.77        62.93259
250.22        71.08733
250.68        74.81115
251.14         75.3881
251.59        73.39793
252.05        69.09886
252.51         61.0347
252.96        49.63879
253.42         42.7256
253.88         44.9238
254.33        52.80595
254.79        60.03895
255.25        62.24833
255.70        60.52628
256.16        57.53217
256.62        55.35983
257.07        56.15575
257.53         59.3568
257.99        62.88158
258.44        65.21882
258.90        65.54758
259.35        63.92263
259.81        61.61642
260.27        59.10157
260.72        56.94221
261.18        55.60097
261.63        54.57055
262.09        53.93837
262.55        53.44708
263.00         52.9469
263.46        52.60962
263.91        52.30949
264.37        52.20039
264.83        52.17834
265.28        52.15331
265.74        52.08348
266.19        51.71258
266.65        51.11614
267.11        50.33084
267.56        49.49332
268.02        48.92537
268.47         48.6362
268.93        48.53501
269.38        48.47974
269.84        48.28029
270.30        47.86237
270.75        47.28636
271.21        46.56132
271.66         45.6475
272.12        44.60881
272.57        43.44163
273.03        42.31754
273.48        41.41369
273.94        40.81964
274.39        40.42419
274.85         40.1616
275.31        39.83262
275.76        39.36044
276.22        38.83717
276.67        38.23365
277.13        37.62776
277.58        36.98748
278.04        36.35209
278.49        35.69247
278.95        35.10073
279.40        34.53295
279.86        34.04086
280.31        33.56804
280.77        33.15919
281.22        32.76715
281.68        32.43898
282.13        32.12203
282.59        31.80527
283.04        31.46169
283.50        31.11579
283.95        30.78581
284.41        30.55385
284.86        30.40553
285.32        30.32981
285.77        30.25494
286.22          30.121
286.68        29.93091
287.13         29.6777
287.59        29.41415
288.04        29.13981
288.50        28.89811
288.95         28.6526
289.41        28.44637
289.86        28.29105
290.32        28.20862
290.77        28.18958
291.22         28.1957
291.68        28.15934
292.13        28.06102
292.59        27.93098
293.04        27.84129
293.50        27.93398
293.95        28.21905
294.40        28.66352
294.86        29.14987
295.31        29.48494
295.77        29.63889
296.22        29.65563
296.68        29.67874
297.13        29.91389
297.58        30.40485
298.04        31.07031
298.49        31.75813
298.95        32.25959
299.40        32.52423
299.85        32.62373
300.31         32.6882
300.76        32.88399
301.21        33.25932
301.67        33.75059
302.12        34.23705
302.58         34.5854
303.03        34.74821
303.48        34.79126
303.94        34.81148
304.39        34.90098
304.84        35.10018
305.30        35.37595
305.75        35.64692
306.20        35.83348
306.66        35.92707
307.11        35.92805
307.57        35.90879
308.02         35.9142
308.47        35.96913
308.93        36.04819
309.38        36.08617
309.83        36.01207
310.29        35.82704
310.74        35.55629
311.19        35.25755
311.65        35.01639
312.10        34.84343
312.55        34.71777
313.00        34.63684
313.46        34.59641
313.91        34.57617
314.36        34.57855
314.82        34.54501
315.27        34.37664
315.72        34.06518
316.18        33.65299
316.63         33.2208
317.08        32.92091
317.53        32.78958
317.99          32.777
318.44        32.82697
318.89        32.82902
319.35        32.74506
319.80        32.60796
320.25        32.43049
320.70        32.23919
321.16        32.03952
321.61        31.82301
322.06         31.5979
322.51        31.38671
322.97        31.19248
323.42        31.03265
323.87        30.88014
324.32        30.69259
324.78        30.45979
325.23        30.19518
325.68        29.94378
326.13        29.78815
326.59        29.72683
327.04        29.74822
327.49        29.75986
327.94        29.62104
328.39        29.29651
328.85        28.82278
329.30         28.2933
329.75        27.86054
330.20        27.58628
330.66        27.43036
331.11        27.35872
331.56        27.25955
332.01        27.09887
332.46        26.90619
332.92        26.72158
333.37        26.63838
333.82        26.66315
334.27        26.75184
334.72        26.83643
335.17        26.81487
335.63         26.6549
336.08        26.41201
336.53        26.12172
336.98        25.85525
337.43        25.65007
337.88          25.493
338.34        25.40687
338.79         25.4289
339.24        25.55184
339.69        25.75676
340.14        25.97694
340.59        26.10206
341.05        26.09953
341.50        26.00026
341.95        25.83209
342.40        25.65603
342.85          25.499
343.30        25.34484
343.75        25.21289
344.20        25.13339
344.66        25.11103
345.11        25.13929
345.56        25.17695
346.01        25.14954
346.46        25.04105
346.91        24.87112
347.36        24.68956
347.81        24.57238
348.26        24.54172
348.72        24.58319
349.17        24.65011
349.62        24.66835
350.07        24.61671
350.52        24.50218
350.97        24.39792
351.42        24.41977
351.87         24.5787
352.32         24.8357
352.77        25.04947
353.22        25.00774
353.67        24.68153
354.13        24.15677
354.58        23.59552
355.03        23.30843
355.48        23.36664
355.93         23.6778
356.38        24.05795
356.83        24.21737
357.28        24.08504
357.73        23.75379
358.18        23.36472
358.63        23.13551
359.08        23.11838
359.53        23.23322
359.98        23.37563
360.43        23.39042
360.88        23.23701
361.33        22.96856
361.78        22.65132
362.23        22.42191
362.68         22.3211
363.13         22.2415
363.58        22.11749
364.03        22.20705
364.48          21.913
364.93        21.72905
365.38        21.52964
365.83        21.39876
366.28         21.3462
366.73        21.35038
367.18        21.36796
367.63         21.3168
368.08        21.18002
368.53        20.98472
368.98        20.77276
369.43        20.61047
369.88        20.51748
370.33        20.47212
370.78        20.44668
371.23        20.39956
371.68        20.31083
372.13        20.18398
372.58        20.03494
373.03        19.88676
373.48        19.75129
373.93        19.63872
374.38        19.51284
374.83        19.31647
375.28        19.05048
375.72        18.72221
376.17        18.45831
376.62        18.41489
377.07        18.60253
377.52        18.95139
377.97        19.29631
378.42        19.38005
378.87        19.15503
379.32        18.71952
379.77        18.21397
380.22        17.85174
380.67        17.69269
381.11         17.6676
381.56        17.73299
382.01        17.81554
382.46         17.8773
382.91        17.94427
383.36        17.97869
383.81         17.9166
384.26        17.75294
384.71        17.49881
385.15        17.21486
385.60        17.03573
386.05         16.9816
386.50        17.02596
386.95          17.109
387.40        17.13104
387.85          17.073
388.29        16.96107
388.74        16.86488
389.19        16.84411
389.64        16.90333
390.09        16.99921
390.54         17.0953
390.98        17.13491
391.43        17.10743
391.88        17.03926
392.33        16.91717
392.78        16.74838
393.23        16.55579
393.67        16.27249
394.12        15.98365
394.57        15.99352
395.02        16.02601
395.47        16.02635
395.91        15.91312
396.36        15.86759
396.81        15.88911
397.26        15.86871
397.71        15.80091
398.15        15.73823
398.60         15.7009
399.05        15.61072
399.50        15.50792
399.95        15.55063
400.39        15.69314
400.84        15.69552
401.29         15.5492
401.74        15.39495
402.18         15.2779
402.63        15.22979
403.08        15.24534
403.53        15.22982
403.97        15.18235
404.42          15.189
404.87        15.23104
405.32        15.24716
405.76        15.22791
406.21        15.15143
406.66        15.05746
407.11        15.08144
407.55        15.19182
408.00        15.21072
408.45        15.11687
408.90        14.93013
409.34         14.7202
409.79         14.6901
410.24        14.80302
410.68        14.80649
411.13        14.68657
411.58        14.60124
412.03        14.57649
412.47        14.58031
412.92          14.608
413.37        14.67073
413.81        14.73365
414.26        14.75608
414.71        14.72568
415.15        14.65317
415.60        14.56281
416.05        14.50525
416.49        14.49712
416.94         14.5208
417.39        14.55225
417.83        14.55567
418.28        14.51557
418.73        14.43731
419.17        14.34632
419.62        14.28471
420.07        14.26957
420.51        14.29949
420.96        14.33102
421.41        14.31495
421.85        14.24058
422.30        14.05842
422.74        13.86749
423.19        13.98832
423.64        14.36844
424.08        14.60873
424.53        14.59174
424.98        14.54961
425.42        14.47887
425.87        14.13246
426.31        13.65928
426.76        13.58182
427.21        13.85394
427.65        13.94473
428.10        13.83732
428.54        13.86131
428.99        14.00109
429.44        14.19209
429.88        14.32632
430.33        14.06609
430.77        13.57566
431.22        13.46031
431.66         13.7142
432.11        13.91562
432.56        13.99822
433.00        14.05377
433.45        13.96449
433.89        13.73069
434.34        13.58372
434.78        12.91144
435.23        13.37204
435.67        13.79748
436.12        14.01331
436.57        14.08732
437.01        13.91491
437.46        13.80377
437.90        13.83294
438.35        13.91084
438.79        13.61541
439.24        13.52949
439.68        13.54425
440.13        13.61276
440.57        13.68431
441.02        13.79914
441.46         13.9045
441.91        13.70605
442.35        13.35213
442.80        13.47427
443.24          13.957
443.69        13.99584
444.13        13.59975
444.58        13.43289
445.02        13.49591
445.47        13.44364
445.91        13.27619
446.36        13.17996
446.80        13.16181
447.24        13.16725
447.69         13.1989
448.13         13.2971
448.58        13.43527
449.02        13.53461
449.47        13.59019
449.91        13.65833
450.36        13.73675
450.80        13.77819
451.25        13.77892
451.69        13.75909
452.13        13.71785
452.58        13.64012
453.02        13.54132
453.47        13.45333
453.91        13.38344
454.36        13.35013
454.80        13.32325
455.24        13.23739
455.69        13.11985
456.13        13.00435
456.58        12.93356
457.02        13.01731
457.46        13.18333
457.91        13.18555
458.35        13.08467
458.79        13.05765
459.24        13.12399
459.68        13.15967
460.13        13.16774
460.57        13.13214
461.01        13.11317
461.46        13.12326
461.90        13.09656
462.34        13.07358
462.79        13.25474
463.23        13.28202
463.68        13.22568
464.12        13.16965
464.56        13.13375
465.01        13.15321
465.45        13.17079
465.89        13.09767
466.34        12.97821
466.78         12.8795
467.22        12.80853
467.67         13.0456
468.11        13.00691
468.55        13.01675
468.99        12.92101
469.44        12.88152
469.88        12.90071
470.32         12.8818
470.77        12.83966
471.21        12.83845
471.65        12.88633
472.10        12.96691
472.54        13.05174
472.98        13.11524
473.42        13.15281
473.87        13.13466
474.31        13.09144
474.75        13.19515
475.20        13.40385
475.64        13.45401
476.08        13.34545
476.52        13.33098
476.97        13.42692
477.41        13.37937
477.85        13.32276
478.29        13.39512
478.74        13.34243
479.18        13.25133
479.62        13.48514
480.06        13.55017
480.50        13.58564
480.95        13.58897
481.39        13.54378
481.83        13.72083
482.27         13.7078
482.72        13.61861
483.16        13.77026
483.60        13.78902
484.04        13.77477
484.48        13.84768
484.93        14.12337
485.37        14.01688
485.81        14.10794
486.25        14.67457
486.69        14.40011
487.14        13.86779
487.58        14.87785
488.02        14.57863
488.46        14.65635
488.90        14.95805
489.34          14.318
489.79        14.15172
490.23        14.58713
490.67        14.92875
491.11        15.21106
491.55        15.21522
491.99        15.02538
492.43        15.04328
492.88        15.29143
493.32         15.4796
493.76        15.57836
494.20        15.72834
494.64        15.93787
495.08        16.11911
495.52        16.25925
495.96         16.4794
496.41        16.76499
496.85        16.67509
497.29        16.36205
497.73        16.49759
498.17        17.02007
498.61        17.34852
499.05        17.37245
499.49         17.3525
499.93        17.33543
500.37        17.28214
500.82        17.23555
501.26        17.30454
501.70        17.51491
502.14         17.4738
502.58         17.7723
503.02        17.89741
503.46        17.94394
503.90        17.95342
504.34        17.93067
504.78        17.94041
505.22        17.98718
505.66        18.02048
506.10         18.0504
506.54        18.14378
506.98        18.30352
507.42         18.4222
507.86        18.61047
508.30        18.69728
508.74        18.71498
509.18         18.6768
509.62        18.61958
510.06        18.60219
510.50        18.64098
510.94          18.719
511.38        18.81908
511.82        18.91352
512.26        18.98964
512.70        19.05574
513.14        19.10881
513.58        19.13496
514.02        19.13398
514.46        19.12288
514.90        19.11378
515.34        19.06108
515.78        19.08137
516.22         19.0825
516.66        19.10154
517.10        19.14042
517.54        19.19618
517.98        19.26423
518.42        19.32411
518.86        19.34582
519.30        19.32318
519.74        19.26555
520.18        19.19343
520.62        19.13965
521.06        19.11472
521.50        19.11133
521.93        19.12103
522.37        19.12097
522.81        19.10658
523.25        19.08013
523.69        19.04812
524.13        19.02051
524.57        18.99715
525.01         18.9733
525.45        18.93352
525.89        18.85395
526.32        18.73196
526.76        18.58901
527.20        18.44888
527.64        18.35138
528.08        18.30616
528.52        18.29638
528.96         18.3125
529.40        18.33881
529.83        18.36306
530.27        18.38892
530.71        18.39195
531.15        18.33466
531.59        18.21607
532.03        18.05029
532.46        17.87895
532.90        17.78231
533.34        17.77485
533.78        17.83407
534.22        17.92276
534.66        17.98199
535.09        17.99318
535.53         17.9766
535.97        17.94523
536.41         17.9222
536.85        17.91607
537.28        17.91871
537.72        17.92803
538.16        17.94017
538.60        17.95569
539.04        17.98352
539.47        18.02044
539.91        18.07041
540.35        18.12879
540.79        18.19682
541.22        18.27251
541.66        18.35391
542.10        18.43891
542.54        18.52812
542.97          18.616
543.41        18.70629
543.85        18.79621
544.29        18.88486
544.72        18.97524
545.16        19.08758
545.60        19.21902
546.04        19.36606
546.47        19.51571
546.91        19.64764
547.35         19.7575
547.79        19.84364
548.22        19.91974
548.66        20.04508
549.10        20.21613
549.53        20.40373
549.97        20.59684
550.41        20.78726
550.84         20.9655
551.28        21.13429
551.72        21.28534
552.15         21.4052
552.59        21.50048
553.03        21.56702
553.46        21.63041
553.90        21.74787
554.34        21.92222
554.77        22.14466
555.21        22.36775
555.65        22.51352
556.08        22.54376
556.52        22.53757
556.96        22.52519
557.39        22.58462
557.83        22.71424
558.27        22.79816
558.70        22.83487
559.14        22.90648
559.57        23.00219
560.01        23.10016
560.45        23.18263
560.88        23.19718
561.32        23.18808
561.75        23.25625
562.19        23.39332
562.63        23.49322
563.06        23.53502
563.50        23.53523
563.93        23.51546
564.37        23.55707
564.80        23.65999
565.24        23.80139
565.68         23.9596
566.11        24.08784
566.55         24.1916
566.98         24.3347
567.42        24.50432
567.85        24.57712
568.29        24.59822
568.72        24.66655
569.16        24.79482
569.60        24.98086
570.03        25.24113
570.47          25.307
570.90        25.46893
571.34        25.94851
571.77        26.00386
572.21        26.02982
572.64        26.35728
573.08        26.25272
573.51        26.48158
573.95        26.61776
574.38        26.76531
574.82        26.73694
