SpectraSmart Spectrum 2.9.0.0
--------- Device Information -----------
Spectrum Name :  反射率_0
Saving Time :  2024/04/27 22:46:15
Spectro-Module Model Name : SE2030-DUVN
Spectro-Module Serial Number : OS361AC55029948
Wavelength Start : 200
Wavelength End : 1025
Wavelength Unit : Wavelength(nm)
Spectrum Unit : Reflectance(%)
-----------Spectrum Setting ------------
Integration Time : 20ms
Average : 10
Boxcar : 0
Background removal :  enabled
linearity correction :  enabled
SC :  disabled
Intensity correction :  disabled
DWT denoise :  enabled
savitzky-golay :  disabled
FFT :  disabled
Running average :  disabled
Kalman :  disabled
High pass :  disabled
---------------BEGIN--------------------
Wavelength(nm)             Reflectance(%)
200.29               0
200.75       -101.7551
201.21       -57.55707
201.67       -14.39925
202.13        9.328124
202.58        20.16675
203.04        26.05678
203.50        31.04874
203.96        38.30686
204.42        47.09761
204.88        55.11649
205.34        61.02865
205.80        64.36858
206.26        65.38937
206.72        63.96915
207.18         59.3231
207.64         52.9109
208.10        48.67977
208.55        47.93827
209.01        46.24323
209.47         40.0198
209.93         25.4828
210.39       -10.98579
210.85       -123.5172
211.31       -279.7117
211.77       -132.4533
212.23       -23.60305
212.69        16.98091
213.14        30.37487
213.60        31.60075
214.06        26.09482
214.52        13.67186
214.98        5.350887
215.44        11.66273
215.90        21.40922
216.36        29.94539
216.81        37.48555
217.27        44.52956
217.73         52.3257
218.19        58.83973
218.65        59.76309
219.11        53.89053
219.57        41.84829
220.02          26.749
220.48        18.62633
220.94        21.07019
221.40        30.24145
221.86        41.24395
222.32        49.14547
222.77        53.44172
223.23         55.7658
223.69        56.90751
224.15        57.53211
224.61        58.03761
225.06        58.11245
225.52        58.21444
225.98         58.7058
226.44        59.47066
226.90        60.16533
227.36        60.74741
227.81        61.20995
228.27        61.58115
228.73        61.82038
229.19        61.54797
229.65        60.07362
230.10        57.37852
230.56        54.28051
231.02        51.38802
231.48        49.53853
231.93        48.84776
232.39        49.07104
232.85        50.21246
233.31         52.3371
233.77        55.13309
234.22        58.40989
234.68        61.28666
235.14        62.69543
235.60        62.48292
236.05        60.77053
236.51        58.32545
236.97        57.04409
237.43        57.74036
237.88        60.14587
238.34        62.72705
238.80        63.92147
239.26         63.2195
239.71        60.36234
240.17        55.46756
240.63        52.94753
241.08        56.57262
241.54        62.92031
242.00        67.74087
242.46        69.19609
242.91        67.52401
243.37         61.5674
243.83        48.25602
244.28        31.07468
244.74        29.84352
245.20         45.2351
245.66        58.73066
246.11        62.26027
246.57        57.43587
247.03        44.72656
247.48        24.18442
247.94        10.63731
248.40        18.92346
248.85        39.40863
249.31        60.01493
249.77        71.65646
250.22        75.03922
250.68        74.56893
251.14        72.46089
251.59        70.11157
252.05        67.68382
252.51        63.76722
252.96        58.31248
253.42        55.12339
253.88        56.16611
254.33        60.22163
254.79        63.83245
255.25        64.17645
255.70        62.03003
256.16        59.27483
256.62        57.74504
257.07        59.31826
257.53        63.31037
257.99        67.69279
258.44        70.74103
258.90        71.51476
259.35         70.0722
259.81        67.72514
260.27        65.18406
260.72        63.28645
261.18        62.45108
261.63        62.01395
262.09        61.75056
262.55        60.99232
263.00        59.66546
263.46        58.20362
263.91        56.88589
264.37        56.44968
264.83        56.80375
265.28        57.56203
265.74        58.33717
266.19        58.41743
266.65        57.81113
267.11        56.70265
267.56        55.38227
268.02        54.40997
268.47        53.86949
268.93        53.60447
269.38        53.40189
269.84        52.97582
270.30        52.24049
270.75        51.31496
271.21        50.30451
271.66         49.2938
272.12        48.35814
272.57        47.42712
273.03        46.56025
273.48        45.76078
273.94        45.08794
274.39        44.49691
274.85        43.99405
275.31        43.47595
275.76        42.89133
276.22        42.29072
276.67         41.6585
277.13        41.10612
277.58        40.58025
278.04        40.11467
278.49        39.57999
278.95        38.93013
279.40        38.10969
279.86        37.23071
280.31        36.36348
280.77        35.74866
281.22        35.36557
281.68        35.19436
282.13        35.06349
282.59        34.80658
283.04          34.361
283.50        33.80461
283.95        33.23318
284.41        32.85097
284.86        32.66872
285.32        32.63857
285.77         32.6133
286.22        32.43086
286.68        32.08403
287.13        31.60871
287.59        31.14277
288.04         30.8069
288.50        30.66389
288.95        30.62401
289.41        30.64914
289.86        30.62919
290.32        30.55714
290.77        30.46018
291.22        30.35308
291.68        30.24477
292.13         30.1412
292.59        30.05906
293.04        30.03965
293.50        30.18175
293.95        30.48453
294.40        30.92346
294.86        31.43283
295.31        31.89613
295.77        32.28808
296.22         32.6229
296.68        32.93785
297.13        33.27306
297.58        33.64428
298.04        34.02602
298.49        34.40231
298.95        34.77257
299.40        35.12889
299.85        35.48557
300.31        35.84874
300.76        36.18326
301.21        36.49435
301.67        36.79085
302.12        37.06982
302.58        37.37571
303.03         37.6895
303.48        38.00677
303.94        38.32294
304.39        38.58003
304.84        38.78669
305.30        38.96467
305.75        39.10106
306.20         39.2209
306.66        39.34329
307.11        39.43292
307.57        39.52202
308.02        39.59041
308.47        39.65184
308.93        39.71233
309.38         39.7364
309.83        39.69976
310.29        39.61047
310.74        39.46418
311.19        39.30101
311.65        39.18036
312.10        39.09689
312.55        39.03901
313.00        38.98166
313.46         38.8867
313.91        38.73581
314.36        38.54396
314.82        38.31108
315.27        38.03376
315.72        37.72354
316.18        37.39641
316.63        37.06783
317.08        36.78424
317.53        36.55545
317.99        36.36334
318.44        36.20397
318.89        36.05145
319.35        35.89339
319.80        35.73837
320.25        35.56309
320.70        35.33788
321.16        35.05215
321.61        34.71558
322.06        34.36931
322.51        34.08624
322.97         33.8803
323.42        33.75364
323.87        33.63715
324.32         33.4222
324.78        33.08368
325.23        32.65716
325.68        32.23974
326.13        31.99947
326.59        31.95724
327.04        32.07926
327.49        32.22021
327.94         32.1519
328.39        31.81418
328.85        31.26509
329.30        30.64525
329.75        30.18692
330.20        29.97034
330.66        29.91965
331.11        29.95544
331.56        29.89259
332.01        29.67583
332.46        29.36388
332.92        29.01287
333.37        28.74792
333.82        28.59737
334.27        28.51119
334.72        28.45609
335.17        28.38526
335.63        28.27024
336.08        28.15156
336.53         28.0013
336.98         27.7812
337.43        27.49839
337.88        27.16747
338.34        26.86163
338.79        26.70772
339.24        26.72995
339.69        26.88708
340.14        27.09401
340.59        27.20909
341.05        27.18705
341.50        27.07007
341.95        26.88947
342.40        26.70846
342.85        26.55116
343.30         26.3931
343.75        26.24463
344.20        26.12433
344.66        26.04032
345.11         26.0014
345.56        25.97609
346.01        25.90421
346.46        25.77636
346.91        25.60163
347.36        25.44862
347.81        25.42373
348.26        25.53931
348.72         25.7607
349.17        25.97736
349.62         26.0138
350.07        25.83438
350.52        25.48938
350.97         25.1157
351.42        24.93386
351.87        24.98997
352.32        25.21132
352.77        25.45258
353.22        25.49252
353.67        25.28142
354.13         24.9049
354.58         24.4641
355.03        24.16911
355.48        24.07945
355.93        24.14007
356.38        24.24709
356.83        24.23985
357.28        24.08255
357.73        23.82951
358.18        23.58272
358.63        23.49683
359.08        23.59379
359.53        23.80431
359.98        24.01565
360.43        24.05783
360.88        23.89159
361.33        23.57674
361.78        23.18549
362.23        22.86947
362.68        22.68381
363.13        22.52356
363.58        22.35836
364.03        22.49694
364.48        22.34306
364.93        22.36328
365.38        22.36877
365.83        22.34295
366.28        22.27031
366.73        22.15774
367.18        22.00398
367.63         21.7989
368.08        21.55363
368.53        21.27976
368.98         21.0147
369.43        20.81569
369.88         20.6981
370.33        20.64988
370.78        20.64163
371.23        20.62146
371.68        20.56797
372.13        20.48708
372.58        20.38952
373.03        20.29483
373.48        20.21071
373.93        20.13595
374.38         20.0524
374.83        19.93331
375.28        19.77925
375.72        19.59093
376.17        19.43786
376.62        19.38687
377.07        19.44025
377.52         19.5596
377.97        19.67229
378.42        19.66627
378.87        19.51796
379.32        19.27337
379.77        18.97734
380.22        18.69592
380.67        18.45755
381.11         18.2474
381.56        18.08551
382.01        18.00347
382.46        18.00055
382.91         18.0669
383.36        18.15185
383.81        18.17267
384.26        18.10811
384.71        17.97622
385.15        17.80506
385.60         17.6751
386.05         17.5971
386.50        17.55504
386.95        17.53096
387.40         17.4962
387.85        17.44703
388.29        17.38825
388.74        17.35345
389.19        17.34847
389.64        17.36923
390.09        17.39365
390.54        17.41353
390.98        17.41698
391.43        17.40269
391.88        17.37506
392.33        17.30209
392.78         17.1661
393.23        16.98359
393.67        16.69945
394.12        16.39762
394.57        16.38271
395.02         16.3764
395.47        16.32672
395.91        16.17868
396.36         16.1629
396.81        16.28296
397.26        16.40473
397.71        16.48418
398.15         16.5221
398.60        16.52525
399.05        16.42638
399.50        16.28039
399.95        16.27111
400.39        16.35858
400.84        16.29035
401.29        16.06667
401.74        15.84783
402.18        15.68826
402.63        15.62427
403.08        15.65172
403.53        15.67056
403.97        15.67411
404.42        15.74447
404.87        15.85518
405.32        15.93389
405.76        15.96409
406.21        15.92074
406.66        15.83708
407.11        15.84429
407.55        15.91015
408.00        15.85556
408.45        15.67734
408.90        15.42783
409.34          15.191
409.79        15.16992
410.24        15.32062
410.68        15.37092
411.13        15.29809
411.58        15.26567
412.03        15.29181
412.47         15.3265
412.92        15.35939
413.37         15.4051
413.81        15.43322
414.26        15.41213
414.71        15.33352
415.15        15.20696
415.60        15.06493
416.05        14.97224
416.49        14.95022
416.94        14.98141
417.39        15.02879
417.83        15.03392
418.28        14.97678
418.73        14.86796
419.17        14.74959
419.62        14.69202
420.07        14.71547
420.51         14.8047
420.96         14.8952
421.41        14.90649
421.85        14.82225
422.30        14.60555
422.74        14.36853
423.19        14.45509
423.64        14.81572
424.08        15.03285
424.53        15.00061
424.98        14.98045
425.42        14.96963
425.87        14.70514
426.31        14.30503
426.76        14.26011
427.21        14.51076
427.65        14.51594
428.10         14.2991
428.54        14.26122
428.99        14.40028
429.44         14.6344
429.88        14.83043
430.33        14.60232
430.77        14.10692
431.22        13.98315
431.66        14.23948
432.11        14.45069
432.56        14.55086
433.00        14.66043
433.45        14.63078
433.89        14.34294
434.34        14.07105
434.78        13.35682
435.23        13.91137
435.67        14.39705
436.12        14.62402
436.57        14.73911
437.01        14.62155
437.46        14.53616
437.90        14.56017
438.35        14.61668
438.79        14.25974
439.24        14.09711
439.68        14.02085
440.13        13.98412
440.57        13.96699
441.02        14.06274
441.46        14.22304
441.91        14.12483
442.35        13.87111
442.80        14.05784
443.24        14.55846
443.69        14.55256
444.13        14.07986
444.58        13.87517
445.02        13.95004
445.47         13.9298
445.91        13.80561
446.36        13.75843
446.80        13.78616
447.24        13.83402
447.69        13.89101
448.13        13.97684
448.58        14.06268
449.02        14.07528
449.47        14.03114
449.91        14.02188
450.36        14.05723
450.80        14.08431
451.25        14.09362
451.69        14.09424
452.13        14.07969
452.58        14.03504
453.02        13.97663
453.47        13.93806
453.91        13.92291
454.36        13.94486
454.80        13.95944
455.24        13.88005
455.69        13.73401
456.13        13.56568
456.58        13.43726
457.02        13.48885
457.46        13.65309
457.91        13.66944
458.35        13.59231
458.79        13.59187
459.24        13.68372
459.68        13.74207
460.13        13.77091
460.57        13.75439
461.01          13.756
461.46        13.78811
461.90         13.7786
462.34        13.76707
462.79        13.96421
463.23         13.9919
463.68        13.93203
464.12        13.88483
464.56        13.87173
465.01        13.92568
465.45        13.97176
465.89        13.89385
466.34        13.73741
466.78        13.58265
467.22        13.45504
467.67        13.67859
468.11        13.65062
468.55         13.7038
468.99        13.65982
469.44        13.66379
469.88        13.70989
470.32        13.69811
470.77        13.65411
471.21         13.6637
471.65        13.73724
472.10        13.85015
472.54         13.9529
472.98        13.99002
473.42        13.95651
473.87         13.8374
474.31        13.69429
474.75        13.74903
475.20        13.96766
475.64        14.06059
476.08        14.00806
476.52        14.05237
476.97         14.2021
477.41        14.18356
477.85        14.13244
478.29         14.2397
478.74        14.15121
479.18        14.03457
479.62        14.25512
480.06        14.30595
480.50        14.33752
480.95        14.33905
481.39        14.30681
481.83        14.54553
482.27        14.61965
482.72        14.64126
483.16        14.90115
483.60        14.94847
484.04        14.90048
484.48        14.80332
484.93        14.83383
485.37        14.76932
485.81        15.23071
486.25        15.51448
486.69        15.23362
487.14        14.78226
487.58        16.03789
488.02        15.53806
488.46        15.92866
488.90        16.26619
489.34        15.59655
489.79        15.40066
490.23        15.84436
490.67        16.19413
491.11        16.48356
491.55        16.47257
491.99        16.25919
492.43        16.29625
492.88        16.60833
493.32        16.87651
493.76        17.04033
494.20        17.20994
494.64        17.38812
495.08        17.48962
495.52        17.54469
495.96         17.7588
496.41        18.12754
496.85        18.15603
497.29         17.9541
497.73        18.18242
498.17        18.75922
498.61        19.06607
499.05        19.02214
499.49        18.97865
499.93        19.00237
500.37         19.0271
500.82        19.07237
501.26        19.21626
501.70        19.47353
502.14        19.42339
502.58        19.73505
503.02        19.85595
503.46        19.89874
503.90        19.90191
504.34          19.873
504.78        19.88903
505.22        19.95477
505.66        20.01543
506.10        20.07323
506.54        20.18529
506.98        20.35366
507.42        20.46644
507.86        20.65801
508.30         20.7583
508.74        20.80621
509.18        20.80343
509.62        20.78747
510.06        20.81898
510.50        20.90885
510.94        21.03999
511.38        21.16969
511.82        21.22951
512.26        21.20554
512.70        21.12433
513.14        21.02945
513.58        20.98125
514.02        20.99819
514.46        21.07643
514.90        21.19275
515.34        21.23421
515.78        21.30831
516.22        21.32808
516.66        21.34406
517.10        21.37472
517.54        21.42422
517.98        21.47928
518.42        21.52149
518.86        21.52804
519.30        21.49424
519.74        21.43088
520.18        21.35588
520.62        21.29458
521.06        21.25671
521.50        21.23912
521.93        21.23466
522.37        21.22248
522.81        21.19934
523.25        21.16502
523.69        21.13135
524.13        21.11697
524.57        21.12097
525.01        21.13497
525.45        21.12828
525.89         21.0536
526.32        20.90358
526.76        20.70621
527.20        20.50389
527.64        20.36663
528.08        20.31187
528.52        20.31589
528.96        20.35114
529.40        20.37266
529.83        20.36277
530.27        20.33625
530.71        20.28888
531.15        20.21468
531.59         20.1181
532.03        19.99979
532.46        19.88063
532.90        19.80932
533.34        19.79092
533.78        19.81319
534.22        19.85085
534.66        19.86235
535.09        19.83635
535.53        19.79143
535.97         19.7381
536.41        19.69645
536.85        19.67452
537.28        19.66507
537.72        19.67366
538.16        19.70651
538.60         19.7632
539.04        19.84789
539.47        19.93657
539.91        20.00428
540.35        20.04126
540.79        20.05694
541.22        20.07456
541.66        20.13373
542.10         20.2412
542.54        20.38572
542.97        20.53545
543.41        20.65276
543.85        20.72788
544.29        20.77789
544.72        20.82881
545.16        20.93692
545.60        21.10614
546.04        21.31574
546.47        21.54265
546.91        21.74548
547.35        21.90841
547.79        22.05416
548.22        22.17966
548.66        22.27533
549.10        22.36156
549.53        22.51935
549.97        22.74463
550.41        22.95327
550.84        23.13684
551.28        23.34841
551.72        23.57435
552.15        23.76326
552.59        23.91411
553.03        24.03081
553.46        24.13023
553.90        24.25926
554.34        24.42185
554.77        24.61395
555.21        24.80385
555.65         24.9409
556.08        24.99129
556.52        25.03085
556.96         25.0771
557.39        25.19291
557.83         25.3675
558.27        25.47589
558.70        25.51968
559.14        25.59706
559.57        25.70121
560.01        25.80672
560.45         25.8905
560.88        25.90353
561.32        25.89917
561.75        25.95087
562.19         26.0669
562.63        26.24526
563.06        26.42132
563.50        26.39929
563.93        26.23388
564.37        26.24412
564.80        26.43971
565.24         26.6597
565.68        26.86294
566.11        27.04482
566.55        27.19556
566.98        27.33601
567.42          27.465
567.85        27.50457
568.29        27.51329
568.72        27.57307
569.16        27.69313
569.60        27.88981
570.03        28.17547
570.47        28.23142
570.90        28.37874
571.34        28.97437
571.77        28.88627
572.21        29.06955
572.64        29.29909
573.08        29.22119
573.51         29.4188
573.95        29.58489
574.38        29.76822
574.82        29.91371
