SpectraSmart Spectrum 2.9.0.0
--------- Device Information -----------
Spectrum Name :  反射率_0
Saving Time :  2024/04/27 23:07:32
Spectro-Module Model Name : SE2030-DUVN
Spectro-Module Serial Number : OS361AC55029948
Wavelength Start : 200
Wavelength End : 1025
Wavelength Unit : Wavelength(nm)
Spectrum Unit : Reflectance(%)
-----------Spectrum Setting ------------
Integration Time : 20ms
Average : 10
Boxcar : 0
Background removal :  enabled
linearity correction :  enabled
SC :  disabled
Intensity correction :  disabled
DWT denoise :  enabled
savitzky-golay :  disabled
FFT :  disabled
Running average :  disabled
Kalman :  disabled
High pass :  disabled
---------------BEGIN--------------------
Wavelength(nm)             Reflectance(%)
200.29               0
200.75       -53.36334
201.21       -8.626261
201.67        27.00248
202.13        38.98833
202.58        35.45411
203.04        24.28842
203.50        14.37017
203.96        17.14713
204.42        31.30778
204.88        49.55121
205.34        64.86346
205.80        71.77863
206.26        69.85555
206.72        58.58448
207.18        37.15881
207.64        19.95742
208.10        21.46455
208.55        34.11394
209.01        42.72607
209.47        40.88747
209.93        26.11908
210.39       -16.77317
210.85       -147.6723
211.31       -298.2617
211.77       -101.6141
212.23        22.02567
212.69        63.72732
213.14        73.84637
213.60        68.28558
214.06        49.02753
214.52        12.64951
214.98       -15.96971
215.44       -7.264902
215.90         15.9229
216.36         35.8112
216.81        47.07928
217.27        52.04396
217.73        54.78377
218.19        55.13556
218.65        51.60902
219.11        44.27462
219.57        33.02945
220.02         20.4735
220.48        15.43452
220.94        20.35161
221.40        31.15775
221.86        43.83544
222.32        54.54267
222.77        62.26837
223.23        67.82087
223.69        70.41692
224.15        68.93273
224.61        63.75618
225.06        55.22667
225.52        45.87196
225.98        40.95687
226.44        41.59288
226.90        45.05704
227.36         48.7103
227.81        50.46811
228.27        50.30995
228.73        48.96126
229.19        46.75967
229.65        44.40586
230.10        42.39429
230.56        40.93616
231.02        39.91407
231.48        39.30893
231.93        39.02237
232.39        39.03308
232.85        39.75734
233.31        41.77147
233.77        44.84125
234.22        48.64928
234.68         51.8335
235.14        52.67638
235.60        50.92117
236.05        46.74889
236.51         41.6741
236.97         39.3473
237.43        41.25317
237.88        46.60903
238.34        52.45888
238.80        55.40732
239.26        54.44432
239.71        49.09828
240.17        39.33528
240.63        32.79822
241.08        37.01503
241.54        46.74141
242.00        54.76448
242.46        57.77301
242.91        56.17178
243.37        49.23648
243.83        32.85474
244.28        9.251941
244.74        2.416362
245.20        16.24708
245.66        30.94922
246.11        36.21844
246.57        33.46003
247.03        24.81052
247.48        10.52472
247.94        1.657684
248.40        8.722578
248.85        23.70932
249.31        39.04969
249.77        49.83799
250.22        55.89677
250.68         59.2247
251.14        60.53925
251.59        60.18182
252.05        58.40634
252.51        54.26382
252.96         47.9037
253.42        44.00474
253.88        45.08659
254.33        49.57868
254.79        53.31839
255.25        53.14124
255.70         50.0733
256.16        46.24177
256.62        44.00937
257.07        45.77366
257.53        50.49784
257.99        55.76233
258.44        59.50801
258.90        60.41022
259.35        58.71138
259.81        55.92735
260.27        52.96049
260.72        50.85049
261.18        49.97708
261.63        49.61552
262.09        49.49545
262.55        49.00725
263.00        48.04091
263.46        46.94931
263.91          45.903
264.37         45.4202
264.83        45.43055
265.28        45.67155
265.74        45.86683
266.19        45.49565
266.65        44.58576
267.11        43.29712
267.56        41.88611
268.02        40.84529
268.47        40.25143
268.93        39.95911
269.38        39.80643
269.84        39.56376
270.30        39.14407
270.75        38.63346
271.21        38.01973
271.66        37.23496
272.12        36.31644
272.57        35.23038
273.03        34.16635
273.48        33.34991
273.94        32.86396
274.39        32.60861
274.85        32.41296
275.31        31.94485
275.76        31.15227
276.22        30.19112
276.67        29.23967
277.13        28.64037
277.58        28.38977
278.04        28.39319
278.49        28.42188
278.95        28.25497
279.40        27.79832
279.86        27.20836
280.31        26.56041
280.77        26.07265
281.22        25.75533
281.68        25.57429
282.13         25.4551
282.59        25.34389
283.04        25.19988
283.50        25.05291
283.95        24.89913
284.41        24.76389
284.86        24.63327
285.32        24.51173
285.77        24.36301
286.22        24.17081
286.68        23.95325
287.13        23.69797
287.59         23.4654
288.04        23.27334
288.50        23.15838
288.95        23.08672
289.41        23.06123
289.86        23.04069
290.32        23.03363
290.77         23.0463
291.22        23.08434
291.68        23.15075
292.13        23.24055
292.59        23.35894
293.04        23.52381
293.50        23.78947
293.95        24.14802
294.40        24.58974
294.86        25.05884
295.31        25.46006
295.77        25.78445
296.22        26.05028
296.68        26.33084
297.13        26.71928
297.58        27.24087
298.04        27.85805
298.49         28.5071
298.95        29.10605
299.40         29.6328
299.85        30.11423
300.31        30.60515
300.76        31.15141
301.21        31.76327
301.67        32.40857
302.12        33.01519
302.58        33.52343
303.03        33.90235
303.48         34.1868
303.94        34.43925
304.39        34.70324
304.84        35.01447
305.30        35.37074
305.75         35.7182
306.20         36.0146
306.66        36.26133
307.11        36.43886
307.57        36.61969
308.02        36.84851
308.47        37.13785
308.93        37.45815
309.38        37.70308
309.83        37.74365
310.29        37.57559
310.74        37.24097
311.19        36.85361
311.65        36.59025
312.10        36.48294
312.55         36.4869
313.00        36.54704
313.46        36.57491
313.91        36.53239
314.36        36.45139
314.82        36.31966
315.27        36.11255
315.72        35.83704
316.18        35.50308
316.63        35.15402
317.08        34.88576
317.53        34.71889
317.99        34.62846
318.44        34.56767
318.89        34.43974
319.35        34.21987
319.80        33.93698
320.25        33.63473
320.70         33.3895
321.16        33.21185
321.61        33.07958
322.06        32.94819
322.51         32.7519
322.97        32.47019
323.42        32.14167
323.87        31.78753
324.32        31.44953
324.78        31.14311
325.23        30.86096
325.68         30.6099
326.13        30.40823
326.59        30.23872
327.04        30.11402
327.49        29.98032
327.94        29.75701
328.39        29.42363
328.85        28.99426
329.30        28.52598
329.75        28.11105
330.20        27.78946
330.66        27.53582
331.11         27.3389
331.56        27.12435
332.01         26.8707
332.46         26.5976
332.92        26.33313
333.37        26.15038
333.82        26.05559
334.27        26.02067
334.72        25.99714
335.17         25.9101
335.63        25.73324
336.08        25.50741
336.53         25.2565
336.98        25.03362
337.43        24.86271
337.88        24.73025
338.34        24.64231
338.79         24.6104
339.24          24.628
339.69        24.68991
340.14        24.75933
340.59        24.77499
341.05        24.72198
341.50        24.62065
341.95        24.49125
342.40        24.37989
342.85        24.29902
343.30        24.22694
343.75        24.16498
344.20         24.1156
344.66        24.07605
345.11        24.04844
345.56        23.99508
346.01        23.85099
346.46        23.61375
346.91        23.30799
347.36        23.01332
347.81         22.8498
348.26        22.84135
348.72        22.95369
349.17        23.10321
349.62        23.15383
350.07        23.06747
350.52        22.87413
350.97        22.65674
351.42        22.54876
351.87        22.57858
352.32         22.7058
352.77        22.82375
353.22        22.77463
353.67        22.53059
354.13          22.154
354.58         21.7558
355.03        21.56025
355.48        21.61679
355.93        21.86492
356.38        22.14256
356.83        22.19724
357.28        21.97883
357.73        21.56783
358.18        21.13808
358.63        20.95983
359.08        21.08208
359.53         21.4028
359.98        21.74922
360.43        21.85421
360.88        21.65475
361.33        21.24337
361.78        20.74084
362.23        20.37577
362.68        20.22294
363.13        20.14703
363.58          20.078
364.03        20.27543
364.48        20.11019
364.93        20.08199
365.38        20.02578
365.83        19.96793
366.28        19.90548
366.73        19.83378
367.18        19.72922
367.63        19.54692
368.08        19.29012
368.53        18.98069
368.98        18.68369
369.43        18.49941
369.88        18.44997
370.33        18.50669
370.78        18.60034
371.23        18.61694
371.68        18.51879
372.13         18.3279
372.58        18.09542
373.03        17.90733
373.48        17.79161
373.93        17.73384
374.38        17.67957
374.83         17.5425
375.28        17.31447
375.72         17.0207
376.17        16.77719
376.62        16.72304
377.07        16.86996
377.52        17.14524
377.97        17.42881
378.42        17.53535
378.87        17.42334
379.32        17.16937
379.77        16.83372
380.22         16.5067
380.67         16.2298
381.11         15.9734
381.56        15.79041
382.01        15.76748
382.46        15.90319
382.91        16.16891
383.36        16.43572
383.81        16.49747
384.26        16.31427
384.71        15.94811
385.15         15.5153
385.60        15.23567
386.05        15.15741
386.50        15.22147
386.95        15.35455
387.40        15.43976
387.85        15.44306
388.29        15.39546
388.74        15.34901
389.19        15.33848
389.64        15.36819
390.09         15.4061
390.54        15.43018
390.98        15.41128
391.43        15.34912
391.88        15.26229
392.33        15.14704
392.78        15.02016
393.23        14.89746
393.67         14.7122
394.12        14.51625
394.57        14.54882
395.02        14.55307
395.47        14.49009
395.91        14.31223
396.36        14.22742
396.81        14.24784
397.26        14.26249
397.71        14.24946
398.15        14.23055
398.60         14.2163
399.05        14.14387
399.50        14.05467
399.95        14.09865
400.39        14.23648
400.84        14.24677
401.29        14.11853
401.74        13.97611
402.18        13.85978
402.63        13.80076
403.08        13.79817
403.53        13.77203
403.97        13.72367
404.42        13.72969
404.87        13.76918
405.32        13.78062
405.76        13.75329
406.21         13.6674
406.66        13.56377
407.11        13.57181
407.55        13.66448
408.00        13.68171
408.45        13.59495
408.90        13.40595
409.34        13.17813
409.79        13.10202
410.24        13.16243
410.68        13.16331
411.13        13.09674
411.58        13.09057
412.03        13.15098
412.47        13.21842
412.92        13.27399
413.37        13.33484
413.81        13.37205
414.26        13.35293
414.71        13.27252
415.15        13.14286
415.60        12.99729
416.05        12.90181
416.49         12.8791
416.94         12.9086
417.39        12.96793
417.83         13.0209
418.28        13.04733
418.73        13.05078
419.17        13.03272
419.62        12.99885
420.07        12.95803
420.51        12.91571
420.96        12.86213
421.41        12.80002
421.85        12.73016
422.30        12.59769
422.74        12.46094
423.19        12.56223
423.64        12.84548
424.08        12.96722
424.53        12.86134
424.98        12.79443
425.42        12.77604
425.87         12.5679
426.31        12.25657
426.76        12.24558
427.21        12.47586
427.65         12.4878
428.10        12.30196
428.54        12.26451
428.99        12.37573
429.44        12.56639
429.88        12.72126
430.33        12.51111
430.77        12.07285
431.22        11.95265
431.66        12.16692
432.11          12.367
432.56        12.49909
433.00        12.66245
433.45        12.70717
433.89          12.487
434.34        12.23178
434.78        11.55978
435.23         11.9774
435.67         12.3616
436.12        12.56062
436.57        12.68828
437.01        12.62716
437.46        12.58219
437.90         12.6141
438.35        12.66577
438.79        12.34964
439.24        12.19092
439.68        12.09867
440.13        12.03307
440.57        11.99118
441.02        12.07666
441.46         12.2506
441.91        12.22257
442.35        12.06042
442.80        12.25803
443.24        12.70143
443.69        12.67952
444.13         12.2352
444.58        12.02141
445.02        12.05188
445.47        12.00262
445.91         11.8633
446.36         11.7861
446.80        11.77019
447.24        11.77289
447.69        11.79804
448.13        11.88197
448.58        12.00084
449.02        12.08546
449.47        12.12454
449.91        12.15971
450.36        12.19018
450.80        12.17795
451.25         12.1395
451.69        12.12354
452.13        12.13215
452.58        12.13974
453.02        12.13238
453.47        12.09487
453.91        12.02311
454.36        11.94817
454.80        11.86193
455.24        11.73805
455.69        11.61233
456.13        11.50491
456.58        11.44992
457.02        11.53938
457.46        11.70504
457.91        11.72914
458.35        11.65976
458.79        11.64401
459.24        11.69895
459.68        11.71852
460.13        11.70817
460.57        11.65849
461.01        11.62624
461.46        11.61953
461.90        11.59047
462.34        11.59074
462.79        11.79896
463.23        11.89392
463.68        11.91108
464.12        11.88514
464.56        11.82737
465.01         11.7827
465.45        11.73088
465.89        11.64025
466.34        11.55831
466.78        11.52925
467.22        11.53188
467.67        11.77228
468.11        11.71173
468.55        11.65998
468.99         11.5045
469.44        11.42976
469.88        11.44797
470.32        11.45854
470.77        11.46269
471.21        11.49802
471.65        11.56321
472.10        11.65075
472.54        11.73077
472.98        11.77234
473.42        11.77379
473.87        11.71204
474.31        11.63093
474.75        11.70998
475.20        11.91726
475.64        12.01086
476.08        11.97225
476.52        12.00592
476.97         12.1219
477.41        12.08778
477.85        12.03087
478.29        12.13287
478.74        12.09395
479.18        12.04774
479.62        12.29421
480.06        12.37501
480.50        12.41362
480.95        12.40952
481.39        12.36386
481.83        12.54771
482.27        12.58883
482.72        12.58257
483.16        12.79194
483.60        12.83682
484.04        12.80729
484.48        12.79286
484.93         12.9299
485.37        12.86617
485.81        13.13419
486.25        13.65783
486.69        13.19663
487.14        12.95731
487.58        14.06643
488.02        13.60741
488.46         13.7744
488.90        14.00824
489.34        13.65391
489.79        13.51687
490.23        13.80525
490.67        14.09097
491.11        14.41649
491.55        14.48306
491.99        14.34948
492.43        14.39598
492.88        14.63761
493.32         14.8124
493.76        14.90053
494.20        15.03896
494.64        15.23913
495.08        15.41703
495.52        15.56209
495.96        15.79021
496.41        16.09048
496.85         16.0389
497.29        15.77175
497.73        15.92479
498.17        16.43888
498.61        16.74496
499.05        16.75272
499.49        16.76719
499.93        16.82535
500.37        16.82188
500.82        16.79376
501.26        16.89124
501.70        17.13815
502.14        17.12038
502.58        17.41969
503.02        17.55466
503.46        17.62081
503.90        17.65185
504.34        17.65248
504.78        17.68675
505.22        17.75722
505.66        17.81374
506.10        17.86146
506.54        17.95819
506.98        18.10597
507.42        18.20241
507.86        18.36142
508.30        18.42164
508.74        18.41843
509.18        18.36312
509.62        18.29534
510.06        18.27765
510.50        18.32583
510.94        18.42246
511.38        18.54108
511.82        18.63866
512.26        18.69993
512.70        18.73736
513.14         18.7603
513.58        18.77577
514.02        18.78818
514.46        18.80742
514.90        18.83362
515.34        18.80264
515.78        18.82388
516.22        18.81221
516.66        18.81155
517.10        18.83558
517.54        18.88481
517.98        18.95005
518.42        19.00741
518.86        19.02204
519.30        18.98614
519.74        18.91173
520.18        18.82091
520.62        18.74763
521.06        18.70441
521.50        18.68611
521.93        18.68501
522.37        18.67923
522.81        18.66526
523.25         18.6445
523.69        18.62826
524.13        18.63402
524.57        18.65984
525.01        18.69543
525.45        18.71112
525.89        18.66183
526.32        18.53971
526.76        18.37164
527.20         18.1934
527.64        18.06473
528.08        18.00209
528.52        17.98518
528.96        17.99809
529.40        18.01415
529.83        18.01941
530.27        18.02259
530.71        18.00772
531.15        17.94919
531.59        17.84778
532.03        17.71235
532.46        17.57391
532.90        17.49655
533.34        17.49007
533.78        17.53578
534.22         17.6052
534.66        17.65311
535.09        17.66419
535.53        17.65489
535.97        17.63066
536.41        17.60259
536.85        17.57786
537.28        17.55459
537.72        17.54083
538.16         17.5476
538.60        17.57966
539.04        17.64109
539.47        17.72021
539.91        17.80922
540.35        17.89775
540.79        17.98507
541.22        18.07409
541.66        18.17095
542.10        18.27406
542.54        18.38379
542.97        18.47805
543.41        18.53469
543.85        18.55233
544.29        18.54319
544.72        18.54578
545.16        18.63424
545.60        18.81404
546.04        19.06195
546.47        19.32926
546.91        19.53159
547.35        19.64586
547.79        19.70616
548.22         19.7423
548.66        19.79795
549.10        19.90091
549.53        20.10558
549.97        20.37854
550.41        20.59674
550.84         20.7397
551.28         20.8712
551.72        21.00185
552.15        21.12139
552.59        21.24001
553.03        21.35016
553.46        21.45347
553.90        21.57144
554.34        21.70254
554.77        21.85103
555.21        21.99799
555.65         22.1115
556.08        22.16322
556.52        22.21587
556.96        22.27597
557.39        22.37844
557.83        22.51499
558.27        22.59994
558.70        22.63189
559.14        22.67598
559.57        22.72877
560.01        22.78174
560.45        22.82861
560.88        22.84254
561.32        22.87206
561.75        22.97421
562.19        23.13855
562.63        23.33794
563.06        23.50572
563.50        23.47092
563.93        23.29236
564.37        23.27202
564.80        23.42587
565.24         23.6092
565.68        23.77455
566.11        23.91287
566.55        24.01832
566.98        24.07897
567.42        24.12262
567.85        24.21119
568.29         24.3547
568.72        24.41727
569.16        24.43656
569.60        24.60019
570.03        24.92183
570.47        25.05914
570.90        25.28476
571.34        25.67698
571.77        25.78543
572.21        25.74502
572.64        25.98351
573.08        25.87554
573.51        26.17141
573.95        26.25657
574.38        26.24994
574.82        26.36968
