SpectraSmart Spectrum 2.9.0.0
--------- Device Information -----------
Spectrum Name :  反射率_0
Saving Time :  2024/04/27 22:32:40
Spectro-Module Model Name : SE2030-DUVN
Spectro-Module Serial Number : OS361AC55029948
Wavelength Start : 200
Wavelength End : 1025
Wavelength Unit : Wavelength(nm)
Spectrum Unit : Reflectance(%)
-----------Spectrum Setting ------------
Integration Time : 20ms
Average : 10
Boxcar : 0
Background removal :  enabled
linearity correction :  enabled
SC :  disabled
Intensity correction :  disabled
DWT denoise :  enabled
savitzky-golay :  disabled
FFT :  disabled
Running average :  disabled
Kalman :  disabled
High pass :  disabled
---------------BEGIN--------------------
Wavelength(nm)             Reflectance(%)
200.29               0
200.75        -28.6756
201.21       -7.534307
201.67        12.57995
202.13        23.48006
202.58        28.22142
203.04        30.63458
203.50        33.16224
203.96        37.76509
204.42        43.94968
204.88        50.37619
205.34        55.62867
205.80         59.0873
206.26          60.956
206.72        60.84498
207.18        59.37507
207.64        59.45008
208.10        61.98497
208.55         65.8648
209.01        66.33825
209.47        60.79559
209.93        46.10239
210.39        7.187247
210.85       -111.0209
211.31       -256.0346
211.77       -86.44149
212.23        26.45423
212.69        65.61777
213.14        75.25104
213.60        69.95432
214.06        51.61375
214.52        17.05533
214.98       -9.825583
215.44      -0.9644541
215.90         21.7449
216.36        40.84724
216.81        51.07948
217.27        54.80294
217.73        55.76877
218.19        54.66035
218.65        51.60125
219.11        46.90404
219.57        40.09824
220.02         31.6105
220.48        25.32759
220.94        22.98445
221.40        23.84833
221.86        27.54204
222.32         33.2684
222.77        39.96439
223.23        46.88895
223.69        52.18164
224.15        53.78815
224.61        51.91191
225.06        47.13764
225.52        41.72293
225.98        39.77063
226.44        41.72094
226.90        45.17611
227.36        48.11749
227.81          48.984
228.27         47.8668
228.73        45.44472
229.19        42.05923
229.65        38.58189
230.10        35.64259
230.56        33.37332
231.02        31.92132
231.48        31.54469
231.93        32.02739
232.39        33.23668
232.85        34.77448
233.31         36.0745
233.77        36.98013
234.22        37.74099
234.68        38.08671
235.14        37.82242
235.60        36.96525
236.05        35.32826
236.51        33.78281
236.97        34.10392
237.43         36.8124
237.88        41.56988
238.34        46.22518
238.80        48.58694
239.26        48.10833
239.71        44.23288
240.17         37.3187
240.63        34.02416
241.08        39.77913
241.54        49.44307
242.00        57.06936
242.46         60.4953
242.91        60.60871
243.37        57.43404
243.83        49.07838
244.28         37.6493
244.74        36.11066
245.20        44.72393
245.66        52.95185
246.11        56.25277
246.57        55.71172
247.03        52.85132
247.48        47.42906
247.94        42.50896
248.40        42.36903
248.85        45.21294
249.31        50.26365
249.77        57.20889
250.22        64.39341
250.68        70.59528
251.14        75.15071
251.59        77.73471
252.05        78.70007
252.51        78.04661
252.96        74.28223
253.42         66.7589
253.88        57.94892
254.33        51.13164
254.79        47.50687
255.25        45.88873
255.70        45.43641
256.16         46.2515
256.62        48.18356
257.07        51.06113
257.53        54.37185
257.99        57.17749
258.44        58.84689
258.90        59.24152
259.35        58.30898
259.81        56.82213
260.27         54.8855
260.72        52.67537
261.18        50.70472
261.63          48.796
262.09        47.24517
262.55        46.01781
263.00        45.00498
263.46        44.27128
263.91        43.68649
264.37        43.36705
264.83        43.19774
265.28        43.09289
265.74        42.95535
266.19        42.49795
266.65         41.7623
267.11        40.79408
267.56        39.73288
268.02        38.89926
268.47         38.3282
268.93        37.94957
269.38        37.64479
269.84        37.24697
270.30         36.7006
270.75        36.06084
271.21        35.37297
271.66        34.65882
272.12        33.96146
272.57        33.24128
273.03         32.5445
273.48         31.8728
273.94        31.27714
274.39         30.7216
274.85        30.24198
275.31        29.81148
275.76        29.39865
276.22        29.02929
276.67        28.63974
277.13        28.22522
277.58        27.74779
278.04        27.26672
278.49        26.76917
278.95        26.33873
279.40        25.94399
279.86         25.6149
280.31        25.31553
280.77         25.1023
281.22        24.93122
281.68        24.82138
282.13        24.70406
282.59          24.524
283.04        24.26011
283.50        23.94659
283.95        23.63031
284.41        23.41508
284.86         23.3138
285.32         23.3224
285.77         23.3694
286.22        23.38158
286.68        23.35583
287.13        23.27369
287.59         23.2274
288.04        23.28667
288.50        23.47743
288.95        23.73587
289.41          23.965
289.86        23.97822
290.32        23.77869
290.77        23.43991
291.22         23.1099
291.68        23.00231
292.13        23.16022
292.59         23.5279
293.04        24.02419
293.50        24.54193
293.95        25.02869
294.40        25.52756
294.86        26.03792
295.31        26.54897
295.77        27.07397
296.22        27.59054
296.68        28.13701
297.13        28.76009
297.58        29.46145
298.04        30.21061
298.49        30.95472
298.95        31.63093
299.40        32.22292
299.85        32.75954
300.31        33.27533
300.76        33.78298
301.21        34.30129
301.67        34.82524
302.12        35.33918
302.58        35.86739
303.03        36.38481
303.48        36.88784
303.94        37.38292
304.39        37.82731
304.84        38.22957
305.30        38.60864
305.75        38.92131
306.20        39.14798
306.66        39.30577
307.11        39.37432
307.57        39.44026
308.02        39.56758
308.47        39.77975
308.93        40.05008
309.38        40.27668
309.83        40.33553
310.29        40.21626
310.74         39.9513
311.19        39.63321
311.65        39.40548
312.10        39.28942
312.55        39.24823
313.00        39.23694
313.46        39.18481
313.91        39.06363
314.36        38.90639
314.82        38.70928
315.27        38.46039
315.72        38.16926
316.18        37.84207
316.63        37.51773
317.08        37.28368
317.53        37.15326
317.99        37.09998
318.44        37.06319
318.89        36.92536
319.35        36.65997
319.80        36.30407
320.25        35.92221
320.70        35.62523
321.16        35.43454
321.61        35.32138
322.06         35.2308
322.51        35.07803
322.97        34.83422
323.42        34.54242
323.87        34.22502
324.32         33.9264
324.78        33.66084
325.23        33.41766
325.68        33.19727
326.13        33.01069
326.59        32.84001
327.04        32.70333
327.49        32.55632
327.94        32.33374
328.39        32.02082
328.85        31.62849
329.30        31.21031
329.75        30.84617
330.20        30.56982
330.66        30.35463
331.11        30.19344
331.56        30.01732
332.01        29.80555
332.46          29.576
332.92        29.34327
333.37        29.16335
333.82        29.03906
334.27        28.94994
334.72        28.87308
335.17        28.77457
335.63        28.63771
336.08        28.49473
336.53        28.34249
336.98        28.18816
337.43         28.0423
337.88        27.90372
338.34         27.7979
338.79        27.77167
339.24        27.82609
339.69        27.93961
340.14        28.05958
340.59        28.10271
341.05        28.04323
341.50        27.90586
341.95        27.71444
342.40        27.51837
342.85        27.33888
343.30        27.16766
343.75        27.00716
344.20        26.85915
344.66        26.73136
345.11        26.63051
345.56        26.55822
346.01        26.50984
346.46        26.47739
346.91        26.44637
347.36        26.42342
347.81        26.41883
348.26        26.43137
348.72        26.46631
349.17        26.47312
349.62        26.37348
350.07        26.16042
350.52        25.85012
350.97        25.56256
351.42        25.48904
351.87         25.6553
352.32        25.99872
352.77        26.33715
353.22        26.39025
353.67        26.10568
354.13        25.58678
354.58        24.99804
355.03        24.65681
355.48        24.64408
355.93        24.86632
356.38        25.16253
356.83         25.2813
357.28        25.15833
357.73        24.87573
358.18         24.5527
358.63        24.37044
359.08        24.36773
359.53        24.47106
359.98        24.58253
360.43        24.55719
360.88        24.36227
361.33        24.05539
361.78        23.70053
362.23        23.43026
362.68        23.29012
363.13         23.1762
363.58        23.04969
364.03        23.20592
364.48        23.05022
364.93        23.04249
365.38         23.0067
365.83         22.9453
366.28        22.85023
366.73        22.73149
367.18        22.57228
367.63        22.33653
368.08        22.03239
368.53        21.67616
368.98        21.34487
369.43        21.15794
369.88        21.13873
370.33        21.25648
370.78          21.411
371.23         21.4364
371.68        21.28677
372.13        20.99929
372.58        20.67112
373.03         20.4654
373.48        20.42422
373.93        20.50216
374.38        20.59499
374.83        20.53963
375.28        20.30491
375.72        19.93898
376.17        19.58282
376.62         19.4127
377.07        19.45998
377.52        19.64931
377.97        19.86105
378.42         19.9114
378.87        19.75906
379.32        19.47865
379.77        19.14323
380.22        18.85972
380.67        18.66428
381.11         18.5181
381.56        18.42777
382.01        18.40624
382.46        18.44249
382.91        18.53657
383.36        18.62313
383.81        18.59475
384.26        18.43539
384.71        18.17641
385.15         17.8906
385.60        17.72869
386.05        17.71328
386.50        17.80203
386.95        17.93269
387.40        18.00601
387.85        17.99492
388.29        17.92161
388.74        17.83717
389.19        17.77194
389.64        17.73123
390.09        17.68706
390.54        17.63265
390.98         17.5609
391.43        17.47787
391.88        17.39584
392.33        17.28951
392.78        17.14673
393.23        16.98111
393.67        16.72897
394.12        16.46558
394.57        16.48704
395.02          16.507
395.47        16.47069
395.91        16.31404
396.36        16.25807
396.81        16.30948
397.26        16.34611
397.71        16.33849
398.15        16.30599
398.60        16.26279
399.05        16.13833
399.50          15.994
399.95        16.02113
400.39        16.17721
400.84         16.2057
401.29        16.07757
401.74        15.90488
402.18        15.72893
402.63        15.59801
403.08        15.52874
403.53        15.45999
403.97        15.40182
404.42        15.42803
404.87        15.51108
405.32        15.57604
405.76        15.60346
406.21        15.57186
406.66        15.50883
407.11        15.53237
407.55        15.60905
408.00        15.56573
408.45        15.39892
408.90        15.16267
409.34         14.9389
409.79        14.92045
410.24        15.07313
410.68        15.14457
411.13        15.11195
411.58         15.1343
412.03        15.20054
412.47        15.21027
412.92        15.14887
413.37        15.05384
413.81          14.946
414.26        14.86723
414.71        14.82411
415.15        14.80448
415.60        14.80244
416.05        14.81286
416.49        14.83129
416.94        14.85756
417.39        14.87635
417.83        14.86477
418.28        14.81431
418.73        14.72322
419.17        14.62185
419.62        14.56484
420.07        14.56889
420.51        14.62651
420.96        14.68841
421.41        14.69384
421.85        14.62981
422.30        14.45455
422.74         14.2591
423.19        14.35659
423.64        14.69358
424.08        14.86273
424.53        14.78615
424.98        14.76626
425.42        14.80761
425.87        14.63174
426.31        14.32039
426.76          14.313
427.21         14.5365
427.65        14.46558
428.10        14.14717
428.54        14.01239
428.99        14.07111
429.44        14.23495
429.88        14.38066
430.33        14.14391
430.77        13.67489
431.22        13.59025
431.66        13.88464
432.11        14.11824
432.56        14.21746
433.00        14.30143
433.45         14.2401
433.89        13.94895
434.34        13.70139
434.78        13.03853
435.23        13.61085
435.67        14.08456
436.12        14.26812
436.57        14.31925
437.01        14.14382
437.46        14.03177
437.90        14.06572
438.35        14.16022
438.79        13.86964
439.24        13.76303
439.68        13.72646
440.13        13.71661
440.57        13.71157
441.02        13.79962
441.46        13.93506
441.91         13.8056
442.35        13.51685
442.80        13.65282
443.24        14.08994
443.69        14.03463
444.13        13.54197
444.58        13.33877
445.02        13.43709
445.47        13.47059
445.91        13.41055
446.36        13.40103
446.80        13.43317
447.24        13.46321
447.69        13.49466
448.13        13.56989
448.58        13.66748
449.02        13.70823
449.47        13.70229
449.91        13.73089
450.36        13.79854
450.80        13.85392
451.25        13.88446
451.69        13.89431
452.13        13.87535
452.58        13.81292
453.02        13.72397
453.47        13.64357
453.91        13.57931
454.36        13.54966
454.80        13.51592
455.24        13.40034
455.69        13.23309
456.13        13.05558
456.58        12.93256
457.02        13.00606
457.46        13.20767
457.91        13.27736
458.35        13.24936
458.79        13.26411
459.24        13.33422
459.68        13.34837
460.13        13.32075
460.57        13.25298
461.01        13.21317
461.46        13.20597
461.90        13.17367
462.34        13.17169
462.79        13.40145
463.23        13.49807
463.68        13.50515
464.12        13.46442
464.56        13.39055
465.01        13.33575
465.45        13.27237
465.89        13.15562
466.34         13.0405
466.78        12.98141
467.22        12.96774
467.67        13.25456
468.11        13.23826
468.55        13.25434
468.99        13.15655
469.44        13.12696
469.88        13.17091
470.32        13.18124
470.77         13.1576
471.21        13.14297
471.65        13.14303
472.10        13.15305
472.54        13.16368
472.98        13.17715
473.42        13.19671
473.87         13.1848
474.31        13.16359
474.75        13.29178
475.20        13.52293
475.64        13.59587
476.08        13.50736
476.52        13.51541
476.97        13.63742
477.41        13.60083
477.85        13.54546
478.29        13.67142
478.74        13.63688
479.18        13.59553
479.62        13.87755
480.06        13.95061
480.50        13.95495
480.95        13.89788
481.39        13.79668
481.83        13.97636
482.27        14.02614
482.72        14.04479
483.16        14.31878
483.60        14.40452
484.04        14.39885
484.48        14.42389
484.93        14.60731
485.37        14.52063
485.81        14.78786
486.25        15.32005
486.69        14.82964
487.14        14.70844
487.58        15.66764
488.02        15.44379
488.46         15.3386
488.90        15.53413
489.34        15.00362
489.79        14.86904
490.23        15.32958
490.67        15.73281
491.11        16.11223
491.55         16.1857
491.99        16.03629
492.43        16.10429
492.88        16.41058
493.32        16.64215
493.76        16.76232
494.20        16.91711
494.64        17.11842
495.08        17.27471
495.52        17.39524
495.96        17.64717
496.41        18.01847
496.85        18.03035
497.29        17.80871
497.73        18.03328
498.17        18.62957
498.61        18.97351
499.05        18.97705
499.49         18.9802
499.93        19.04454
500.37         19.1074
500.82        19.17969
501.26        19.32531
501.70        19.55842
502.14        19.46133
502.58        19.72386
503.02        19.82204
503.46        19.87568
503.90        19.91606
504.34        19.93386
504.78        19.97646
505.22        20.04084
505.66        20.08154
506.10         20.1138
506.54        20.21633
506.98        20.39562
507.42        20.52861
507.86        20.74319
508.30        20.85861
508.74        20.90999
509.18        20.90592
509.62        20.87772
510.06        20.87513
510.50        20.91146
510.94        20.97381
511.38        21.04407
511.82        21.09302
512.26        21.11258
512.70        21.11617
513.14        21.11531
513.58        21.11755
514.02        21.12733
514.46        21.15586
514.90        21.20353
515.34        21.19743
515.78         21.2568
516.22        21.28156
516.66        21.31184
517.10        21.34911
517.54        21.39369
517.98        21.44431
518.42        21.48265
518.86        21.48386
519.30        21.44488
519.74        21.37205
520.18        21.29891
520.62        21.27779
521.06        21.31724
521.50        21.40176
521.93        21.48779
522.37        21.49558
522.81        21.41143
523.25        21.25826
523.69        21.08505
524.13        20.96915
524.57        20.92837
525.01        20.93829
525.45        20.95812
525.89        20.92237
526.32        20.81434
526.76        20.66888
527.20        20.51598
527.64        20.40518
528.08        20.34921
528.52        20.32319
528.96        20.31912
529.40         20.3266
529.83        20.33357
530.27        20.34571
530.71        20.33076
531.15        20.23763
531.59        20.06472
532.03        19.83158
532.46         19.5956
532.90        19.46229
533.34        19.45147
533.78        19.53293
534.22        19.65203
534.66        19.72333
535.09        19.72095
535.53        19.67186
535.97         19.6026
536.41        19.55872
536.85        19.55392
537.28        19.57377
537.72        19.60086
538.16        19.60669
538.60         19.5892
539.04        19.56917
539.47        19.56319
539.91        19.60551
540.35        19.69608
540.79        19.82324
541.22        19.96951
541.66        20.10806
542.10        20.22823
542.54        20.34031
542.97        20.43884
543.41        20.52823
543.85        20.61085
544.29         20.6869
544.72         20.7754
545.16         20.9232
545.60        21.12846
546.04        21.37654
546.47        21.63417
546.91        21.84119
547.35        21.98166
547.79        22.08513
548.22        22.16911
548.66        22.25712
549.10        22.37511
549.53        22.59171
549.97        22.88632
550.41        23.14654
550.84        23.35329
551.28         23.5679
551.72        23.77935
552.15        23.94033
552.59        24.05608
553.03        24.13274
553.46         24.1959
553.90        24.30596
554.34        24.46969
554.77        24.67862
555.21        24.89968
555.65        25.07795
556.08        25.17375
556.52        25.26221
556.96        25.34767
557.39        25.47431
557.83        25.63015
558.27        25.69597
558.70        25.69304
559.14        25.75286
559.57        25.87599
560.01        26.02569
560.45        26.16468
560.88        26.22114
561.32        26.24173
561.75        26.30816
562.19        26.42965
562.63        26.60525
563.06        26.77174
563.50        26.72943
563.93        26.54269
564.37        26.54887
564.80        26.76035
565.24        27.01201
565.68        27.25116
566.11        27.45475
566.55        27.61042
566.98        27.74597
567.42        27.87202
567.85        27.92895
568.29        27.97794
568.72        28.09048
569.16        28.26791
569.60        28.51637
570.03        28.85381
570.47        28.94419
570.90        29.10389
571.34        29.73379
571.77        29.73521
572.21        29.72384
572.64        30.02468
573.08        29.96691
573.51        30.33611
573.95        30.51461
574.38        30.56452
574.82        30.62492
