SpectraSmart Spectrum 2.9.0.0
--------- Device Information -----------
Spectrum Name :  反射率_0
Saving Time :  2024/04/27 22:42:30
Spectro-Module Model Name : SE2030-DUVN
Spectro-Module Serial Number : OS361AC55029948
Wavelength Start : 200
Wavelength End : 1025
Wavelength Unit : Wavelength(nm)
Spectrum Unit : Reflectance(%)
-----------Spectrum Setting ------------
Integration Time : 20ms
Average : 10
Boxcar : 0
Background removal :  enabled
linearity correction :  enabled
SC :  disabled
Intensity correction :  disabled
DWT denoise :  enabled
savitzky-golay :  disabled
FFT :  disabled
Running average :  disabled
Kalman :  disabled
High pass :  disabled
---------------BEGIN--------------------
Wavelength(nm)             Reflectance(%)
200.29               0
200.75        -27.2144
201.21        18.89795
201.67        53.88597
202.13        63.41878
202.58        56.28272
203.04        41.14959
203.50        27.34714
203.96        27.52753
204.42         40.7078
204.88        58.79827
205.34        74.86652
205.80        83.86153
206.26         85.7614
206.72        81.52953
207.18         70.3743
207.64        58.72327
208.10        55.70529
208.55        59.35562
209.01        61.84388
209.47        59.22879
209.93         49.2383
210.39        21.68856
210.85       -59.83353
211.31       -144.9525
211.77       -16.43849
212.23        59.95378
212.69        84.02433
213.14        87.32699
213.60        78.63912
214.06        57.10028
214.52        19.55928
214.98       -6.512124
215.44        7.727419
215.90        36.45899
216.36        59.61323
216.81        71.45034
217.27         75.4405
217.73        75.84843
218.19        74.01989
218.65        71.28646
219.11        68.40437
219.57         64.6463
220.02        60.47363
220.48        58.80982
220.94        60.29942
221.40        64.11905
221.86        69.09486
222.32        73.97174
222.77        78.20959
223.23        81.70949
223.69        84.17139
224.15        85.32198
224.61        85.33975
225.06        84.41808
225.52        82.89544
225.98        81.15971
226.44        79.81518
226.90        78.90252
227.36        78.62234
227.81        79.08624
228.27        80.28407
228.73        82.02743
229.19         83.8783
229.65        84.81924
230.10        84.37611
230.56        83.14212
231.02        81.43578
231.48        79.84544
231.93        78.52725
232.39         77.4903
232.85         76.8808
233.31        77.02567
233.77        77.82769
234.22        79.13739
234.68        80.41631
235.14        80.91722
235.60         80.5211
236.05        79.39096
236.51        77.91129
236.97        77.15408
237.43        77.56297
237.88        78.93535
238.34        80.47283
238.80        81.70479
239.26        82.55225
239.71        83.46748
240.17        84.09455
240.63        83.79599
241.08        82.47523
241.54        80.43671
242.00        78.92538
242.46        78.26954
242.91        78.27732
243.37        78.99086
243.83        80.35511
244.28        79.47071
244.74         72.9222
245.20        65.46387
245.66        61.49878
246.11        60.17628
246.57         60.1087
247.03        61.68186
247.48        65.27862
247.94        69.90252
248.40        72.77872
248.85        73.56319
249.31        73.00426
249.77         72.2258
250.22        71.71923
250.68        71.15281
251.14        70.90639
251.59        71.43668
252.05        72.89316
252.51        75.23055
252.96        77.86587
253.42         79.0423
253.88        77.43703
254.33        74.68427
254.79        72.29034
255.25        70.13795
255.70        68.18532
256.16        66.96475
256.62        66.93524
257.07        68.66649
257.53        71.70875
257.99         74.6808
258.44        76.62962
258.90        77.26989
259.35        76.44729
259.81        75.17373
260.27        73.45169
260.72        71.35065
261.18        69.48838
261.63        67.59629
262.09        66.22287
262.55        65.50538
263.00        65.25617
263.46        65.47775
263.91        65.70989
264.37        65.74021
264.83         65.4204
265.28         64.8259
265.74        64.18567
266.19        63.51563
266.65        62.93801
267.11        62.35408
267.56        61.73088
268.02        61.15033
268.47          60.567
268.93        60.00425
269.38        59.43587
269.84        58.85462
270.30        58.23913
270.75        57.58083
271.21        56.85861
271.66         55.9809
272.12        54.97847
272.57         53.8497
273.03        52.72356
273.48        51.69332
273.94         50.8569
274.39        50.13117
274.85        49.51802
275.31        48.89564
275.76        48.20383
276.22        47.51604
276.67        46.79628
277.13        46.13972
277.58         45.4836
278.04        44.86689
278.49        44.18756
278.95        43.45399
279.40        42.61105
279.86        41.76579
280.31        40.92553
280.77        40.25328
281.22        39.71665
281.68        39.32917
282.13        38.99792
282.59        38.67955
283.04          38.313
283.50        37.93377
283.95        37.52927
284.41        37.14833
284.86        36.77691
285.32        36.43664
285.77        36.08157
286.22        35.70196
286.68        35.31779
287.13        34.90318
287.59        34.53172
288.04        34.22229
288.50        34.01262
288.95        33.84953
289.41        33.71642
289.86         33.5273
290.32         33.2921
290.77        33.02418
291.22        32.75902
291.68        32.53986
292.13        32.37126
292.59        32.26078
293.04        32.21429
293.50        32.27281
293.95        32.42666
294.40        32.67747
294.86        32.98996
295.31        33.29496
295.77        33.58369
296.22        33.85346
296.68        34.14663
297.13        34.50964
297.58        34.94971
298.04        35.43841
298.49        35.91785
298.95        36.32624
299.40        36.64552
299.85        36.90521
300.31        37.16254
300.76        37.46639
301.21        37.83947
301.67        38.26422
302.12        38.68306
302.58        39.06163
303.03        39.36383
303.48        39.61286
303.94        39.85186
304.39        40.09014
304.84        40.35139
305.30        40.63578
305.75        40.88551
306.20        41.06248
306.66        41.17378
307.11        41.20246
307.57        41.22744
308.02        41.29808
308.47        41.43744
308.93        41.62333
309.38        41.76484
309.83        41.75747
310.29        41.59745
310.74        41.31477
311.19         40.9978
311.65        40.78186
312.10        40.68436
312.55         40.6673
313.00        40.68946
313.46        40.68745
313.91        40.62878
314.36        40.53816
314.82        40.39495
315.27        40.16122
315.72        39.84485
316.18        39.46883
316.63        39.08796
317.08        38.81395
317.53        38.67268
317.99        38.63231
318.44        38.64663
318.89        38.61942
319.35        38.51867
319.80         38.3676
320.25        38.18997
320.70         38.0318
321.16        37.89757
321.61        37.77555
322.06        37.63806
322.51        37.44954
322.97        37.19977
323.42        36.92069
323.87        36.63423
324.32        36.38268
324.78        36.17606
325.23        36.00979
325.68         35.8721
326.13        35.74965
326.59        35.62047
327.04        35.51181
327.49        35.39241
327.94        35.22286
328.39        34.99623
328.85         34.7116
329.30        34.42573
329.75        34.21616
330.20        34.10853
330.66        34.07461
331.11        34.08053
331.56        34.01234
332.01        33.84339
332.46        33.60161
332.92        33.34236
333.37        33.20194
333.82        33.19919
334.27        33.28731
334.72        33.39906
335.17        33.42567
335.63        33.32633
336.08        33.16079
336.53        32.94157
336.98        32.70478
337.43        32.47888
337.88        32.25558
338.34        32.08418
338.79        32.05194
339.24        32.16674
339.69        32.40471
340.14        32.67252
340.59        32.81465
341.05        32.78835
341.50        32.63401
341.95        32.42142
342.40        32.27839
342.85        32.23814
343.30        32.25835
343.75        32.28933
344.20        32.25093
344.66        32.13054
345.11        31.96842
345.56        31.79828
346.01        31.66373
346.46        31.58276
346.91        31.53411
347.36        31.53414
347.81        31.60919
348.26        31.75023
348.72        31.94476
349.17        32.12202
349.62        32.17102
350.07        32.06635
350.52        31.83053
350.97         31.5519
351.42        31.37674
351.87        31.33986
352.32        31.40533
352.77        31.47587
353.22        31.39944
353.67         31.1505
354.13        30.79641
354.58        30.42633
355.03        30.23179
355.48        30.25341
355.93        30.42753
356.38        30.63516
356.83        30.69339
357.28        30.55702
357.73        30.28526
358.18        29.96703
358.63        29.73997
359.08        29.63874
359.53        29.61362
359.98        29.60632
360.43        29.53027
360.88        29.36162
361.33        29.13017
361.78        28.86354
362.23        28.63546
362.68        28.47048
363.13        28.28732
363.58        28.05401
364.03        28.05346
364.48        27.74447
364.93        27.56773
365.38        27.38332
365.83        27.23328
366.28        27.11661
366.73        27.02401
367.18        26.93288
367.63        26.79476
368.08        26.60117
368.53        26.36874
368.98        26.12124
369.43        25.89569
369.88        25.70773
370.33        25.55169
370.78        25.41923
371.23          25.298
371.68        25.17719
372.13        25.04838
372.58         24.9224
373.03        24.81497
373.48        24.72705
373.93        24.66452
374.38        24.57335
374.83        24.36852
375.28        24.04931
375.72        23.63772
376.17          23.277
376.62        23.14867
377.07         23.2753
377.52        23.57841
377.97        23.90894
378.42        24.03384
378.87        23.89725
379.32        23.58051
379.77         23.1751
380.22        22.82045
380.67        22.56301
381.11        22.35871
381.56        22.20472
382.01        22.09905
382.46        22.03314
382.91        22.02043
383.36        22.01696
383.81        21.94391
384.26        21.78888
384.71        21.57046
385.15        21.34008
385.60        21.21649
386.05        21.21158
386.50        21.29211
386.95        21.40031
387.40        21.44645
387.85        21.40821
388.29        21.30053
388.74        21.18854
389.19        21.11517
389.64        21.08663
390.09        21.07403
390.54        21.05052
390.98         20.9748
391.43         20.8515
391.88        20.70341
392.33        20.53635
392.78        20.38812
393.23        20.27901
393.67        20.11378
394.12        19.93483
394.57        20.03629
395.02         20.0602
395.47        19.95929
395.91        19.70123
396.36        19.63025
396.81        19.76872
397.26        19.93657
397.71        20.05257
398.15        20.07609
398.60        20.01422
399.05        19.81096
399.50        19.56357
399.95         19.5337
400.39        19.68036
400.84        19.68095
401.29        19.51705
401.74        19.35202
402.18        19.23591
402.63        19.21934
403.08        19.28096
403.53        19.27324
403.97        19.19014
404.42        19.14145
404.87        19.13625
405.32        19.15257
405.76        19.18482
406.21         19.1881
406.66        19.16179
407.11        19.19738
407.55         19.2399
408.00        19.09276
408.45        18.78993
408.90        18.45874
409.34        18.21484
409.79        18.27518
410.24        18.55874
410.68        18.69353
411.13        18.63741
411.58        18.60415
412.03        18.62461
412.47        18.65119
412.92        18.68026
413.37        18.72498
413.81         18.7555
414.26        18.74512
414.71        18.68633
415.15         18.5923
415.60        18.49102
416.05        18.44054
416.49        18.45802
416.94        18.52202
417.39        18.60068
417.83        18.64545
418.28        18.63635
418.73         18.5801
419.17        18.50122
419.62        18.44333
420.07        18.42532
420.51         18.4421
420.96        18.45829
421.41        18.44162
421.85        18.38193
422.30        18.20984
422.74        18.01318
423.19        18.14678
423.64        18.53569
424.08        18.68236
424.53        18.50887
424.98        18.42075
425.42        18.43561
425.87        18.19699
426.31         17.8212
426.76        17.87123
427.21        18.25896
427.65        18.32038
428.10        18.06613
428.54         17.9764
428.99        18.05615
429.44        18.21002
429.88        18.32648
430.33        18.01414
430.77        17.47629
431.22        17.47345
431.66         17.9694
432.11        18.34514
432.56        18.48447
433.00        18.55878
433.45         18.4186
433.89        17.99613
434.34        17.65873
434.78         16.8022
435.23        17.54498
435.67        18.15762
436.12        18.39133
436.57        18.45746
437.01        18.23367
437.46        18.09384
437.90        18.14367
438.35        18.27009
438.79        17.90733
439.24        17.80206
439.68        17.80882
440.13        17.86791
440.57        17.92955
441.02        18.07017
441.46        18.22444
441.91        18.01419
442.35        17.60713
442.80         17.7743
443.24        18.37592
443.69        18.43242
444.13        17.96404
444.58         17.7964
445.02        17.93361
445.47        17.94384
445.91        17.81316
446.36        17.75058
446.80        17.75594
447.24        17.76067
447.69        17.77204
448.13        17.84566
448.58        17.95447
449.02        18.00156
449.47        17.98461
449.91        17.98108
450.36        17.99626
450.80        17.96955
451.25        17.92661
451.69        17.93682
452.13        17.99936
452.58        18.07515
453.02        18.12677
453.47        18.10597
453.91         18.0021
454.36        17.86457
454.80        17.70503
455.24        17.52242
455.69        17.37719
456.13        17.28889
456.58        17.27926
457.02        17.44411
457.46        17.67183
457.91         17.6492
458.35         17.4805
458.79         17.4362
459.24        17.54721
459.68        17.63583
460.13        17.67889
460.57        17.61716
461.01        17.52654
461.46        17.44078
461.90        17.30622
462.34        17.23096
462.79        17.49377
463.23        17.60501
463.68        17.62781
464.12        17.62261
464.56        17.60143
465.01        17.62291
465.45        17.62913
465.89        17.52556
466.34          17.378
466.78        17.27025
467.22        17.19775
467.67        17.51644
468.11        17.43876
468.55        17.40816
468.99         17.2418
469.44        17.19142
469.88        17.26491
470.32        17.31778
470.77        17.33781
471.21        17.36083
471.65        17.38478
472.10        17.40662
472.54         17.4105
472.98        17.39774
473.42        17.37621
473.87        17.29842
474.31        17.20729
474.75        17.32965
475.20        17.60824
475.64        17.69594
476.08        17.58025
476.52        17.58205
476.97        17.71865
477.41        17.64269
477.85        17.53348
478.29        17.64553
478.74        17.54139
479.18        17.42262
479.62        17.72844
480.06        17.80427
480.50        17.83115
480.95        17.80592
481.39         17.7281
481.83        17.97837
482.27        18.02172
482.72        17.99825
483.16        18.28169
483.60        18.33147
484.04         18.2765
484.48         18.2179
484.93          18.343
485.37        18.20939
485.81        18.58143
486.25        19.18352
486.69        18.69176
487.14        18.36878
487.58        19.11571
488.02        18.97205
488.46        18.97184
488.90        19.27555
489.34        18.98327
489.79        18.83812
490.23         19.2845
490.67         19.5385
491.11        19.73882
491.55        19.69671
491.99        19.49672
492.43        19.47187
492.88        19.64887
493.32        19.81693
493.76        19.94422
494.20        20.12774
494.64        20.36816
495.08        20.56927
495.52        20.73049
495.96        21.01299
496.41        21.37679
496.85        21.34268
497.29        21.03267
497.73        21.05248
498.17        21.38062
498.61        21.67487
499.05         21.8279
499.49         21.8638
499.93         21.8355
500.37        21.88532
500.82        22.01067
501.26        22.15733
501.70        22.33362
502.14        22.10103
502.58        22.27348
503.02        22.30247
503.46        22.33661
503.90        22.39117
504.34        22.44247
504.78        22.52402
505.22        22.62148
505.66        22.68974
506.10        22.73437
506.54        22.82654
506.98        22.97258
507.42        23.03588
507.86        23.18721
508.30        23.26972
508.74        23.33266
509.18        23.37513
509.62        23.39991
510.06        23.40784
510.50        23.40269
510.94        23.38936
511.38        23.38103
511.82         23.3983
512.26        23.44421
512.70        23.51257
513.14        23.59196
513.58        23.65272
514.02        23.68595
514.46        23.71685
514.90        23.74908
515.34         23.7056
515.78        23.72687
516.22        23.70076
516.66         23.6853
517.10        23.70539
517.54         23.7637
517.98        23.84895
518.42        23.92966
518.86         23.9576
519.30        23.92255
519.74        23.84241
520.18        23.74534
520.62        23.67495
521.06        23.64621
521.50        23.64853
521.93         23.6741
522.37        23.70094
522.81         23.7222
523.25        23.73763
523.69        23.74762
524.13        23.75247
524.57        23.74922
525.01        23.73507
525.45        23.69441
525.89        23.60543
526.32        23.46558
526.76        23.29344
527.20        23.12081
527.64        23.00014
528.08        22.94433
528.52        22.93969
528.96        22.95728
529.40        22.94931
529.83        22.90171
530.27        22.83003
530.71        22.75102
531.15        22.69242
531.59        22.66177
532.03        22.64853
532.46        22.63854
532.90        22.62359
533.34        22.59678
533.78        22.56449
534.22        22.53395
534.66        22.51507
535.09        22.50693
535.53        22.50817
535.97        22.51066
536.41        22.50592
536.85         22.4924
537.28        22.47675
537.72        22.46062
538.16        22.44265
538.60        22.42764
539.04         22.4227
539.47         22.4328
539.91        22.47858
540.35        22.55602
540.79        22.66334
541.22        22.78316
541.66        22.88842
542.10        22.97095
542.54        23.03832
542.97        23.10059
543.41        23.18824
543.85        23.30371
544.29        23.43873
544.72        23.57841
545.16        23.71771
545.60        23.84493
546.04        23.96129
546.47        24.07325
546.91        24.18601
547.35         24.2993
547.79        24.42433
548.22         24.5432
548.66        24.62229
549.10        24.67698
549.53        24.80411
549.97        25.00737
550.41         25.2054
550.84        25.39111
551.28        25.61744
551.72        25.85672
552.15        26.03446
552.59        26.14733
553.03        26.20702
553.46        26.24925
553.90        26.35076
554.34         26.5196
554.77        26.74115
555.21        26.96477
555.65        27.10972
556.08         27.1321
556.52        27.12313
556.96        27.11085
557.39        27.17562
557.83          27.311
558.27        27.38117
558.70        27.38853
559.14        27.43918
559.57        27.52655
560.01        27.62441
560.45        27.71141
560.88        27.73657
561.32        27.75375
561.75        27.84334
562.19          28.003
562.63        28.19809
563.06        28.36223
563.50        28.32493
563.93        28.14314
564.37        28.12417
564.80        28.28181
565.24        28.46927
565.68        28.64562
566.11        28.80609
566.55        28.94455
566.98        29.06515
567.42        29.17806
567.85        29.26123
568.29         29.3483
568.72        29.42553
569.16        29.53197
569.60         29.7088
570.03        29.96002
570.47        30.07552
570.90        30.42473
571.34        30.55021
571.77        30.88215
572.21        30.80321
572.64        31.06926
573.08        30.99384
573.51        31.34472
573.95         31.3866
574.38        31.21623
574.82        31.68602
