SpectraSmart Spectrum 2.9.0.0
--------- Device Information -----------
Spectrum Name :  反射率_0
Saving Time :  2024/04/27 22:42:44
Spectro-Module Model Name : SE2030-DUVN
Spectro-Module Serial Number : OS361AC55029948
Wavelength Start : 200
Wavelength End : 1025
Wavelength Unit : Wavelength(nm)
Spectrum Unit : Reflectance(%)
-----------Spectrum Setting ------------
Integration Time : 20ms
Average : 10
Boxcar : 0
Background removal :  enabled
linearity correction :  enabled
SC :  disabled
Intensity correction :  disabled
DWT denoise :  enabled
savitzky-golay :  disabled
FFT :  disabled
Running average :  disabled
Kalman :  disabled
High pass :  disabled
---------------BEGIN--------------------
Wavelength(nm)             Reflectance(%)
200.29               0
200.75       -59.72679
201.21        -4.60293
201.67         36.3381
202.13        51.45314
202.58        50.31074
203.04        40.88613
203.50        30.60399
203.96        29.25282
204.42        36.87012
204.88        48.12824
205.34        58.13291
205.80        63.06923
206.26        62.61863
206.72        56.76722
207.18        45.54292
207.64         37.5878
208.10        40.18333
208.55        48.34504
209.01        52.97964
209.47        50.48937
209.93        38.87072
210.39        6.708512
210.85       -91.65877
211.31       -211.4492
211.77       -68.75597
212.23        24.87696
212.69        58.21926
213.14         69.3661
213.60        70.95381
214.06        66.91778
214.52        56.17093
214.98        45.29712
215.44        44.47225
215.90        48.19824
216.36        52.38525
216.81        55.65683
217.27        58.05895
217.73        60.84612
218.19        62.99046
218.65        62.15931
219.11        57.93598
219.57        50.68571
220.02        42.63462
220.48        40.70277
220.94        46.41502
221.40         56.2761
221.86        66.53254
222.32        73.85951
222.77        77.88476
223.23        79.73666
223.69        79.98569
224.15        79.03627
224.61        77.23151
225.06        74.56255
225.52        71.58703
225.98        69.32864
226.44        68.36154
226.90        68.21021
227.36         68.7744
227.81        69.99525
228.27        71.81377
228.73        74.19213
229.19        76.31486
229.65        76.44749
230.10        74.13307
230.56        70.38966
231.02        66.50594
231.48        64.34792
231.93        64.14151
232.39        65.26179
232.85        67.13638
233.31        69.07091
233.77        70.71073
234.22        72.27087
234.68         73.3422
235.14        73.34739
235.60        72.25807
236.05        70.08265
236.51        67.46012
236.97        66.12198
237.43        66.78313
237.88        69.15187
238.34        71.86321
238.80         73.6376
239.26        74.11816
239.71         73.4687
240.17        71.26093
240.63        68.62241
241.08        67.59465
241.54        67.70754
242.00        67.97095
242.46        67.30275
242.91        65.22426
243.37        60.63491
243.83        51.23623
244.28        38.55005
244.74          35.821
245.20        44.82568
245.66         53.1228
246.11        54.34042
246.57        48.94456
247.03        36.86322
247.48        17.66747
247.94         4.05827
248.40        9.600119
248.85        26.41067
249.31        44.57839
249.77        56.56922
250.22        62.29135
250.68        64.79202
251.14        65.42091
251.59        65.11228
252.05        64.25688
252.51        61.86534
252.96        58.15775
253.42        56.73113
253.88        58.80758
254.33        62.97201
254.79        66.01124
255.25        65.35117
255.70        62.04288
256.16        58.18213
256.62        55.91835
257.07        57.46439
257.53        61.94177
257.99        66.98876
258.44        70.70912
258.90        72.01994
259.35         70.9956
259.81        69.06438
260.27          66.842
260.72        65.05249
261.18        64.16694
261.63         63.5492
262.09        63.21672
262.55          62.774
263.00        62.08931
263.46        61.45554
263.91        60.82055
264.37        60.49069
264.83        60.36948
265.28        60.29066
265.74        60.20389
266.19        59.79985
266.65        59.14787
267.11        58.30183
267.56         57.3448
268.02        56.51957
268.47        55.84385
268.93        55.27491
269.38        54.79082
269.84        54.39656
270.30        54.04882
270.75        53.72985
271.21        53.33838
271.66        52.65976
272.12        51.69414
272.57        50.46744
273.03        49.17236
273.48        48.01358
273.94        47.12431
274.39        46.41009
274.85        45.83185
275.31        45.21429
275.76        44.49554
276.22        43.76784
276.67        43.05684
277.13        42.52798
277.58        42.12209
278.04        41.83499
278.49        41.48115
278.95        40.94418
279.40        40.15235
279.86        39.24913
280.31        38.32707
280.77        37.66651
281.22        37.25831
281.68        37.07012
282.13        36.93934
282.59        36.72068
283.04        36.34217
283.50        35.87396
283.95        35.37224
284.41        34.98274
284.86        34.70837
285.32        34.52936
285.77        34.33201
286.22        34.00877
286.68        33.56316
287.13        33.00687
287.59         32.4767
288.04        32.08607
288.50        31.89656
288.95        31.83544
289.41        31.82953
289.86        31.71136
290.32        31.47471
290.77        31.15662
291.22        30.86081
291.68        30.73436
292.13        30.78849
292.59        30.98132
293.04         31.2189
293.50        31.38841
293.95        31.45238
294.40        31.47215
294.86        31.50239
295.31        31.61494
295.77        31.84417
296.22        32.14572
296.68        32.53234
297.13         32.9998
297.58        33.53161
298.04        34.11856
298.49        34.68491
298.95        35.13678
299.40        35.45527
299.85        35.67099
300.31        35.87769
300.76        36.18939
301.21        36.63802
301.67        37.18169
302.12        37.71837
302.58         38.1454
303.03         38.4133
303.48        38.56824
303.94        38.68639
304.39        38.82687
304.84        39.02776
305.30        39.27679
305.75        39.49823
306.20        39.62554
306.66        39.66059
307.11         39.5982
307.57        39.54086
308.02        39.57306
308.47        39.72297
308.93        39.95621
309.38        40.14952
309.83        40.14866
310.29          39.941
310.74        39.57105
311.19        39.16541
311.65        38.92176
312.10        38.86898
312.55        38.94593
313.00         39.0675
313.46          39.103
313.91        39.00601
314.36         38.8253
314.82        38.57549
315.27        38.27462
315.72        37.94794
316.18        37.60054
316.63        37.26922
317.08        37.03785
317.53         36.9208
317.99        36.89299
318.44        36.91279
318.89        36.88967
319.35        36.79419
319.80        36.64862
320.25        36.46769
320.70        36.28535
321.16        36.10661
321.61        35.92346
322.06        35.73506
322.51        35.54768
322.97        35.35835
323.42        35.18703
323.87         35.0139
324.32        34.81115
324.78        34.57199
325.23        34.30973
325.68        34.05969
326.13        33.88752
326.59        33.79307
327.04        33.78089
327.49          33.777
327.94         33.6701
328.39        33.43344
328.85        33.08849
329.30        32.72667
329.75        32.48901
330.20         32.4174
330.66        32.45732
331.11        32.54418
331.56        32.51711
332.01        32.33551
332.46        32.05024
332.92        31.72229
333.37        31.49378
333.82         31.3976
334.27        31.38483
334.72        31.42742
335.17        31.48168
335.63        31.51279
336.08        31.55622
336.53        31.55768
336.98        31.43803
337.43        31.19458
337.88         30.8531
338.34        30.50904
338.79        30.33188
339.24        30.35955
339.69        30.53942
340.14        30.78385
340.59        30.94447
341.05        30.97103
341.50        30.91268
341.95        30.78616
342.40        30.62808
342.85        30.46329
343.30        30.27857
343.75        30.11187
344.20        30.02923
344.66        30.04468
345.11        30.14054
345.56        30.26512
346.01        30.32579
346.46        30.29695
346.91        30.20045
347.36        30.07966
347.81        30.00223
348.26        29.98782
348.72        30.02001
349.17        30.06007
349.62        30.04967
350.07        29.97312
350.52         29.8396
350.97        29.71113
351.42        29.68368
351.87        29.76916
352.32        29.93827
352.77        30.07837
353.22        30.02001
353.67        29.73851
354.13        29.30175
354.58         28.8354
355.03        28.59237
355.48        28.62901
355.93        28.87267
356.38        29.16241
356.83        29.24546
357.28        29.06432
357.73        28.69981
358.18         28.2929
358.63        28.06264
359.08        28.05489
359.53        28.18623
359.98        28.33841
360.43        28.33167
360.88        28.12206
361.33        27.77584
361.78        27.36572
362.23        27.03778
362.68        26.84308
363.13        26.67756
363.58        26.50305
364.03        26.59906
364.48        26.40138
364.93        26.36041
365.38        26.30979
365.83        26.25309
366.28        26.18073
366.73        26.09066
367.18        25.97973
367.63        25.83546
368.08        25.66043
368.53        25.46124
368.98        25.25428
369.43        25.06401
369.88        24.90046
370.33        24.76282
370.78        24.64156
371.23        24.52034
371.68        24.38935
372.13        24.24312
372.58        24.09599
373.03        23.96961
373.48        23.86999
373.93         23.8046
374.38        23.72499
374.83        23.55439
375.28        23.28903
375.72        22.94008
376.17        22.64002
376.62        22.55619
377.07        22.70146
377.52        22.99737
377.97        23.28623
378.42        23.32203
378.87        23.05807
379.32        22.59622
379.77        22.04935
380.22         21.5864
380.67        21.26465
381.11         21.0295
381.56        20.89564
382.01          20.885
382.46        20.98093
382.91        21.18403
383.36        21.38332
383.81        21.39945
384.26        21.20198
384.71        20.83361
385.15        20.42531
385.60        20.22635
386.05        20.27506
386.50        20.49586
386.95        20.75345
387.40        20.83521
387.85        20.69822
388.29        20.41382
388.74        20.10982
389.19        19.91348
389.64        19.85133
390.09        19.86347
390.54        19.90452
390.98        19.90467
391.43        19.85109
391.88        19.77452
392.33         19.6673
392.78        19.54579
393.23        19.42843
393.67        19.22573
394.12        19.00146
394.57        19.07078
395.02        19.10053
395.47        19.04127
395.91        18.83682
396.36        18.77214
396.81         18.8614
397.26        18.94746
397.71        18.99177
398.15        19.01096
398.60        19.01589
399.05        18.92919
399.50        18.79984
399.95        18.81796
400.39        18.93284
400.84        18.85438
401.29          18.599
401.74        18.38107
402.18        18.26599
402.63        18.28278
403.08        18.39487
403.53        18.43406
403.97        18.38324
404.42        18.35904
404.87         18.3658
405.32        18.37391
405.76        18.37972
406.21         18.3397
406.66        18.27346
407.11        18.30181
407.55        18.37845
408.00        18.30795
408.45        18.09293
408.90         17.8034
409.34        17.53889
409.79         17.5252
410.24        17.71366
410.68        17.79495
411.13        17.74254
411.58         17.7478
412.03        17.81796
412.47         17.8699
412.92        17.88729
413.37        17.89199
413.81         17.8789
414.26        17.85599
414.71        17.82233
415.15         17.7824
415.60        17.73057
416.05        17.66782
416.49        17.60146
416.94        17.53018
417.39        17.47681
417.83        17.47658
418.28        17.52506
418.73         17.6015
419.17        17.67272
419.62        17.68747
420.07        17.64203
420.51        17.56631
420.96         17.4689
421.41        17.38429
421.85        17.32115
422.30        17.18809
422.74        17.05583
423.19        17.24729
423.64        17.68376
424.08        17.89605
424.53        17.78785
424.98        17.71361
425.42        17.68549
425.87        17.37271
426.31        16.91387
426.76        16.88688
427.21        17.21936
427.65        17.27468
428.10        17.05895
428.54        17.01536
428.99        17.13966
429.44        17.34288
429.88        17.50067
430.33         17.2098
430.77        16.66336
431.22        16.59824
431.66        16.99543
432.11        17.29868
432.56        17.41033
433.00        17.48426
433.45         17.3758
433.89        17.00792
434.34        16.72005
434.78        15.94429
435.23        16.68063
435.67        17.27371
436.12         17.4833
436.57        17.51011
437.01        17.26158
437.46         17.1298
437.90        17.22043
438.35        17.41738
438.79        17.14567
439.24        17.06138
439.68        17.01852
440.13        16.98132
440.57        16.94236
441.02        17.04379
441.46        17.23704
441.91        17.11794
442.35        16.81529
442.80        17.06072
443.24        17.70183
443.69        17.74456
444.13        17.21427
444.58        16.97336
445.02        17.03298
445.47        16.94248
445.91        16.72383
446.36        16.64547
446.80        16.71344
447.24        16.84319
447.69        16.98871
448.13        17.12114
448.58         17.1953
449.02        17.14029
449.47        17.00252
449.91        16.93238
450.36        16.95392
450.80        16.98925
451.25        17.01962
451.69        17.04403
452.13        17.04875
452.58        17.02066
453.02        16.97261
453.47        16.93264
453.91        16.90434
454.36         16.9065
454.80        16.89866
455.24        16.79813
455.69        16.64291
456.13        16.48065
456.58        16.37311
457.02        16.47115
457.46        16.68619
457.91        16.70308
458.35        16.59828
458.79        16.59693
459.24        16.71961
459.68        16.80733
460.13         16.8477
460.57        16.79687
461.01        16.72976
461.46        16.67223
461.90        16.56103
462.34        16.48292
462.79        16.70043
463.23        16.75009
463.68        16.71091
464.12        16.66843
464.56        16.64046
465.01        16.67735
465.45        16.70214
465.89        16.59245
466.34        16.40644
466.78        16.23286
467.22         16.0966
467.67        16.37875
468.11        16.35426
468.55        16.42296
468.99        16.37214
469.44        16.37675
469.88        16.43056
470.32         16.4135
470.77         16.3539
471.21        16.35155
471.65        16.41988
472.10        16.53244
472.54        16.63655
472.98        16.67663
473.42        16.64667
473.87        16.52164
474.31         16.3689
474.75        16.44274
475.20        16.69986
475.64        16.79971
476.08        16.71482
476.52        16.72827
476.97        16.85103
477.41        16.75917
477.85         16.6361
478.29        16.74311
478.74        16.66766
479.18        16.59152
479.62        16.91467
480.06        16.98577
480.50        16.97412
480.95        16.88987
481.39        16.75306
481.83        16.95425
482.27        16.99603
482.72        16.99833
483.16        17.30656
483.60        17.40207
484.04        17.41006
484.48        17.40738
484.93        17.55998
485.37        17.48176
485.81         17.8855
486.25        18.24851
486.69        17.86691
487.14        17.39938
487.58        18.35625
488.02        18.41506
488.46        18.22925
488.90        18.58503
489.34        18.07931
489.79        17.93968
490.23        18.43979
490.67        18.63676
491.11        18.70314
491.55        18.74267
491.99        18.79996
492.43        18.89571
492.88        19.02516
493.32        19.12436
493.76        19.18788
494.20        19.29441
494.64        19.46349
495.08         19.6154
495.52        19.73829
495.96        19.98909
496.41        20.33627
496.85        20.25029
497.29        19.89982
497.73        20.08667
498.17        20.73091
498.61        21.12493
499.05        21.13894
499.49        21.10121
499.93        21.07141
500.37        20.99822
500.82        20.93176
501.26        21.00346
501.70        21.24446
502.14         21.1825
502.58        21.53484
503.02        21.67951
503.46        21.73112
503.90        21.73673
504.34        21.70765
504.78         21.7312
505.22        21.81284
505.66        21.89004
506.10        21.95601
506.54        22.06142
506.98          22.207
507.42        22.27326
507.86        22.42549
508.30        22.50852
508.74        22.57025
509.18        22.60539
509.62        22.62714
510.06        22.65586
510.50        22.69526
510.94        22.74242
511.38        22.78477
511.82        22.80196
512.26        22.79073
512.70        22.76079
513.14        22.73091
513.58         22.7203
514.02        22.73557
514.46        22.78899
514.90        22.86845
515.34        22.87276
515.78        22.92685
516.22        22.92888
516.66        22.93831
517.10        22.98458
517.54        23.07032
517.98        23.17831
518.42        23.27232
518.86         23.2993
519.30        23.24901
519.74        23.14346
520.18        23.01626
520.62        22.91847
521.06        22.86803
521.50        22.85293
521.93        22.86613
522.37        22.88611
522.81         22.9052
523.25        22.92348
523.69        22.93639
524.13        22.93614
524.57        22.91869
525.01        22.88382
525.45         22.8236
525.89        22.72801
526.32        22.59852
526.76        22.45218
527.20        22.31331
527.64        22.22255
528.08        22.18826
528.52        22.19534
528.96        22.22562
529.40        22.24858
529.83         22.2508
530.27        22.24227
530.71        22.21299
531.15        22.14964
531.59        22.05501
532.03        21.93275
532.46        21.81003
532.90         21.7448
533.34        21.74356
533.78        21.79089
534.22        21.85241
534.66        21.87322
535.09        21.83935
535.53        21.77385
535.97        21.69756
536.41        21.64749
536.85         21.6351
537.28        21.64797
537.72        21.67981
538.16        21.71753
538.60        21.75694
539.04        21.80991
539.47         21.8642
539.91        21.91302
540.35        21.95086
540.79        21.98236
541.22        22.02158
541.66        22.09403
542.10        22.20173
542.54        22.33583
542.97         22.4721
543.41        22.58607
543.85        22.66865
544.29        22.73168
544.72         22.7877
545.16        22.87332
545.60        22.98997
546.04        23.12615
546.47        23.27584
546.91        23.42471
547.35        23.56441
547.79        23.71032
548.22        23.84872
548.66        23.95216
549.10        24.03567
549.53        24.18985
549.97        24.41014
550.41        24.60552
550.84        24.76846
551.28        24.95655
551.72        25.15657
552.15        25.31736
552.59        25.44021
553.03        25.52884
553.46        25.60726
553.90        25.73335
554.34        25.91034
554.77        26.13045
555.21          26.346
555.65        26.48085
556.08        26.49543
556.52        26.47806
556.96        26.46343
557.39        26.54209
557.83         26.7085
558.27        26.82503
558.70        26.88336
559.14        26.96972
559.57        27.07351
560.01        27.17544
560.45        27.25784
560.88        27.27926
561.32        27.29597
561.75        27.37543
562.19        27.52434
562.63         27.7388
563.06         27.9466
563.50        27.94145
563.93        27.76671
564.37        27.73735
564.80        27.86486
565.24        27.99108
565.68        28.10166
566.11        28.23548
566.55        28.39107
566.98        28.57513
567.42        28.76479
567.85        28.84406
568.29        28.86274
568.72        28.91306
569.16         29.0026
569.60        29.17703
570.03        29.46067
570.47        29.46143
570.90        29.51111
571.34        30.24861
571.77        30.05156
572.21         30.2572
572.64        30.52301
573.08        30.43507
573.51         30.7232
573.95        30.83244
574.38        30.92542
574.82        30.90593
