SpectraSmart Spectrum 2.9.0.0
--------- Device Information -----------
Spectrum Name :  反射率_0
Saving Time :  2024/04/27 22:32:13
Spectro-Module Model Name : SE2030-DUVN
Spectro-Module Serial Number : OS361AC55029948
Wavelength Start : 200
Wavelength End : 1025
Wavelength Unit : Wavelength(nm)
Spectrum Unit : Reflectance(%)
-----------Spectrum Setting ------------
Integration Time : 20ms
Average : 10
Boxcar : 0
Background removal :  enabled
linearity correction :  enabled
SC :  disabled
Intensity correction :  disabled
DWT denoise :  enabled
savitzky-golay :  disabled
FFT :  disabled
Running average :  disabled
Kalman :  disabled
High pass :  disabled
---------------BEGIN--------------------
Wavelength(nm)             Reflectance(%)
200.29               0
200.75        70.96957
201.21        68.72807
201.67        65.72284
202.13        61.42827
202.58        55.79757
203.04        50.35182
203.50         46.6359
203.96        46.76505
204.42        50.31167
204.88         55.3049
205.34        60.33159
205.80        64.89093
206.26        69.35065
206.72        74.56588
207.18        80.41535
207.64        82.15235
208.10        77.62672
208.55        71.88383
209.01        66.52948
209.47        60.96675
209.93        52.48684
210.39        32.66278
210.85       -23.76692
211.31       -82.48031
211.77        5.819558
212.23         59.3565
212.69        76.32487
213.14        78.44787
213.60         71.5032
214.06         54.4316
214.52        25.29676
214.98         7.28567
215.44        21.80633
215.90        46.82354
216.36        65.43999
216.81        72.71037
217.27        71.94963
217.73         66.9277
218.19        59.89028
218.65        54.14063
219.11        51.06738
219.57        49.53651
220.02         49.1762
220.48        50.44291
220.94        52.54744
221.40        55.41933
221.86        58.46471
222.32        61.05214
222.77        63.07906
223.23        64.43826
223.69        65.11508
224.15        65.07574
224.61        64.45412
225.06        63.26465
225.52        62.01254
225.98         61.2461
226.44        61.10979
226.90         61.1911
227.36        61.33566
227.81        61.38921
228.27        61.30536
228.73         61.0591
229.19          60.256
229.65        58.25597
230.10        55.09121
230.56        51.52022
231.02        48.25463
231.48        46.27078
231.93        45.63334
232.39        46.02632
232.85        47.17659
233.31         48.7523
233.77        50.47398
234.22         52.3872
234.68        53.90844
235.14        54.36157
235.60         53.6589
236.05         51.7677
236.51         49.4548
236.97        48.52936
237.43        49.71193
237.88         52.7654
238.34        55.94332
238.80        57.43766
239.26         56.6914
239.71           53.24
240.17        47.32581
240.63        44.50506
241.08        49.27946
241.54        57.34563
242.00        63.38195
242.46        65.08153
242.91        62.77155
243.37        55.22021
243.83        38.56102
244.28        17.06131
244.74        15.81778
245.20        35.19847
245.66         53.5189
246.11        62.62597
246.57        65.73066
247.03        65.58507
247.48        62.82293
247.94        61.33329
248.40         64.0989
248.85        68.35419
249.31        71.70776
249.77        72.62971
250.22        71.80999
250.68        70.46383
251.14          69.452
251.59        69.41087
252.05        70.37281
252.51        71.76185
252.96        72.85321
253.42        72.45696
253.88        69.95888
254.33        67.31062
254.79         64.8411
255.25         61.4922
255.70        57.60229
256.16        54.13713
256.62        52.73259
257.07        55.13307
257.53        60.16893
257.99        65.51529
258.44        69.20652
258.90        70.05857
259.35        68.25733
259.81        65.37587
260.27        62.13095
260.72        59.38133
261.18        57.66256
261.63        56.36963
262.09        55.55426
262.55        54.90381
263.00        54.25039
263.46        53.78869
263.91        53.39328
264.37        53.22129
264.83        53.15701
265.28        53.08942
265.74        52.95847
266.19         52.4831
266.65         51.7335
267.11        50.75352
267.56         49.6867
268.02        48.86652
268.47        48.31937
268.93        47.96814
269.38        47.68353
269.84        47.29359
270.30        46.72754
270.75         46.0307
271.21        45.22647
271.66        44.29694
272.12        43.29089
272.57        42.19032
273.03        41.09176
273.48        40.05873
273.94        39.18549
274.39        38.43536
274.85        37.84605
275.31        37.36536
275.76        36.94689
276.22        36.61782
276.67        36.31393
277.13        36.05923
277.58        35.78093
278.04        35.50691
278.49        35.15235
278.95        34.72846
279.40         34.1845
279.86        33.60252
280.31        32.97727
280.77        32.43211
281.22        31.95228
281.68        31.57215
282.13        31.24104
282.59        30.94576
283.04         30.6496
283.50        30.36824
283.95        30.10919
284.41        29.93056
284.86        29.81306
285.32        29.76116
285.77        29.68305
286.22        29.49088
286.68        29.19646
287.13        28.80355
287.59         28.4432
288.04        28.23386
288.50        28.22738
288.95        28.34351
289.41        28.50671
289.86        28.55142
290.32         28.4651
290.77        28.29124
291.22        28.10653
291.68        28.01712
292.13        28.04429
292.59        28.17235
293.04        28.37161
293.50         28.6251
293.95         28.9131
294.40        29.25808
294.86        29.66363
295.31        30.12089
295.77        30.63381
296.22        31.17983
296.68        31.76365
297.13        32.37099
297.58        32.99325
298.04        33.62106
298.49        34.22586
298.95        34.79202
299.40         35.3105
299.85        35.78522
300.31        36.25872
300.76        36.75486
301.21        37.28697
301.67        37.85682
302.12        38.38642
302.58        38.80952
303.03        39.09792
303.48        39.28388
303.94        39.48398
304.39        39.81997
304.84        40.32012
305.30        40.93754
305.75        41.50724
306.20        41.82881
306.66        41.88145
307.11        41.70856
307.57        41.47881
308.02        41.38085
308.47        41.47916
308.93         41.7088
309.38        41.94205
309.83        42.01889
310.29        41.91485
310.74        41.67979
311.19        41.40289
311.65          41.215
312.10        41.13442
312.55        41.11917
313.00        41.13078
313.46        41.11663
313.91        41.04602
314.36        40.93755
314.82         40.7759
315.27        40.53141
315.72         40.2089
316.18        39.82793
316.63        39.41922
317.08        39.05637
317.53        38.76147
317.99        38.51926
318.44        38.32042
318.89        38.12606
319.35        37.92613
319.80         37.7379
320.25        37.56139
320.70        37.40244
321.16        37.24969
321.61         37.0899
322.06        36.92494
322.51        36.76758
322.97        36.60986
323.42        36.46742
323.87        36.28108
324.32        35.96441
324.78         35.5066
325.23        34.94245
325.68        34.38903
326.13        34.04557
326.59        33.94437
327.04        34.05731
327.49        34.21992
327.94        34.16569
328.39        33.82372
328.85        33.25543
329.30        32.63018
329.75        32.22795
330.20        32.13493
330.66        32.25392
331.11        32.45293
331.56        32.46398
332.01        32.21154
332.46        31.77509
332.92        31.26673
333.37        30.91404
333.82        30.77769
334.27         30.7862
334.72        30.85516
335.17        30.85009
335.63          30.718
336.08         30.5259
336.53        30.29612
336.98        30.07409
337.43         29.8843
337.88        29.70829
338.34        29.56071
338.79        29.47613
339.24        29.45741
339.69        29.50219
340.14        29.57117
340.59        29.59644
341.05        29.55833
341.50        29.47089
341.95        29.36465
342.40        29.30237
342.85        29.29341
343.30        29.31108
343.75        29.31203
344.20        29.22819
344.66        29.05259
345.11         28.8172
345.56        28.56228
346.01        28.34559
346.46        28.19105
346.91        28.08237
347.36        28.03057
347.81        28.04833
348.26         28.1274
348.72         28.2625
349.17        28.39761
349.62        28.44446
350.07        28.37836
350.52        28.20632
350.97        28.00151
351.42        27.88684
351.87         27.8879
352.32        27.97808
352.77        28.05041
353.22        27.93909
353.67        27.62359
354.13         27.1765
354.58        26.72709
355.03        26.53117
355.48        26.63818
355.93        26.96173
356.38         27.3292
356.83         27.4726
357.28        27.32706
357.73        26.97887
358.18        26.55564
358.63        26.25714
359.08        26.13618
359.53         26.1226
359.98        26.14415
360.43        26.09206
360.88        25.93593
361.33        25.71998
361.78        25.46982
362.23        25.25352
362.68        25.09827
363.13        24.91823
363.58        24.69823
364.03        24.76693
364.48        24.55716
364.93        24.51056
365.38        24.45105
365.83        24.37529
366.28        24.27286
366.73        24.15739
367.18        24.01483
367.63        23.81035
368.08        23.54992
368.53        23.24662
368.98        22.96416
369.43        22.80322
369.88        22.78267
370.33        22.87392
370.78        22.99444
371.23        23.00886
371.68        22.87686
372.13        22.62626
372.58        22.33066
373.03        22.11413
373.48        22.01194
373.93        21.99582
374.38        21.98724
374.83        21.86168
375.28        21.60039
375.72        21.24109
376.17        20.91426
376.62        20.77849
377.07        20.85688
377.52        21.07644
377.97        21.31652
378.42        21.39229
378.87        21.25931
379.32        20.98685
379.77        20.64441
380.22        20.33535
380.67        20.09729
381.11        19.89791
381.56        19.74696
382.01        19.66217
382.46        19.63896
382.91        19.67902
383.36        19.72954
383.81        19.70161
384.26        19.57699
384.71        19.37554
385.15        19.14855
385.60         19.0122
386.05        18.98294
386.50        19.03633
386.95        19.11641
387.40        19.13579
387.85        19.07709
388.29        18.95511
388.74        18.85136
389.19        18.83815
389.64         18.9183
390.09        19.04832
390.54        19.15829
390.98        19.13686
391.43        18.97577
391.88        18.72805
392.33        18.44033
392.78        18.20732
393.23        18.06189
393.67        17.89521
394.12        17.74004
394.57        17.84998
395.02        17.89807
395.47        17.84819
395.91        17.64162
396.36        17.53511
396.81        17.54668
397.26        17.53753
397.71         17.4904
398.15        17.44869
398.60         17.4284
399.05        17.34859
399.50        17.25336
399.95         17.3158
400.39        17.48434
400.84        17.49036
401.29        17.32193
401.74        17.13408
402.18          16.979
402.63        16.89499
403.08        16.88173
403.53        16.84329
403.97        16.78059
404.42        16.78386
404.87        16.83201
405.32        16.85659
405.76        16.84348
406.21        16.76837
406.66         16.6617
407.11        16.65151
407.55        16.70096
408.00        16.62318
408.45        16.42157
408.90        16.16238
409.34        15.93437
409.79        15.94493
410.24        16.13688
410.68        16.20727
411.13        16.12781
411.58        16.07446
412.03        16.07717
412.47        16.10296
412.92        16.14541
413.37        16.21262
413.81        16.26061
414.26        16.23765
414.71        16.13268
415.15        15.96586
415.60        15.77954
416.05        15.65641
416.49        15.62509
416.94        15.66036
417.39        15.72866
417.83        15.77707
418.28        15.78154
418.73        15.74931
419.17        15.69837
419.62        15.66062
420.07        15.65017
420.51        15.66393
420.96         15.6681
421.41        15.63153
421.85        15.54899
422.30        15.36609
422.74        15.17217
423.19        15.28819
423.64        15.65327
424.08         15.8394
424.53        15.75931
424.98        15.72603
425.42        15.74496
425.87        15.52226
426.31         15.1609
426.76        15.14994
427.21        15.41735
427.65         15.3986
428.10        15.12453
428.54        15.02728
428.99        15.11172
429.44        15.29153
429.88        15.44057
430.33        15.17826
430.77        14.66913
431.22        14.56784
431.66         14.8713
432.11        15.11483
432.56        15.22004
433.00        15.31756
433.45        15.25069
433.89         14.8991
434.34         14.5558
434.78        13.75167
435.23        14.26287
435.67        14.72901
436.12         14.9638
436.57        15.11807
437.01        15.04881
437.46        14.99666
437.90        15.03498
438.35        15.08912
438.79        14.72443
439.24         14.6103
439.68        14.63935
440.13        14.74495
440.57        14.86078
441.02        15.01493
441.46        15.14278
441.91        14.93028
442.35        14.54029
442.80        14.66023
443.24        15.16702
443.69        15.19026
444.13        14.74479
444.58        14.55771
445.02        14.63083
445.47        14.58238
445.91        14.42133
446.36        14.36317
446.80        14.41031
447.24        14.49452
447.69        14.58284
448.13        14.66412
448.58        14.70483
449.02        14.64308
449.47        14.52277
449.91        14.47923
450.36        14.53057
450.80        14.60476
451.25        14.67507
451.69        14.72488
452.13        14.73649
452.58        14.70213
453.02        14.63289
453.47        14.55389
453.91        14.47365
454.36        14.41345
454.80        14.34996
455.24         14.2312
455.69        14.09374
456.13        13.97041
456.58        13.90998
457.02        14.03413
457.46        14.26158
457.91        14.32172
458.35        14.26337
458.79        14.25657
459.24        14.31958
459.68        14.32578
460.13        14.28892
460.57        14.20892
461.01        14.15827
461.46        14.14726
461.90        14.10914
462.34        14.09387
462.79        14.31728
463.23        14.39111
463.68        14.37903
464.12         14.3513
464.56        14.32424
465.01        14.33988
465.45        14.34436
465.89        14.25451
466.34        14.12144
466.78        14.01357
467.22        13.93472
467.67        14.18331
468.11        14.12436
468.55        14.11778
468.99        13.99766
469.44        13.93999
469.88        13.94873
470.32        13.91601
470.77        13.86952
471.21        13.89761
471.65        14.00799
472.10        14.17477
472.54        14.33652
472.98        14.42001
473.42        14.41387
473.87         14.3015
474.31        14.15257
474.75        14.20729
475.20        14.43404
475.64        14.53383
476.08        14.47604
476.52        14.49566
476.97         14.6003
477.41        14.51257
477.85        14.39775
478.29        14.49127
478.74        14.43754
479.18        14.39035
479.62         14.6876
480.06        14.74989
480.50        14.72265
480.95        14.62203
481.39        14.47727
481.83        14.64225
482.27        14.69198
482.72        14.72845
483.16        15.04328
483.60        15.15926
484.04        15.16803
484.48        15.18933
484.93         15.3903
485.37        15.29101
485.81        15.53528
486.25        16.14885
486.69         15.8775
487.14        15.38744
487.58        16.37112
488.02        16.17172
488.46        15.99795
488.90        16.45462
489.34        16.01482
489.79        15.90798
490.23        16.26198
490.67        16.47729
491.11        16.67687
491.55        16.74166
491.99        16.72681
492.43        16.82185
492.88        17.03154
493.32        17.20716
493.76        17.32939
494.20        17.48463
494.64        17.68499
495.08        17.85467
495.52        17.98388
495.96        18.21393
496.41        18.52486
496.85        18.43436
497.29         18.1034
497.73        18.26751
498.17        18.85784
498.61        19.23214
499.05        19.27478
499.49        19.28746
499.93         19.3219
500.37        19.32576
500.82        19.33512
501.26         19.4548
501.70        19.70819
502.14         19.6608
502.58        19.97962
503.02        20.09098
503.46        20.10671
503.90        20.07298
504.34        20.01191
504.78        20.02267
505.22        20.11447
505.66        20.22403
506.10        20.33538
506.54        20.47882
506.98        20.64787
507.42        20.73398
507.86        20.88784
508.30         20.9612
508.74        21.00045
509.18        21.00326
509.62        20.99166
510.06        21.00064
510.50        21.03932
510.94        21.10265
511.38        21.17472
511.82        21.22868
512.26        21.25634
512.70        21.26475
513.14        21.26948
513.58        21.28637
514.02        21.31888
514.46        21.37729
514.90        21.44358
515.34        21.41357
515.78        21.40672
516.22        21.33611
516.66        21.27438
517.10        21.27404
517.54        21.34559
517.98        21.46787
518.42        21.59819
518.86        21.67137
519.30        21.66877
519.74        21.60913
520.18        21.52319
520.62        21.45936
521.06        21.43265
521.50        21.43011
521.93        21.43508
522.37         21.4127
522.81        21.35839
523.25        21.28249
523.69        21.20556
524.13        21.15744
524.57        21.14225
525.01        21.14792
525.45        21.14701
525.89         21.0972
526.32        20.98803
526.76        20.84307
527.20        20.68966
527.64        20.57444
528.08        20.50942
528.52         20.4771
528.96        20.46275
529.40        20.44289
529.83        20.40715
530.27         20.3662
530.71        20.31129
531.15        20.22823
531.59        20.11989
532.03        19.99182
532.46        19.86902
532.90        19.80501
533.34        19.80568
533.78        19.85553
534.22        19.92491
534.66        19.96711
535.09        19.96783
535.53        19.94412
535.97        19.90784
536.41        19.88195
536.85        19.87403
537.28        19.87566
537.72        19.88502
538.16         19.8975
538.60        19.91246
539.04        19.93925
539.47        19.96914
539.91        19.99859
540.35        20.02386
540.79        20.05247
541.22         20.0927
541.66        20.15895
542.10        20.25329
542.54        20.37037
542.97         20.5009
543.41         20.6429
543.85        20.78878
544.29         20.9386
544.72        21.08435
545.16        21.23079
545.60        21.37097
546.04        21.50296
546.47        21.63154
546.91        21.76009
547.35        21.88911
547.79        22.03058
548.22        22.17255
548.66        22.29125
549.10        22.40002
549.53         22.5828
549.97        22.83553
550.41        23.07197
550.84        23.28096
551.28        23.51355
551.72        23.74747
552.15        23.91974
552.59        24.03107
553.03        24.09301
553.46        24.14053
553.90        24.24718
554.34         24.4219
554.77        24.65137
555.21        24.89134
555.65        25.06942
556.08        25.14325
556.52        25.19518
556.96        25.24264
557.39         25.3489
557.83         25.5061
558.27        25.58914
558.70        25.61016
559.14        25.68502
559.57         25.8106
560.01        25.95725
560.45        26.09117
560.88        26.14521
561.32        26.16785
561.75        26.23745
562.19        26.36762
562.63        26.56316
563.06        26.75996
563.50        26.75878
563.93        26.60675
564.37         26.6102
564.80        26.77921
565.24        26.96404
565.68        27.12483
566.11         27.2639
566.55        27.37945
566.98        27.47124
567.42        27.55963
567.85         27.6563
568.29         27.7929
568.72        27.90959
569.16         28.0195
569.60        28.26819
570.03        28.66125
570.47        28.77612
570.90        28.92035
571.34        29.59255
571.77         29.5084
572.21        29.56056
572.64        29.87425
573.08         29.7031
573.51        29.90732
573.95        30.08767
574.38        30.34496
574.82        30.44549
