SpectraSmart Spectrum 2.9.0.0
--------- Device Information -----------
Spectrum Name :  反射率_0
Saving Time :  2024/04/27 22:55:19
Spectro-Module Model Name : SE2030-DUVN
Spectro-Module Serial Number : OS361AC55029948
Wavelength Start : 200
Wavelength End : 1025
Wavelength Unit : Wavelength(nm)
Spectrum Unit : Reflectance(%)
-----------Spectrum Setting ------------
Integration Time : 20ms
Average : 10
Boxcar : 0
Background removal :  enabled
linearity correction :  enabled
SC :  disabled
Intensity correction :  disabled
DWT denoise :  enabled
savitzky-golay :  disabled
FFT :  disabled
Running average :  disabled
Kalman :  disabled
High pass :  disabled
---------------BEGIN--------------------
Wavelength(nm)             Reflectance(%)
200.29               0
200.75       -46.30207
201.21       -26.42439
201.67       -3.309747
202.13        12.77123
202.58        23.93105
203.04        34.09999
203.50        43.66083
203.96        50.87481
204.42        55.22938
204.88        57.42433
205.34        58.24954
205.80        58.78691
206.26        59.22479
206.72        58.73158
207.18         57.2485
207.64        55.77561
208.10        55.31623
208.55        56.62857
209.01        55.82156
209.47        50.25754
209.93        36.73586
210.39         1.73761
210.85       -105.2797
211.31       -243.6456
211.77       -95.35091
212.23        7.939332
212.69        45.03532
213.14        55.80731
213.60        54.01005
214.06        42.75633
214.52        21.19757
214.98        7.619783
215.44         18.6666
215.90        36.73891
216.36        50.17727
216.81        56.08634
217.27        56.55778
217.73        54.42488
218.19         50.4074
218.65        45.10126
219.11        39.05981
219.57        31.83735
220.02        24.54635
220.48        21.79006
220.94        24.61177
221.40        31.21049
221.86        39.13695
222.32        45.97143
222.77        51.16781
223.23        54.92194
223.69        57.21902
224.15        58.03286
224.61        57.57075
225.06        55.79207
225.52        53.25492
225.98         50.8792
226.44        49.35055
226.90        48.55014
227.36        48.11814
227.81        47.58659
228.27        46.81771
228.73        45.83728
229.19         44.7422
229.65        43.78982
230.10        43.07275
230.56        42.82994
231.02        42.68013
231.48        42.23233
231.93        41.41488
232.39        40.40683
232.85        39.76755
233.31        40.32204
233.77        42.03168
234.22        44.59855
234.68        46.95616
235.14        47.80087
235.60        46.90923
236.05        44.40683
236.51        41.44411
236.97        40.60841
237.43        42.83733
237.88        47.52065
238.34        52.24352
238.80        54.40861
239.26        53.22726
239.71        48.11938
240.17         39.0709
240.63        33.11161
241.08        37.23619
241.54        46.72138
242.00        54.79016
242.46        58.50875
242.91        58.61913
243.37        55.07452
243.83        46.24205
244.28        36.32735
244.74        39.88487
245.20        53.71967
245.66        63.66619
246.11        65.22532
246.57        59.77626
247.03        46.91187
247.48          26.327
247.94        11.77438
248.40        17.76455
248.85        35.95855
249.31         54.8512
249.77        65.36758
250.22        68.01238
250.68        67.01425
251.14        64.21105
251.59        60.43265
252.05        55.53234
252.51        47.67678
252.96        36.75637
253.42        29.34017
253.88        29.69539
254.33          35.537
254.79        41.36608
255.25        43.15292
255.70        41.86649
256.16        39.87523
256.62        38.86679
257.07        40.55425
257.53        44.28127
257.99        48.12306
258.44        51.03724
258.90         52.5369
259.35        52.52887
259.81         51.8728
260.27         50.5672
260.72        48.60155
261.18         46.5547
261.63         44.4274
262.09        42.67186
262.55        41.46573
263.00        40.71821
263.46        40.37978
263.91        40.29273
264.37        40.51041
264.83        40.86036
265.28        41.24624
265.74         41.4959
266.19        41.23523
266.65        40.51637
267.11        39.43893
267.56        38.21473
268.02        37.27715
268.47        36.70446
268.93        36.40037
269.38        36.25326
269.84        36.09857
270.30        35.86115
270.75        35.58262
271.21        35.24253
271.66        34.76649
272.12        34.16785
272.57        33.41701
273.03        32.60894
273.48        31.82641
273.94        31.15584
274.39        30.56905
274.85        30.06054
275.31        29.54002
275.76        28.98116
276.22         28.4323
276.67        27.93752
277.13        27.64099
277.58        27.49645
278.04        27.48336
278.49        27.41462
278.95        27.12631
279.40        26.55551
279.86        25.83467
280.31        25.08632
280.77        24.59774
281.22        24.38127
281.68        24.38204
282.13        24.44548
282.59         24.3964
283.04        24.18321
283.50        23.87566
283.95        23.55856
284.41        23.39067
284.86        23.38217
285.32        23.48535
285.77        23.58033
286.22        23.53175
286.68        23.33268
287.13        23.00783
287.59        22.68093
288.04         22.4645
288.50        22.41403
288.95        22.46465
289.41         22.5543
289.86        22.54954
290.32        22.44242
290.77        22.26981
291.22        22.11186
291.68        22.08133
292.13        22.19084
292.59        22.40917
293.04        22.66888
293.50        22.88923
293.95        23.04325
294.40        23.17777
294.86        23.32946
295.31        23.54672
295.77        23.85129
296.22        24.20179
296.68          24.613
297.13        25.08705
297.58        25.60983
298.04        26.16945
298.49        26.68699
298.95        27.05462
299.40        27.25914
299.85        27.33473
300.31        27.40269
300.76         27.6214
301.21        28.03263
301.67         28.5847
302.12        29.14525
302.58        29.54761
303.03         29.7437
303.48        29.79906
303.94        29.83286
304.39        29.98169
304.84        30.28578
305.30        30.69188
305.75        31.08616
306.20        31.33408
306.66        31.41804
307.11         31.3636
307.57        31.27286
308.02        31.24063
308.47        31.30703
308.93        31.43324
309.38        31.54463
309.83        31.55073
310.29        31.44325
310.74        31.24894
311.19        31.02646
311.65        30.86329
312.10         30.7651
312.55        30.70411
313.00        30.65863
313.46        30.59741
313.91        30.50239
314.36        30.39195
314.82        30.23771
315.27        29.98896
315.72        29.65122
316.18        29.25105
316.63        28.86062
317.08        28.61404
317.53        28.53798
317.99         28.5918
318.44        28.69588
318.89        28.70257
319.35        28.57078
319.80        28.33966
320.25        28.07288
320.70        27.88156
321.16         27.7864
321.61        27.75299
322.06        27.72295
322.51        27.60812
322.97        27.38493
323.42        27.10248
323.87        26.79627
324.32        26.52854
324.78        26.32038
325.23         26.1519
325.68        26.02553
326.13        25.95107
326.59        25.90663
327.04        25.90811
327.49        25.88828
327.94        25.74353
328.39        25.45307
328.85        25.03839
329.30        24.58885
329.75        24.25995
330.20        24.10403
330.66        24.07659
331.11        24.11949
331.56        24.08435
332.01        23.93082
332.46        23.70314
332.92        23.45881
333.37        23.31947
333.82        23.31017
334.27        23.37978
334.72        23.48078
335.17        23.54246
335.63        23.52991
336.08        23.48372
336.53        23.38613
336.98        23.21637
337.43        22.99046
337.88        22.72417
338.34        22.48688
338.79        22.39661
339.24        22.47556
339.69        22.67979
340.14         22.9437
340.59        23.15382
341.05        23.26809
341.50        23.32657
341.95        23.30788
342.40        23.19283
342.85        22.99503
343.30        22.71029
343.75        22.44169
344.20        22.35947
344.66        22.49355
345.11        22.79669
345.56         23.1119
346.01        23.17905
346.46        22.94714
346.91        22.50031
347.36        22.01527
347.81        21.76311
348.26        21.80797
348.72        22.06827
349.17        22.39498
349.62        22.55047
350.07        22.47006
350.52        22.21925
350.97        21.93435
351.42        21.82994
351.87        21.94852
352.32        22.21238
352.77        22.46237
353.22        22.46318
353.67        22.17266
354.13        21.69054
354.58        21.16158
355.03        20.86248
355.48        20.86433
355.93        21.08691
356.38        21.38257
356.83        21.52093
357.28        21.44307
357.73        21.22068
358.18        20.96687
358.63        20.85561
359.08        20.92109
359.53         21.0907
359.98         21.2625
360.43        21.28574
360.88        21.12513
361.33        20.83594
361.78        20.48549
362.23        20.21504
362.68         20.0724
363.13        19.95186
363.58        19.80875
364.03        19.94108
364.48        19.73531
364.93         19.6848
365.38         19.6202
365.83        19.56675
366.28        19.51686
366.73        19.45954
367.18        19.38286
367.63        19.25716
368.08        19.08232
368.53        18.87823
368.98        18.65697
369.43         18.4352
369.88        18.22812
370.33        18.03591
370.78        17.88701
371.23        17.82663
371.68        17.85074
372.13        17.93142
372.58        18.01562
373.03        18.01485
373.48        17.90779
373.93        17.73307
374.38        17.50436
374.83        17.24623
375.28        16.98364
375.72        16.70021
376.17         16.4907
376.62        16.46348
377.07         16.6186
377.52        16.90632
377.97         17.1921
378.42        17.26194
378.87        17.07596
379.32        16.71481
379.77        16.28627
380.22        15.95659
380.67        15.77553
381.11        15.68891
381.56        15.68298
382.01        15.73185
382.46        15.81155
382.91        15.93572
383.36        16.04012
383.81        16.02056
384.26        15.86193
384.71        15.58502
385.15        15.27858
385.60        15.11988
386.05        15.13487
386.50        15.28049
386.95         15.4561
387.40        15.49967
387.85        15.38533
388.29        15.16872
388.74        14.96375
389.19         14.8951
389.64        14.97875
390.09        15.14732
390.54        15.33618
390.98        15.44319
391.43        15.44032
391.88        15.36989
392.33         15.2255
392.78         15.0208
393.23        14.78494
393.67        14.45811
394.12        14.13443
394.57        14.10793
395.02        14.13996
395.47        14.17947
395.91        14.13764
396.36        14.14353
396.81        14.18718
397.26        14.17679
397.71        14.12199
398.15        14.09311
398.60        14.10979
399.05        14.09001
399.50        14.05081
399.95        14.11051
400.39         14.2231
400.84        14.17877
401.29        13.98849
401.74        13.80984
402.18        13.69357
402.63        13.66303
403.08        13.69738
403.53        13.68475
403.97        13.61794
404.42        13.58112
404.87         13.5787
405.32        13.58805
405.76        13.60499
406.21        13.59855
406.66        13.57332
407.11        13.60333
407.55        13.65136
408.00         13.5738
408.45        13.39007
408.90        13.18299
409.34        13.02962
409.79        13.08594
410.24        13.29204
410.68        13.37834
411.13        13.31646
411.58        13.26352
412.03        13.24515
412.47        13.23552
412.92        13.23549
413.37        13.25198
413.81        13.27085
414.26        13.28279
414.71        13.28071
415.15           13.27
415.60        13.24921
416.05        13.21965
416.49        13.18581
416.94        13.14514
417.39        13.10553
417.83        13.08123
418.28        13.06887
418.73        13.05868
419.17         13.0479
419.62        13.03358
420.07        13.01966
420.51        13.01822
420.96        13.00935
421.41         12.9778
421.85        12.92109
422.30        12.78448
422.74        12.64292
423.19        12.76848
423.64        13.10962
424.08        13.30941
424.53        13.27494
424.98        13.24141
425.42        13.20966
425.87        12.94394
426.31        12.56161
426.76        12.51782
427.21        12.76356
427.65        12.82009
428.10        12.68197
428.54        12.66577
428.99         12.7648
429.44        12.91889
429.88        13.03617
430.33        12.82047
430.77         12.4151
431.22          12.363
431.66        12.65545
432.11        12.88658
432.56        12.98669
433.00        13.06685
433.45        13.00066
433.89        12.71223
434.34        12.44786
434.78        11.76536
435.23         12.1932
435.67        12.61225
436.12        12.86225
436.57        13.04227
437.01         13.0187
437.46         12.9921
437.90        13.02286
438.35        13.05242
438.79         12.6972
439.24        12.52553
439.68        12.44896
440.13        12.41767
440.57        12.41446
441.02        12.52269
441.46        12.69596
441.91        12.64409
442.35        12.44654
442.80        12.62231
443.24        13.05591
443.69        13.01426
444.13        12.54728
444.58        12.33166
445.02        12.38224
445.47        12.36495
445.91         12.2626
446.36        12.22111
446.80        12.23618
447.24        12.26471
447.69        12.31209
448.13        12.41937
448.58        12.56319
449.02        12.66924
449.47        12.72574
449.91        12.77722
450.36         12.8225
450.80        12.82081
451.25          12.789
451.69         12.7769
452.13        12.78673
452.58        12.79335
453.02         12.7802
453.47        12.72818
453.91        12.63384
454.36        12.53098
454.80           12.42
455.24         12.2869
455.69        12.17124
456.13         12.0903
456.58         12.0666
457.02        12.17723
457.46        12.34616
457.91        12.34894
458.35        12.25121
458.79        12.23046
459.24        12.30723
459.68         12.3613
460.13        12.38279
460.57        12.33817
461.01        12.28346
461.46        12.23781
461.90        12.16254
462.34        12.13126
462.79        12.33711
463.23        12.43662
463.68        12.46729
464.12        12.46446
464.56        12.43636
465.01        12.43095
465.45        12.41312
465.89        12.32818
466.34        12.22475
466.78        12.15501
467.22        12.11836
467.67        12.36823
468.11        12.34785
468.55        12.37255
468.99        12.29375
469.44        12.26144
469.88        12.27782
470.32        12.24575
470.77        12.19518
471.21        12.21413
471.65        12.31155
472.10        12.46351
472.54        12.60524
472.98        12.65423
473.42        12.60025
473.87          12.438
474.31        12.24792
474.75        12.26851
475.20        12.47699
475.64        12.60305
476.08        12.60096
476.52         12.6472
476.97        12.74263
477.41        12.65589
477.85        12.53572
478.29        12.59479
478.74        12.53001
479.18        12.47184
479.62        12.72493
480.06         12.8075
480.50        12.84399
480.95        12.83665
481.39        12.78665
481.83        12.97383
482.27        13.01418
482.72        13.00411
483.16        13.21625
483.60        13.26659
484.04        13.23778
484.48        13.21755
484.93         13.3627
485.37         13.2837
485.81        13.45066
486.25        14.11781
486.69        13.39383
487.14        13.02241
487.58        13.99423
488.02        13.76803
488.46        13.84258
488.90        14.08729
489.34        13.71976
489.79        13.54517
490.23        13.81807
490.67        14.08254
491.11        14.40319
491.55        14.52156
491.99        14.47141
492.43        14.54952
492.88        14.75892
493.32        14.87717
493.76        14.90402
494.20        14.99311
494.64        15.16455
495.08        15.33033
495.52        15.47184
495.96        15.69025
496.41        15.97014
496.85        15.89561
497.29        15.60791
497.73        15.73939
498.17        16.23082
498.61        16.52764
499.05        16.53518
499.49        16.52089
499.93         16.5309
500.37        16.51989
500.82        16.51588
501.26        16.60083
501.70        16.79489
502.14        16.73239
502.58         16.9854
503.02        17.07142
503.46        17.08694
503.90        17.06767
504.34        17.03267
504.78        17.06703
505.22        17.17593
505.66        17.30364
506.10        17.42728
506.54        17.55864
506.98        17.69092
507.42        17.73707
507.86        17.83769
508.30        17.88525
508.74        17.92511
509.18        17.94897
509.62        17.97166
510.06        18.01604
510.50        18.08442
510.94        18.17299
511.38        18.26064
511.82        18.31234
512.26        18.32067
512.70        18.29714
513.14        18.26487
513.58        18.25442
514.02        18.27414
514.46          18.327
514.90        18.39857
515.34        18.40004
515.78        18.43027
516.22        18.41418
516.66        18.39783
517.10        18.40019
517.54        18.42718
517.98        18.46899
518.42        18.51296
518.86        18.54306
519.30        18.55279
519.74        18.54584
520.18        18.52908
520.62        18.51229
521.06        18.49961
521.50        18.49105
521.93        18.48034
522.37        18.44988
522.81        18.40051
523.25        18.33359
523.69         18.2695
524.13        18.23975
524.57        18.24637
525.01        18.27811
525.45        18.29795
525.89         18.2471
526.32        18.11419
526.76        17.92953
527.20        17.73613
527.64        17.60489
528.08        17.55497
528.52        17.56292
528.96        17.60354
529.40        17.63644
529.83        17.64474
530.27        17.63957
530.71        17.61733
531.15        17.57248
531.59        17.50717
532.03        17.42118
532.46        17.32656
532.90        17.25682
533.34        17.21774
533.78        17.20614
534.22        17.21002
534.66         17.2088
535.09        17.19495
535.53        17.17459
535.97        17.15782
536.41        17.16235
536.85        17.19146
537.28        17.24206
537.72        17.29309
538.16        17.30882
538.60        17.28686
539.04        17.24428
539.47        17.21274
539.91         17.2514
540.35        17.36342
540.79        17.52954
541.22        17.70941
541.66        17.83851
542.10         17.9001
542.54        17.91883
542.97        17.91584
543.41        17.93506
543.85        17.98886
544.29        18.06439
544.72        18.16368
545.16        18.30512
545.60        18.47976
546.04        18.68406
546.47        18.89161
546.91        19.05288
547.35        19.15626
547.79        19.22307
548.22        19.27545
548.66        19.34695
549.10        19.46052
549.53        19.67396
549.97        19.95238
550.41        20.17019
550.84        20.30655
551.28        20.42376
551.72        20.53725
552.15         20.6462
552.59        20.76321
553.03        20.87962
553.46        20.99138
553.90        21.11094
554.34        21.23489
554.77        21.36868
555.21        21.50233
555.65        21.61877
556.08        21.69298
556.52        21.78006
556.96         21.8711
557.39        21.98616
557.83        22.10965
558.27        22.14361
558.70        22.11624
559.14        22.15518
559.57        22.26385
560.01        22.40652
560.45        22.53721
560.88        22.57369
561.32        22.55443
561.75        22.55793
562.19        22.61071
562.63        22.74168
563.06        22.90113
563.50        22.90605
563.93         22.7901
564.37         22.8113
564.80        22.97248
565.24        23.14341
565.68        23.28996
566.11        23.40902
566.55        23.49693
566.98        23.57341
567.42        23.65251
567.85         23.6897
568.29        23.73497
568.72        23.85353
569.16        24.04975
569.60        24.26591
570.03        24.50122
570.47        24.59984
570.90        24.86558
571.34        25.08601
571.77        25.30884
572.21        25.28483
572.64        25.54784
573.08        25.47401
573.51        25.81743
573.95        25.88435
574.38         25.7606
574.82        26.16889
