SpectraSmart Spectrum 2.9.0.0
--------- Device Information -----------
Spectrum Name :  反射率_0
Saving Time :  2024/04/27 23:09:08
Spectro-Module Model Name : SE2030-DUVN
Spectro-Module Serial Number : OS361AC55029948
Wavelength Start : 200
Wavelength End : 1025
Wavelength Unit : Wavelength(nm)
Spectrum Unit : Reflectance(%)
-----------Spectrum Setting ------------
Integration Time : 20ms
Average : 10
Boxcar : 0
Background removal :  enabled
linearity correction :  enabled
SC :  disabled
Intensity correction :  disabled
DWT denoise :  enabled
savitzky-golay :  disabled
FFT :  disabled
Running average :  disabled
Kalman :  disabled
High pass :  disabled
---------------BEGIN--------------------
Wavelength(nm)             Reflectance(%)
200.29               0
200.75       -3.032696
201.21        1.109257
201.67        7.577623
202.13         13.9551
202.58        20.34899
203.04        26.86987
203.50        35.25813
203.96        46.19885
204.42         57.7285
204.88        68.77403
205.34        77.00062
205.80        80.72441
206.26        80.17329
206.72        74.29898
207.18        63.47142
207.64        57.58263
208.10        62.97367
208.55        73.28318
209.01         79.2479
209.47        77.37247
209.93        65.88329
210.39        33.03441
210.85       -70.49024
211.31       -209.5921
211.77       -69.47772
212.23        30.32304
212.69        66.58093
213.14        77.49146
213.60        76.45851
214.06         66.8689
214.52        47.14206
214.98        31.09488
215.44        35.37401
215.90        47.48491
216.36        57.65874
216.81        62.84392
217.27        64.38448
217.73        64.67617
218.19        64.17676
218.65        63.04294
219.11         61.5854
219.57        59.46778
220.02        57.35709
220.48        58.12001
220.94        61.79364
221.40        66.98509
221.86        71.89955
222.32        74.93068
222.77        76.16788
223.23        76.31224
223.69         75.9721
224.15         75.7377
224.61        75.76783
225.06        75.78384
225.52        75.97755
225.98        76.15808
226.44        76.24899
226.90        76.27142
227.36        76.25223
227.81         76.1366
228.27        76.02139
228.73        75.81577
229.19        75.41637
229.65        74.68767
230.10        73.59265
230.56        72.50764
231.02        71.54663
231.48        70.94427
231.93        70.66398
232.39        70.75927
232.85        71.13439
233.31         71.7547
233.77        72.53613
234.22        73.46453
234.68        74.31075
235.14        74.82072
235.60        74.96036
236.05        74.73548
236.51        74.38369
236.97        74.47469
237.43        75.17341
237.88         76.4609
238.34        77.51062
238.80        77.75755
239.26        76.90975
239.71        74.60474
240.17        70.46405
240.63         67.1162
241.08        67.70812
241.54        70.89207
242.00        73.48853
242.46        73.32652
242.91        70.01694
243.37        61.54791
243.83        44.19698
244.28        24.25656
244.74        27.97955
245.20        52.78561
245.66        72.56398
246.11        78.31678
246.57        73.22445
247.03        57.32162
247.48        31.03068
247.94        14.30202
248.40        26.54098
248.85          55.313
249.31        82.81199
249.77        95.18885
250.22        94.66601
250.68        88.61268
251.14        81.77624
251.59        77.53183
252.05        75.96415
252.51        75.32012
252.96        74.34238
253.42        71.75545
253.88        67.89319
254.33         65.4164
254.79        64.63713
255.25         64.3507
255.70        64.18817
256.16        64.35963
256.62         65.5247
257.07        68.41501
257.53        72.39926
257.99        76.10222
258.44        78.10199
258.90        77.67979
259.35        75.04588
259.81        71.67507
260.27        68.33235
260.72        65.96691
261.18        65.00599
261.63        64.62473
262.09        64.72416
262.55        64.78896
263.00        64.60543
263.46         64.4593
263.91        64.18371
264.37        63.93694
264.83         63.6438
265.28        63.24578
265.74        62.80791
266.19        62.15713
266.65        61.39726
267.11        60.51076
267.56        59.62152
268.02        59.04046
268.47        58.74508
268.93        58.65097
269.38        58.53328
269.84        58.08054
270.30        57.21483
270.75        56.05367
271.21        54.73494
271.66        53.40919
272.12        52.18732
272.57        50.99464
273.03        49.93926
273.48        49.08546
273.94        48.48185
274.39        48.03942
274.85        47.67908
275.31        47.16063
275.76        46.42102
276.22        45.58946
276.67        44.69057
277.13        43.90673
277.58        43.21006
278.04        42.60317
278.49        42.02333
278.95        41.52959
279.40        41.04417
279.86        40.63375
280.31        40.18199
280.77        39.66751
281.22        39.03921
281.68        38.38298
282.13        37.72815
282.59        37.19947
283.04        36.77571
283.50        36.44102
283.95        36.12846
284.41        35.79965
284.86        35.41827
285.32         35.0366
285.77        34.63913
286.22        34.25212
286.68        33.90072
287.13        33.54091
287.59        33.21926
288.04        32.92113
288.50        32.67916
288.95        32.45825
289.41        32.26914
289.86        32.06672
290.32        31.86959
290.77        31.67924
291.22        31.50967
291.68          31.374
292.13        31.26614
292.59        31.19616
293.04        31.18505
293.50        31.29474
293.95        31.52167
294.40        31.86734
294.86        32.26503
295.31        32.59951
295.77        32.85682
296.22        33.04357
296.68        33.27182
297.13        33.69656
297.58        34.33892
298.04         35.1365
298.49        35.91951
298.95        36.45864
299.40        36.71064
299.85        36.75852
300.31        36.79004
300.76        37.06234
301.21        37.63691
301.67        38.41876
302.12        39.21739
302.58         39.8025
303.03        40.09958
303.48        40.20721
303.94        40.26388
304.39        40.41827
304.84        40.72953
305.30        41.14586
305.75        41.56503
306.20        41.88606
306.66        42.09607
307.11        42.20473
307.57        42.29581
308.02        42.41938
308.47        42.60367
308.93        42.81988
309.38        42.99204
309.83         43.0463
310.29        42.97915
310.74        42.80616
311.19        42.59089
311.65        42.42621
312.10        42.32007
312.55        42.25446
313.00        42.19885
313.46        42.10592
313.91        41.95535
314.36        41.76907
314.82        41.55373
315.27        41.31474
315.72        41.06197
316.18        40.80256
316.63          40.542
317.08        40.31269
317.53        40.12198
317.99        39.96064
318.44        39.82068
318.89         39.6716
319.35         39.5015
319.80         39.3124
320.25        39.11298
320.70        38.92455
321.16        38.74185
321.61        38.56625
322.06        38.36509
322.51        38.09134
322.97        37.73655
323.42        37.33541
323.87        36.93184
324.32        36.60635
324.78        36.37851
325.23        36.23538
325.68        36.14091
326.13        36.03979
326.59        35.89598
327.04        35.74395
327.49        35.57146
327.94        35.37193
328.39        35.14643
328.85        34.88428
329.30        34.61609
329.75        34.37634
330.20        34.18094
330.66        34.01461
331.11        33.88127
331.56        33.72778
332.01        33.54005
332.46        33.32714
332.92        33.10308
333.37        32.93071
333.82         32.8119
334.27        32.73098
334.72        32.65649
335.17        32.53742
335.63         32.3549
336.08        32.14771
336.53        31.93432
336.98         31.7591
337.43        31.64041
337.88        31.56653
338.34        31.53308
338.79        31.53917
339.24        31.57328
339.69        31.62979
340.14         31.6851
340.59        31.70211
341.05        31.67095
341.50        31.60566
341.95        31.50842
342.40        31.39674
342.85        31.27767
343.30        31.13971
343.75        31.00608
344.20         30.9129
344.66        30.86815
345.11         30.8677
345.56        30.85409
346.01        30.73044
346.46         30.4868
346.91        30.15554
347.36        29.84279
347.81        29.70863
348.26        29.78281
348.72        30.01896
349.17        30.29284
349.62        30.40605
350.07         30.3091
350.52        30.05124
350.97        29.76378
351.42         29.6594
351.87        29.77815
352.32        30.04443
352.77        30.30335
353.22        30.32215
353.67        30.05647
354.13        29.60339
354.58        29.08846
355.03        28.76173
355.48        28.68864
355.93        28.79362
356.38        28.96025
356.83        29.00603
357.28        28.88386
357.73        28.65995
358.18        28.40607
358.63           28.23
359.08        28.15764
359.53        28.13744
359.98        28.13442
360.43        28.10245
360.88        28.02277
361.33        27.91405
361.78        27.75765
362.23        27.55496
362.68        27.31962
363.13        26.99325
363.58        26.61171
364.03        26.57143
364.48        26.34181
364.93        26.33835
365.38        26.34561
365.83        26.29109
366.28        26.14728
366.73        25.94237
367.18        25.71446
367.63        25.51229
368.08        25.35306
368.53        25.21963
368.98        25.09388
369.43        24.94698
369.88        24.77526
370.33        24.59852
370.78        24.43032
371.23        24.29048
371.68        24.18167
372.13        24.08426
372.58        24.00626
373.03        23.96165
373.48        23.94545
373.93        23.96039
374.38         23.9463
374.83         23.8074
375.28        23.53833
375.72        23.16316
376.17        22.81619
376.62        22.66782
377.07        22.74307
377.52        22.96855
377.97        23.22259
378.42        23.31448
378.87        23.19549
379.32        22.93572
379.77        22.59428
380.22         22.2586
380.67        21.96695
381.11         21.6951
381.56        21.47076
382.01        21.34258
382.46        21.31387
382.91        21.37513
383.36        21.46448
383.81        21.47709
384.26         21.3878
384.71         21.2223
385.15        21.01831
385.60        20.87399
386.05        20.80209
386.50        20.77598
386.95        20.77321
387.40        20.75854
387.85        20.72465
388.29        20.67925
388.74        20.64821
389.19        20.61897
389.64         20.5875
390.09        20.53429
390.54        20.48152
390.98        20.46561
391.43        20.49408
391.88        20.55478
392.33        20.56799
392.78        20.45206
393.23        20.21752
393.67        19.81877
394.12        19.39175
394.57        19.35264
395.02        19.37985
395.47        19.38714
395.91         19.2753
396.36        19.26389
396.81         19.3465
397.26        19.39575
397.71         19.3767
398.15        19.31038
398.60        19.22129
399.05        19.02802
399.50        18.82527
399.95        18.87325
400.39        19.12639
400.84        19.26971
401.29         19.2427
401.74        19.13339
402.18        18.97557
402.63        18.83895
403.08        18.74752
403.53        18.63608
403.97        18.52611
404.42        18.50561
404.87        18.56055
405.32        18.63205
405.76        18.70006
406.21        18.72883
406.66        18.72674
407.11        18.79616
407.55        18.88493
408.00        18.79309
408.45        18.52884
408.90        18.18113
409.34        17.86165
409.79        17.79857
410.24        17.95101
410.68        18.01812
411.13        17.97371
411.58        18.00914
412.03        18.11625
412.47        18.18063
412.92        18.17975
413.37         18.1476
413.81        18.09197
414.26        18.04178
414.71        18.00004
415.15        17.95801
415.60        17.91419
416.05        17.87704
416.49         17.8497
416.94        17.83152
417.39         17.8113
417.83        17.76966
418.28        17.69912
418.73        17.59987
419.17        17.49948
419.62        17.44599
420.07        17.45511
420.51        17.51885
420.96        17.59007
421.41        17.61629
421.85        17.58084
422.30        17.42012
422.74        17.22371
423.19        17.34137
423.64        17.70369
424.08        17.83184
424.53        17.65035
424.98        17.54442
425.42        17.53219
425.87        17.28129
426.31        16.90278
426.76        16.93045
427.21        17.27881
427.65        17.31369
428.10         17.0582
428.54        16.98512
428.99         17.0971
429.44        17.29908
429.88        17.44923
430.33        17.11984
430.77        16.50726
431.22        16.35509
431.66        16.66814
432.11        16.94874
432.56        17.11494
433.00        17.29049
433.45        17.29547
433.89        17.01594
434.34        16.75157
434.78         15.8856
435.23        16.46344
435.67         16.9671
436.12        17.18722
436.57        17.25798
437.01        17.06345
437.46        16.97279
437.90        17.07933
438.35        17.27558
438.79        16.99555
439.24        16.89562
439.68         16.8331
440.13        16.76799
440.57         16.6963
441.02        16.76525
441.46        16.93067
441.91        16.79956
442.35        16.49291
442.80        16.71731
443.24        17.32077
443.69         17.3315
444.13        16.79132
444.58        16.56557
445.02        16.66635
445.47        16.64381
445.91        16.49187
446.36        16.43362
446.80        16.46741
447.24        16.52435
447.69        16.58458
448.13        16.65808
448.58        16.71236
449.02         16.6697
449.47        16.56272
449.91        16.51785
450.36        16.55145
450.80        16.59171
451.25        16.62845
451.69        16.67293
452.13        16.71196
452.58        16.72615
453.02        16.71107
453.47        16.66893
453.91        16.60114
454.36        16.53817
454.80        16.46307
455.24        16.33165
455.69        16.18945
456.13        16.06855
456.58        16.01533
457.02        16.15689
457.46        16.39763
457.91         16.4331
458.35        16.33305
458.79        16.31104
459.24        16.39141
459.68        16.42495
460.13        16.41421
460.57        16.33967
461.01        16.27981
461.46        16.25092
461.90        16.19025
462.34         16.1784
462.79        16.46744
463.23        16.60217
463.68         16.6342
464.12        16.61067
464.56        16.54613
465.01         16.5027
465.45        16.44281
465.89        16.30355
466.34        16.15289
466.78        16.06333
467.22        16.02348
467.67        16.35221
468.11        16.30827
468.55        16.30577
468.99        16.17437
469.44        16.15212
469.88        16.24626
470.32        16.31936
470.77        16.35181
471.21        16.36584
471.65        16.36104
472.10        16.34205
472.54        16.31215
472.98        16.29952
473.42        16.31537
473.87        16.30329
474.31        16.28799
474.75         16.4609
475.20        16.75997
475.64        16.86157
476.08        16.75285
476.52        16.73942
476.97        16.84198
477.41        16.73202
477.85        16.59326
478.29        16.68922
478.74        16.61019
479.18        16.53763
479.62        16.87928
480.06        16.99663
480.50        17.05542
480.95        17.05985
481.39        17.00201
481.83         17.2356
482.27        17.24898
482.72        17.18193
483.16         17.4188
483.60        17.47513
484.04        17.47469
484.48           17.54
484.93        17.83249
485.37        17.73037
485.81        17.94097
486.25        18.60654
486.69        18.17723
487.14        17.53536
487.58        18.51721
488.02        18.30322
488.46        18.64952
488.90        18.87047
489.34        18.02893
489.79        17.74168
490.23         18.3708
490.67        18.74294
491.11        18.95248
491.55        19.01042
491.99        18.97663
492.43         19.0757
492.88        19.31205
493.32        19.46733
493.76        19.52659
494.20         19.6442
494.64        19.84103
495.08        20.00723
495.52        20.13827
495.96        20.41143
496.41        20.79493
496.85        20.74972
497.29        20.42412
497.73        20.60401
498.17        21.20259
498.61        21.50533
499.05        21.42474
499.49        21.36167
499.93        21.38778
500.37        21.43018
500.82        21.49104
501.26        21.62523
501.70        21.84426
502.14        21.68789
502.58        21.93454
503.02        22.01437
503.46         22.0636
503.90        22.11006
504.34        22.13766
504.78        22.19033
505.22        22.26074
505.66        22.30133
506.10        22.32599
506.54        22.41758
506.98        22.58355
507.42        22.68803
507.86        22.88268
508.30        22.98445
508.74         23.0358
509.18        23.04326
509.62        23.02768
510.06        23.02082
510.50        23.03282
510.94        23.05637
511.38        23.08853
511.82         23.1246
512.26        23.16064
512.70        23.20107
513.14        23.24125
513.58         23.2613
514.02        23.25994
514.46         23.2619
514.90        23.27835
515.34        23.24631
515.78         23.3034
516.22        23.33203
516.66        23.38052
517.10         23.4589
517.54        23.56242
517.98        23.68241
518.42        23.77705
518.86        23.78384
519.30        23.69378
519.74        23.52991
520.18        23.34727
520.62        23.23139
521.06        23.20627
521.50        23.25221
521.93        23.33319
522.37        23.37884
522.81        23.37183
523.25        23.32827
523.69        23.27698
524.13         23.2629
524.57        23.29274
525.01         23.3463
525.45        23.38586
525.89        23.35563
526.32        23.24304
526.76        23.07854
527.20        22.90192
527.64         22.7784
528.08        22.72522
528.52        22.72053
528.96        22.73931
529.40        22.74151
529.83        22.71216
530.27        22.66659
530.71         22.6053
531.15        22.52912
531.59        22.44328
532.03        22.34762
532.46        22.25477
532.90        22.19937
533.34        22.18472
533.78        22.20472
534.22        22.24342
534.66        22.27408
535.09        22.28758
535.53        22.29512
535.97        22.30209
536.41        22.32215
536.85        22.35703
537.28        22.39823
537.72        22.44123
538.16        22.47662
538.60        22.50307
539.04        22.53277
539.47        22.55502
539.91        22.56596
540.35         22.5637
540.79        22.55687
541.22        22.56688
541.66        22.62897
542.10        22.74672
542.54        22.90723
542.97        23.07887
543.41        23.22583
543.85        23.33402
544.29        23.41627
544.72        23.48436
545.16        23.57524
545.60         23.6909
546.04        23.81912
546.47        23.95636
546.91        24.09332
547.35        24.22301
547.79         24.3606
548.22        24.49153
548.66        24.58534
549.10        24.65753
549.53        24.80345
549.97        25.01687
550.41        25.20201
550.84        25.35095
551.28        25.52115
551.72        25.70587
552.15         25.8643
552.59        25.99761
553.03        26.10522
553.46        26.19641
553.90        26.30652
554.34        26.43697
554.77        26.59101
555.21        26.73815
555.65         26.8308
556.08         26.8369
556.52        26.83416
556.96        26.85028
557.39        26.96595
557.83        27.16849
558.27        27.32024
558.70        27.39937
559.14        27.47327
559.57         27.5293
560.01        27.55412
560.45        27.55332
560.88        27.51975
561.32        27.51914
561.75        27.61706
562.19        27.79885
562.63        28.01682
563.06        28.19416
563.50        28.15144
563.93        27.95191
564.37        27.92289
564.80         28.0787
565.24        28.26189
565.68        28.42355
566.11        28.54488
566.55        28.61929
566.98        28.67778
567.42        28.74443
567.85        28.77519
568.29        28.83424
568.72         28.9892
569.16        29.21565
569.60        29.48189
570.03        29.79499
570.47        29.81431
570.90        29.89598
571.34        30.48203
571.77        30.46349
572.21        30.48616
572.64        30.83113
573.08        30.73084
573.51        30.94098
573.95        31.00083
574.38        31.02935
574.82        31.24002
