SpectraSmart Spectrum 2.9.0.0
--------- Device Information -----------
Spectrum Name :  反射率_0
Saving Time :  2024/04/27 22:30:36
Spectro-Module Model Name : SE2030-DUVN
Spectro-Module Serial Number : OS361AC55029948
Wavelength Start : 200
Wavelength End : 1025
Wavelength Unit : Wavelength(nm)
Spectrum Unit : Reflectance(%)
-----------Spectrum Setting ------------
Integration Time : 20ms
Average : 10
Boxcar : 0
Background removal :  enabled
linearity correction :  enabled
SC :  disabled
Intensity correction :  disabled
DWT denoise :  enabled
savitzky-golay :  disabled
FFT :  disabled
Running average :  disabled
Kalman :  disabled
High pass :  disabled
---------------BEGIN--------------------
Wavelength(nm)             Reflectance(%)
200.29               0
200.75       -64.83583
201.21       -39.60633
201.67       -12.45913
202.13        6.911722
202.58         21.1011
203.04        33.64214
203.50         43.8191
203.96        48.51649
204.42        48.17971
204.88        45.27465
205.34        41.71043
205.80        39.12541
206.26        37.40964
206.72        34.96321
207.18         33.0837
207.64        36.50842
208.10        44.63853
208.55        53.67713
209.01         57.6912
209.47        55.35746
209.93        45.33525
210.39        16.32608
210.85       -73.12186
211.31       -179.2411
211.77       -47.76415
212.23        37.19973
212.69        66.21834
213.14           73.13
213.60        68.56491
214.06        54.11361
214.52        26.74194
214.98           3.837
215.44        8.086967
215.90        23.62252
216.36         38.0132
216.81        47.60801
217.27        53.74139
217.73         59.3156
218.19        63.39734
218.65        63.35033
219.11        58.79178
219.57        50.01626
220.02        39.85122
220.48        37.06586
220.94        43.69882
221.40        55.29163
221.86        67.54758
222.32        76.52488
222.77        81.77564
223.23        84.93207
223.69        85.84293
224.15        84.05786
224.61        80.00499
225.06        73.68056
225.52        67.55746
225.98        66.19064
226.44        69.66946
226.90        75.13527
227.36        79.86361
227.81        81.76721
228.27          81.209
228.73        78.98009
229.19        75.74458
229.65        72.96418
230.10        71.29824
230.56        70.51979
231.02        70.34814
231.48        70.50482
231.93        70.72355
232.39        71.27026
232.85        71.85683
233.31        72.12266
233.77        72.01624
234.22        71.63325
234.68        71.08961
235.14        70.59995
235.60        70.21835
236.05        69.88335
236.51         69.6267
236.97        69.53499
237.43        69.64937
237.88        70.13567
238.34        70.60247
238.80        71.07245
239.26        71.54024
239.71        72.03712
240.17        72.42537
240.63        72.64058
241.08        72.59087
241.54        72.16399
242.00         71.3069
242.46         69.4383
242.91        65.85347
243.37        58.40211
243.83        43.29855
244.28        23.04547
244.74        18.90658
245.20        34.06169
245.66        48.42302
246.11         51.9785
246.57        46.09342
247.03         31.2064
247.48         7.34212
247.94       -8.002025
248.40        2.355557
248.85        26.82509
249.31        51.50257
249.77        66.11636
250.22        71.38425
250.68        72.25311
251.14        71.08369
251.59        69.45545
252.05        67.81777
252.51        64.88584
252.96        61.24747
253.42        61.40628
253.88        66.03945
254.33         72.3153
254.79        76.51279
255.25        75.98001
255.70        72.04867
256.16         67.3216
256.62        63.70708
257.07        63.28478
257.53        65.66216
257.99        68.71433
258.44         71.1891
258.90        72.55798
259.35        72.55978
259.81        72.17583
260.27        71.28782
260.72        69.77763
261.18        68.25792
261.63        66.55249
262.09        65.26812
262.55        64.63143
263.00        64.47045
263.46        64.73636
263.91        65.01128
264.37        65.13541
264.83         64.9463
265.28         64.5113
265.74        63.94625
266.19        63.11003
266.65         62.1376
267.11        61.00802
267.56         59.8606
268.02        59.04465
268.47        58.56804
268.93        58.35677
269.38        58.23757
269.84        57.96909
270.30        57.45934
270.75        56.76822
271.21        55.93594
271.66        54.96769
272.12        53.93086
272.57        52.79176
273.03         51.6723
273.48        50.66505
273.94        49.86261
274.39        49.18767
274.85        48.64597
275.31        48.11483
275.76        47.52977
276.22        46.96294
276.67        46.34929
277.13        45.74247
277.58        45.08182
278.04        44.42019
278.49        43.70561
278.95        43.02191
279.40        42.31332
279.86        41.64342
280.31        40.96371
280.77        40.35356
281.22        39.77116
281.68        39.27998
282.13        38.80456
282.59        38.32323
283.04         37.7928
283.50        37.23544
283.95        36.70391
284.41        36.34567
284.86        36.14557
285.32          36.087
285.77        35.99538
286.22         35.6721
286.68        35.11642
287.13        34.37106
287.59         33.6491
288.04        33.18403
288.50         33.0559
288.95        33.13686
289.41        33.29686
289.86        33.28102
290.32        33.05695
290.77        32.69516
291.22        32.30054
291.68        32.01701
292.13        31.87602
292.59        31.84983
293.04        31.89869
293.50        31.99836
293.95        32.12307
294.40        32.29527
294.86        32.52477
295.31        32.81025
295.77          33.152
296.22        33.52071
296.68        33.90084
297.13        34.24683
297.58        34.55646
298.04        34.85029
298.49        35.13008
298.95        35.41999
299.40        35.72436
299.85        36.03505
300.31        36.40382
300.76         36.8697
301.21        37.43143
301.67        38.06771
302.12        38.65186
302.58        39.04821
303.03        39.21402
303.48        39.20678
303.94        39.16854
304.39        39.26133
304.84        39.53875
305.30        39.95565
305.75        40.36928
306.20        40.60857
306.66        40.65356
307.11        40.53533
307.57        40.40168
308.02        40.40621
308.47         40.5954
308.93        40.90644
309.38        41.19474
309.83        41.27967
310.29        41.13548
310.74        40.81265
311.19        40.43468
311.65        40.19074
312.10        40.11212
312.55        40.14593
313.00        40.21019
313.46        40.18056
313.91        40.01715
314.36        39.76731
314.82        39.47228
315.27        39.19088
315.72        38.94859
316.18        38.73433
316.63        38.52968
317.08        38.33147
317.53        38.13735
317.99        37.95015
318.44        37.78323
318.89        37.63754
319.35        37.51019
319.80        37.39628
320.25        37.27942
320.70        37.14169
321.16        36.97009
321.61        36.77502
322.06        36.56105
322.51        36.34175
322.97        36.11803
323.42        35.90136
323.87        35.68042
324.32        35.44563
324.78        35.19328
325.23        34.93585
325.68        34.68942
326.13        34.48624
326.59        34.31894
327.04        34.20024
327.49        34.08503
327.94        33.90936
328.39        33.65894
328.85        33.34617
329.30        33.02808
329.75          32.784
330.20        32.64198
330.66        32.56692
331.11        32.54038
331.56        32.47733
332.01        32.35248
332.46        32.18631
332.92        31.99267
333.37        31.83409
333.82        31.71361
334.27        31.60543
334.72        31.50006
335.17        31.38451
335.63        31.24666
336.08        31.12366
336.53        30.98046
336.98        30.76966
337.43        30.49549
337.88        30.17332
338.34        29.89481
338.79        29.81569
339.24        29.95932
339.69         30.2737
340.14         30.6232
340.59        30.78589
341.05        30.70498
341.50        30.45186
341.95         30.1276
342.40        29.90637
342.85        29.83887
343.30        29.86519
343.75        29.93865
344.20        29.98615
344.66        29.98145
345.11        29.95088
345.56        29.88808
346.01        29.77419
346.46        29.61394
346.91        29.40842
347.36        29.20179
347.81        29.06416
348.26         29.0117
348.72        29.03379
349.17        29.07917
349.62        29.06236
350.07        28.96217
350.52         28.7945
350.97        28.63098
351.42        28.58611
351.87        28.67675
352.32        28.86453
352.77        29.03616
353.22        29.02265
353.67        28.79455
354.13        28.41708
354.58         28.0006
355.03        27.77367
355.48         27.7879
355.93        27.97751
356.38        28.19867
356.83        28.22633
357.28        28.01175
357.73        27.63096
358.18        27.21637
358.63        26.97124
359.08        26.93982
359.53        27.04774
359.98        27.18478
360.43        27.18306
360.88        26.99927
361.33         26.6886
361.78        26.32049
362.23        26.03796
362.68        25.88606
363.13        25.75991
363.58        25.60183
364.03        25.66583
364.48        25.38037
364.93         25.2137
365.38        25.03435
365.83        24.90419
366.28        24.82668
366.73        24.78411
367.18         24.7409
367.63        24.62953
368.08        24.43819
368.53        24.19093
368.98        23.92548
369.43         23.7017
369.88        23.53829
370.33        23.41739
370.78        23.32014
371.23         23.2166
371.68        23.09174
372.13        22.95083
372.58        22.79824
373.03        22.63792
373.48        22.47798
373.93        22.33031
374.38        22.18404
374.83        22.02176
375.28        21.84734
375.72        21.65317
376.17        21.51762
376.62        21.52202
377.07        21.66247
377.52        21.88972
377.97        22.09592
378.42        22.11483
378.87        21.91629
379.32        21.56865
379.77        21.15378
380.22        20.79482
380.67        20.53524
381.11        20.34079
381.56        20.21997
382.01        20.18459
382.46        20.22079
382.91        20.32367
383.36         20.4253
383.81        20.41516
384.26        20.27176
384.71        20.02475
385.15        19.73196
385.60        19.52232
386.05        19.42174
386.50        19.40421
386.95         19.4364
387.40        19.46355
387.85        19.46805
388.29        19.45154
388.74        19.45336
389.19         19.4858
389.64        19.54179
390.09        19.59327
390.54        19.61205
390.98        19.55504
391.43        19.42995
391.88        19.26932
392.33        19.07547
392.78        18.88045
393.23        18.70961
393.67        18.47507
394.12        18.25698
394.57        18.38237
395.02        18.52725
395.47        18.63067
395.91        18.58122
396.36        18.56693
396.81        18.58577
397.26        18.51765
397.71        18.38583
398.15        18.29666
398.60        18.28243
399.05        18.23878
399.50        18.19063
399.95        18.29187
400.39        18.48077
400.84         18.4825
401.29        18.29823
401.74         18.1125
402.18        17.98446
402.63        17.94657
403.08        17.97779
403.53         17.9437
403.97         17.8409
404.42        17.77954
404.87        17.76597
405.32        17.77146
405.76        17.79103
406.21          17.785
406.66        17.76275
407.11        17.82547
407.55        17.92439
408.00        17.86954
408.45        17.67342
408.90        17.42331
409.34         17.2176
409.79        17.26902
410.24        17.51477
410.68        17.62644
411.13        17.57175
411.58         17.5467
412.03        17.57402
412.47        17.59758
412.92         17.6121
413.37        17.63751
413.81        17.65277
414.26        17.64146
414.71        17.59822
415.15        17.53084
415.60        17.46291
416.05        17.44347
416.49        17.48539
416.94        17.57027
417.39        17.66335
417.83        17.71252
418.28        17.69854
418.73        17.62766
419.17        17.53537
419.62        17.48343
420.07        17.49281
420.51        17.55359
420.96        17.61271
421.41        17.60881
421.85        17.52901
422.30        17.32009
422.74        17.08886
423.19        17.20553
423.64         17.6053
424.08        17.80348
424.53        17.70733
424.98        17.67519
425.42        17.71509
425.87         17.4961
426.31        17.12921
426.76        17.15545
427.21        17.49436
427.65        17.50912
428.10        17.23513
428.54        17.16801
428.99        17.31359
429.44        17.56597
429.88        17.78435
430.33        17.53443
430.77        17.00125
431.22        16.94362
431.66        17.34326
432.11        17.62966
432.56        17.70554
433.00        17.73179
433.45        17.56436
433.89        17.13589
434.34        16.79821
434.78        15.98087
435.23        16.70542
435.67         17.3365
436.12        17.63396
436.57        17.79009
437.01        17.66325
437.46        17.58179
437.90        17.64151
438.35        17.73953
438.79          17.346
439.24        17.21821
439.68        17.22512
440.13        17.30278
440.57        17.38788
441.02         17.5344
441.46        17.67441
441.91        17.43476
442.35        17.00151
442.80        17.17665
443.24        17.81464
443.69        17.89168
444.13        17.41459
444.58         17.2276
445.02        17.33366
445.47         17.2875
445.91        17.09831
446.36        17.01866
446.80        17.05618
447.24        17.12908
447.69        17.22398
448.13        17.36546
448.58        17.51515
449.02        17.58127
449.47        17.57022
449.91         17.5719
450.36        17.59552
450.80        17.58164
451.25        17.53708
451.69        17.50217
452.13        17.47713
452.58        17.43649
453.02        17.38858
453.47        17.35449
453.91        17.33424
454.36        17.35228
454.80        17.36292
455.24        17.27244
455.69        17.11654
456.13        16.94199
456.58        16.81834
457.02        16.91135
457.46        17.13244
457.91        17.15823
458.35        17.05498
458.79        17.03557
459.24        17.12119
459.68        17.15631
460.13          17.153
460.57        17.10382
461.01        17.08973
461.46        17.12371
461.90         17.1104
462.34        17.08954
462.79        17.32031
463.23        17.33523
463.68        17.23984
464.12        17.16189
464.56        17.13021
465.01        17.18272
465.45        17.22832
465.89        17.12311
466.34        16.92388
466.78        16.73331
467.22        16.57918
467.67        16.85595
468.11        16.81919
468.55        16.87492
468.99        16.81621
469.44        16.84265
469.88        16.94785
470.32        17.00241
470.77        17.00293
471.21        16.99974
471.65         16.9993
472.10        16.99506
472.54         16.9763
472.98        16.95264
473.42        16.93329
473.87        16.87124
474.31        16.80565
474.75        16.95182
475.20        17.25122
475.64        17.36476
476.08        17.27384
476.52        17.28665
476.97        17.41949
477.41        17.33027
477.85         17.2051
478.29        17.31088
478.74        17.22144
479.18        17.12993
479.62        17.45285
480.06         17.5221
480.50        17.51255
480.95        17.43055
481.39        17.29683
481.83        17.51428
482.27        17.56858
482.72        17.58626
483.16         17.9146
483.60        17.99762
484.04        17.95086
484.48        17.88461
484.93        18.01567
485.37        17.88053
485.81        18.19199
486.25        18.85092
486.69        18.39411
487.14        17.77736
487.58        18.88971
488.02         18.6476
488.46        18.81071
488.90         19.1547
489.34        18.55033
489.79        18.39061
490.23        18.97241
490.67        19.34112
491.11        19.58629
491.55         19.5545
491.99        19.34755
492.43        19.35385
492.88        19.59913
493.32        19.80595
493.76         19.9274
494.20        20.07831
494.64        20.26543
495.08        20.39595
495.52        20.47867
495.96        20.71148
496.41        21.06923
496.85        21.00058
497.29        20.66073
497.73        20.85078
498.17        21.48192
498.61        21.83173
499.05        21.79186
499.49         21.7371
499.93        21.73582
500.37        21.72419
500.82        21.72635
501.26        21.83469
501.70        22.07057
502.14        21.95683
502.58        22.26631
503.02        22.39873
503.46        22.48441
503.90        22.56002
504.34        22.61021
504.78        22.68162
505.22        22.76761
505.66        22.81367
506.10        22.84212
506.54        22.95286
506.98        23.15479
507.42        23.30618
507.86        23.54222
508.30        23.64071
508.74        23.64121
509.18        23.56337
509.62         23.4607
510.06        23.41706
510.50        23.45569
510.94        23.55426
511.38        23.68121
511.82        23.78517
512.26        23.84828
512.70        23.88692
513.14        23.91393
513.58        23.93873
514.02        23.96578
514.46        24.00593
514.90        24.05547
515.34        24.02683
515.78        24.05756
516.22        24.03956
516.66        24.03066
517.10        24.05131
517.54        24.10508
517.98        24.18305
518.42        24.25573
518.86        24.27936
519.30         24.2455
519.74        24.16925
520.18        24.08446
520.62        24.04362
521.06        24.06019
521.50        24.11926
521.93        24.19466
522.37        24.23501
522.81        24.22799
523.25        24.18245
523.69        24.12059
524.13        24.07788
524.57        24.06023
525.01        24.05517
525.45         24.0327
525.89        23.94623
526.32        23.78888
526.76        23.59246
527.20        23.39673
527.64          23.266
528.08        23.21648
528.52        23.22418
528.96        23.26705
529.40        23.30963
529.83        23.33375
530.27         23.3499
530.71        23.34168
531.15        23.28553
531.59        23.18215
532.03        23.03767
532.46        22.88478
532.90        22.79159
533.34        22.76966
533.78        22.80391
534.22        22.86025
534.66          22.883
535.09        22.85766
535.53        22.80729
535.97        22.75328
536.41        22.73387
536.85        22.75728
537.28        22.80601
537.72        22.86578
538.16        22.91197
538.60        22.93784
539.04         22.9607
539.47        22.97201
539.91        22.97091
540.35        22.95723
540.79        22.93837
541.22         22.9375
541.66        22.99356
542.10        23.11095
542.54        23.27604
542.97        23.45556
543.41        23.61113
543.85        23.72656
544.29         23.8136
544.72         23.8839
545.16        23.97419
545.60         24.0874
546.04        24.21459
546.47        24.34944
546.91        24.47813
547.35        24.59545
547.79        24.71847
548.22        24.84686
548.66        24.97184
549.10        25.10953
549.53          25.347
549.97        25.65519
550.41        25.89812
550.84        26.05831
551.28        26.20805
551.72        26.35847
552.15        26.49662
552.59        26.63555
553.03        26.76824
553.46        26.90103
553.90        27.06661
554.34        27.26043
554.77        27.48066
555.21        27.69328
555.65        27.84318
556.08        27.89204
556.52        27.92323
556.96        27.94745
557.39        28.02238
557.83        28.13741
558.27        28.16175
558.70        28.12173
559.14        28.16304
559.57        28.28619
560.01         28.4517
560.45        28.61013
560.88        28.66953
561.32        28.67823
561.75        28.72638
562.19        28.83662
562.63        29.02814
563.06        29.23357
563.50          29.226
563.93        29.05514
564.37        29.05817
564.80        29.24393
565.24        29.44472
565.68        29.62225
566.11        29.78062
566.55        29.91392
566.98        30.04119
567.42        30.16733
567.85        30.21661
568.29        30.24643
568.72        30.34416
569.16        30.52036
569.60        30.71456
570.03        30.93448
570.47        30.97894
570.90        31.22763
571.34        31.45586
571.77        31.67284
572.21        31.57889
572.64        31.86144
573.08        31.84519
573.51        32.09999
573.95        32.35983
574.38        32.63443
574.82        32.45347
