SpectraSmart Spectrum 2.9.0.0
--------- Device Information -----------
Spectrum Name :  反射率_0
Saving Time :  2024/04/27 22:38:12
Spectro-Module Model Name : SE2030-DUVN
Spectro-Module Serial Number : OS361AC55029948
Wavelength Start : 200
Wavelength End : 1025
Wavelength Unit : Wavelength(nm)
Spectrum Unit : Reflectance(%)
-----------Spectrum Setting ------------
Integration Time : 20ms
Average : 10
Boxcar : 0
Background removal :  enabled
linearity correction :  enabled
SC :  disabled
Intensity correction :  disabled
DWT denoise :  enabled
savitzky-golay :  disabled
FFT :  disabled
Running average :  disabled
Kalman :  disabled
High pass :  disabled
---------------BEGIN--------------------
Wavelength(nm)             Reflectance(%)
200.29               0
200.75        12.07344
201.21        44.10764
201.67         66.4016
202.13        74.32613
202.58        73.47131
203.04        68.00835
203.50        62.46137
203.96        63.02564
204.42        69.25685
204.88        77.49492
205.34         84.5744
205.80        88.00266
206.26        87.50619
206.72        83.05545
207.18        73.35751
207.64           62.26
208.10        57.45642
208.55        59.03457
209.01        60.32364
209.47        57.44731
209.93        48.25224
210.39        24.00157
210.85       -45.99642
211.31       -112.3043
211.77        3.471173
212.23        68.11415
212.69        88.99907
213.14        95.07546
213.60        94.36051
214.06        88.33373
214.52        75.11115
214.98        61.73287
215.44        60.09236
215.90        64.65755
216.36        69.89239
216.81        73.46529
217.27        75.66164
217.73        77.92027
218.19        79.35832
218.65        77.95764
219.11        73.32885
219.57        65.46717
220.02        56.58048
220.48        53.74559
220.94        58.54256
221.40        67.57948
221.86        76.67354
222.32        81.84054
222.77        83.04501
223.23        82.16805
223.69        80.12817
224.15        77.62763
224.61        74.96241
225.06        71.68894
225.52         68.9448
225.98         68.6106
226.44        70.49355
226.90        73.18379
227.36         75.4415
227.81        76.28062
228.27        75.89085
228.73        74.61401
229.19        72.46169
229.65        69.66513
230.10        66.60567
230.56        63.67841
231.02        61.44398
231.48        60.69349
231.93        61.28881
232.39        62.94968
232.85        64.99818
233.31        66.54591
233.77        67.35003
234.22        67.71466
234.68        67.61763
235.14        67.06896
235.60         66.1433
236.05        64.72287
236.51        63.26852
236.97        62.92025
237.43        64.04723
237.88        66.45857
238.34        68.93782
238.80        70.44202
239.26        70.67789
239.71        69.64532
240.17        66.80972
240.63        63.37421
241.08        61.84485
241.54        61.97342
242.00        62.57296
242.46        62.40264
242.91        61.08748
243.37        57.93187
243.83        51.54021
244.28        43.73844
244.74        43.93786
245.20        51.79204
245.66        57.68042
246.11        57.33719
246.57        51.05819
247.03        38.11474
247.48        18.09645
247.94        4.425568
248.40        11.11537
248.85         29.8063
249.31        49.78476
249.77        62.80073
250.22        68.80918
250.68        71.18577
251.14        71.35522
251.59        70.24266
252.05        68.13961
252.51        63.76976
252.96        57.36745
253.42        53.86737
253.88        55.64627
254.33         60.7403
254.79        64.81596
255.25        64.54395
255.70        61.06079
256.16        56.77796
256.62        54.02198
257.07        55.19796
257.53        59.43289
257.99        64.28133
258.44        67.84692
258.90        69.01904
259.35         67.8969
259.81        65.93007
260.27        63.70826
260.72        61.92171
261.18        61.03587
261.63        60.42576
262.09        60.17076
262.55        59.97902
263.00        59.69076
263.46        59.52801
263.91        59.31808
264.37        59.18153
264.83        59.03147
265.28        58.81562
265.74        58.58762
266.19        58.18058
266.65        57.68585
267.11        57.08623
267.56        56.46714
268.02        56.07659
268.47        55.88922
268.93        55.84187
269.38         55.7756
269.84        55.48195
270.30        54.89854
270.75        54.09793
271.21        53.15602
271.66          52.131
272.12        51.10734
272.57        50.04611
273.03        49.06585
273.48        48.24745
273.94        47.65809
274.39        47.20692
274.85        46.85359
275.31        46.42046
275.76        45.83895
276.22        45.20152
276.67         44.4827
277.13         43.7882
277.58        43.08052
278.04        42.40536
278.49        41.71091
278.95        41.07056
279.40        40.43036
279.86        39.85733
280.31         39.3048
280.77        38.84897
281.22        38.43677
281.68        38.10884
282.13        37.78577
282.59        37.44065
283.04        37.03078
283.50        36.58921
283.95        36.13916
284.41        35.78211
284.86        35.50878
285.32        35.31923
285.77        35.12286
286.22        34.84193
286.68        34.48086
287.13        34.03304
287.59        33.60104
288.04        33.24891
288.50        33.03001
288.95        32.88645
289.41        32.78088
289.86        32.59871
290.32        32.34567
290.77        32.04302
291.22        31.76798
291.68        31.62393
292.13        31.61981
292.59        31.74238
293.04        31.92131
293.50           32.08
293.95        32.18822
294.40        32.28111
294.86        32.42005
295.31        32.68986
295.77         33.1115
296.22        33.63288
296.68         34.1939
297.13        34.67479
297.58        35.05007
298.04        35.35841
298.49        35.63366
298.95        35.94942
299.40        36.32035
299.85        36.72229
300.31        37.17009
300.76        37.64767
301.21        38.14551
301.67        38.66435
302.12        39.13017
302.58        39.48247
303.03         39.6925
303.48        39.79725
303.94        39.88054
304.39        40.01731
304.84        40.24461
305.30        40.53958
305.75        40.82574
306.20        41.03376
306.66        41.15596
307.11        41.18587
307.57         41.1852
308.02          41.175
308.47        41.18498
308.93        41.21081
309.38        41.20293
309.83        41.11975
310.29        40.96958
310.74        40.75904
311.19        40.55472
311.65        40.45481
312.10        40.45606
312.55        40.52649
313.00        40.60569
313.46        40.60201
313.91        40.48489
314.36        40.29024
314.82        40.03358
315.27        39.73876
315.72        39.42976
316.18        39.11119
316.63        38.81776
317.08        38.62634
317.53        38.54726
317.99         38.5579
318.44        38.60308
318.89        38.57117
319.35        38.43368
319.80        38.22198
320.25        37.98256
320.70        37.80098
321.16        37.69188
321.61        37.62958
322.06        37.58101
322.51        37.49893
322.97        37.36222
323.42        37.20555
323.87        37.02089
324.32        36.80186
324.78        36.55231
325.23        36.28092
325.68        36.02719
326.13        35.86596
326.59        35.79755
327.04        35.82549
327.49        35.87182
327.94        35.81627
328.39         35.6274
328.85        35.32803
329.30        35.00037
329.75        34.76706
330.20        34.66899
330.66        34.65677
331.11        34.69281
331.56        34.65907
332.01        34.52546
332.46        34.33184
332.92        34.11277
333.37        33.96466
333.82        33.90389
334.27        33.89577
334.72        33.92661
335.17        33.97874
335.63        34.02551
336.08        34.09024
336.53        34.12079
336.98        34.04423
337.43        33.85486
337.88        33.58009
338.34        33.29081
338.79        33.11517
339.24        33.08678
339.69        33.16969
340.14        33.31758
340.59        33.44956
341.05        33.53233
341.50        33.59315
341.95        33.61625
342.40        33.58711
342.85        33.50957
343.30        33.37852
343.75        33.23896
344.20        33.16895
344.66        33.18978
345.11        33.28539
345.56        33.39661
346.01        33.42078
346.46        33.33861
346.91        33.18073
347.36        33.02856
347.81        33.00611
348.26        33.13487
348.72        33.37244
349.17        33.62313
349.62        33.73706
350.07        33.67801
350.52        33.48919
350.97        33.26585
351.42        33.16178
351.87        33.20921
352.32        33.35225
352.77        33.49734
353.22        33.50446
353.67        33.34333
354.13        33.08031
354.58        32.76198
355.03        32.51198
355.48        32.36938
355.93        32.30146
356.38        32.27018
356.83        32.21702
357.28        32.12174
357.73        32.00306
358.18        31.87874
358.63        31.77294
359.08         31.6885
359.53         31.6105
359.98        31.51727
360.43        31.38007
360.88        31.19604
361.33        30.97652
361.78        30.73803
362.23        30.54001
362.68        30.39909
363.13        30.23771
363.58        30.03195
364.03        30.06508
364.48        29.80779
364.93        29.68332
365.38        29.52775
365.83        29.33938
366.28        29.11679
366.73        28.87274
367.18        28.63216
367.63        28.42206
368.08        28.25299
368.53        28.11711
368.98        28.00691
369.43        27.90718
369.88        27.81052
370.33        27.72121
370.78        27.62714
371.23        27.51112
371.68        27.36654
372.13        27.18715
372.58          26.997
373.03        26.83773
373.48         26.7197
373.93        26.64285
374.38         26.5583
374.83        26.38565
375.28        26.11755
375.72        25.77083
376.17        25.45861
376.62        25.31496
377.07        25.35562
377.52         25.5181
377.97        25.69086
378.42        25.70075
378.87        25.50998
379.32        25.18779
379.77        24.80248
380.22        24.45495
380.67        24.18341
381.11        23.95765
381.56        23.79482
382.01        23.72429
382.46        23.74018
382.91        23.83564
383.36        23.94174
383.81        23.94585
384.26        23.82394
384.71        23.60286
385.15        23.33986
385.60        23.16543
386.05        23.09878
386.50        23.10679
386.95        23.14206
387.40        23.12951
387.85        23.05463
388.29        22.93637
388.74        22.83284
389.19        22.77081
389.64        22.75267
390.09        22.74761
390.54        22.74633
390.98         22.7345
391.43        22.71459
391.88         22.6938
392.33        22.63215
392.78        22.50874
393.23        22.33947
393.67        22.04157
394.12        21.71658
394.57        21.76175
395.02        21.80564
395.47        21.78326
395.91        21.60534
396.36        21.55761
396.81        21.64662
397.26        21.70353
397.71        21.71445
398.15        21.74259
398.60        21.80402
399.05        21.79067
399.50        21.72359
399.95        21.77359
400.39        21.87403
400.84        21.70752
401.29        21.32471
401.74        21.02489
402.18         20.8997
402.63        20.96542
403.08        21.16332
403.53         21.2715
403.97         21.2565
404.42        21.25994
404.87        21.28581
405.32         21.2977
405.76         21.2932
406.21        21.22271
406.66        21.11448
407.11        21.11794
407.55        21.18455
408.00        21.09047
408.45        20.84326
408.90        20.52792
409.34        20.25757
409.79        20.28839
410.24        20.55937
410.68        20.70409
411.13        20.68639
411.58        20.72888
412.03        20.83499
412.47        20.89852
412.92        20.90307
413.37        20.88216
413.81         20.8402
414.26        20.80252
414.71        20.77086
415.15         20.7409
415.60        20.71094
416.05        20.68985
416.49        20.68079
416.94        20.68113
417.39        20.67882
417.83        20.65516
418.28        20.60049
418.73        20.51031
419.17          20.413
419.62        20.35832
420.07        20.36405
420.51        20.42722
420.96        20.49125
421.41        20.49118
421.85        20.41307
422.30        20.18833
422.74         19.9399
423.19        20.09955
423.64        20.59211
424.08        20.85181
424.53        20.76456
424.98        20.73981
425.42        20.78482
425.87        20.50949
426.31        20.05845
426.76        20.08451
427.21        20.49809
427.65        20.54973
428.10        20.25659
428.54        20.16246
428.99        20.27365
429.44        20.48358
429.88        20.66396
430.33        20.36368
430.77        19.80597
431.22        19.85223
431.66        20.46284
432.11         20.9376
432.56        21.14203
433.00        21.26015
433.45        21.11983
433.89        20.66372
434.34        20.30352
434.78        19.30749
435.23        20.11874
435.67        20.79565
436.12        21.06164
436.57         21.1317
437.01        20.88002
437.46        20.76992
437.90        20.92141
438.35        21.19303
438.79        20.89032
439.24        20.82086
439.68        20.80648
440.13        20.79472
440.57        20.76221
441.02         20.8618
441.46        21.03584
441.91        20.81325
442.35        20.36892
442.80        20.60614
443.24        21.34068
443.69        21.36366
444.13        20.72558
444.58        20.48925
445.02        20.66755
445.47        20.70793
445.91          20.578
446.36        20.51446
446.80        20.51363
447.24         20.5003
447.69        20.49846
448.13         20.5937
448.58        20.75858
449.02        20.86974
449.47        20.91149
449.91        20.95341
450.36        20.99586
450.80        20.97554
451.25        20.92224
451.69        20.91648
452.13         20.9609
452.58        21.00986
453.02        21.03601
453.47        21.00785
453.91        20.91839
454.36        20.82152
454.80        20.70666
455.24        20.53202
455.69        20.35833
456.13        20.21637
456.58        20.16394
457.02        20.36298
457.46        20.69121
457.91         20.7669
458.35        20.66172
458.79        20.62458
459.24        20.68417
459.68        20.65705
460.13        20.57444
460.57        20.45638
461.01        20.40828
461.46        20.44136
461.90        20.43779
462.34        20.43578
462.79        20.74191
463.23        20.79934
463.68        20.72887
464.12        20.67255
464.56        20.66307
465.01        20.74496
465.45        20.81586
465.89        20.71437
466.34        20.50924
466.78         20.3185
467.22        20.16824
467.67        20.52557
468.11        20.48066
468.55        20.53604
468.99        20.44005
469.44        20.43482
469.88        20.51716
470.32        20.53138
470.77        20.49417
471.21        20.49958
471.65        20.55785
472.10        20.64761
472.54        20.72301
472.98        20.74595
473.42        20.71635
473.87        20.59223
474.31        20.44359
474.75        20.56579
475.20         20.8986
475.64        21.02142
476.08        20.90866
476.52        20.92736
476.97        21.09466
477.41        21.00252
477.85        20.87125
478.29        21.01421
478.74         20.9115
479.18        20.79595
479.62        21.18388
480.06         21.2832
480.50        21.30723
480.95        21.25616
481.39        21.13448
481.83         21.4021
482.27        21.42539
482.72        21.37166
483.16         21.6885
483.60         21.7445
484.04        21.69769
484.48        21.65479
484.93        21.83456
485.37        21.73416
485.81         22.2262
486.25        22.91431
486.69        22.29412
487.14        21.86407
487.58        22.79217
488.02        22.91923
488.46        22.71417
488.90        22.96716
489.34        22.57624
489.79        22.26857
490.23        22.66985
490.67        22.97546
491.11        23.33232
491.55        23.34109
491.99        23.09164
492.43        23.09927
492.88        23.38667
493.32        23.61526
493.76        23.74104
494.20        23.91917
494.64        24.15852
495.08        24.33641
495.52        24.46118
495.96        24.76263
496.41        25.19177
496.85        25.13537
497.29        24.74869
497.73        24.87975
498.17        25.45088
498.61        25.78101
499.05        25.76464
499.49        25.72118
499.93        25.73074
500.37        25.79848
500.82        25.92488
501.26        26.12925
501.70        26.42061
502.14        26.25372
502.58         26.5688
503.02        26.67488
503.46        26.73839
503.90        26.79102
504.34        26.81971
504.78        26.89072
505.22         26.9958
505.66         27.0706
506.10        27.12217
506.54         27.2355
506.98        27.41548
507.42         27.5041
507.86        27.68819
508.30        27.74989
508.74        27.74763
509.18         27.6934
509.62        27.62552
510.06        27.60243
510.50        27.63992
510.94        27.72154
511.38        27.83252
511.82        27.94814
512.26          28.054
512.70        28.15627
513.14        28.24183
513.58        28.27787
514.02         28.2611
514.46         28.2208
514.90        28.18439
515.34        28.09909
515.78        28.13977
516.22        28.16578
516.66        28.21954
517.10        28.28536
517.54        28.35411
517.98        28.42309
518.42        28.47569
518.86        28.48959
519.30        28.46101
519.74        28.39926
520.18         28.3182
520.62        28.23986
521.06        28.17707
521.50        28.13067
521.93        28.11133
522.37        28.12479
522.81        28.17069
523.25        28.23682
523.69        28.31034
524.13        28.37163
524.57        28.40853
525.01         28.4222
525.45        28.39423
525.89        28.29836
526.32         28.1352
526.76        27.92888
527.20        27.72008
527.64        27.57713
528.08         27.5171
528.52        27.51896
528.96        27.55754
529.40        27.58934
529.83        27.59531
530.27        27.59072
530.71        27.56376
531.15        27.49878
531.59        27.39846
532.03         27.2655
532.46        27.12993
532.90        27.05712
533.34        27.05482
533.78        27.10573
534.22        27.17243
534.66        27.19507
535.09        27.15771
535.53        27.08721
535.97        27.00548
536.41        26.95186
536.85         26.9401
537.28        26.95961
537.72        27.00355
538.16        27.05729
538.60        27.11573
539.04        27.18866
539.47        27.26782
539.91        27.35624
540.35        27.44566
540.79        27.53786
541.22        27.62693
541.66        27.70752
542.10         27.7783
542.54        27.84339
542.97        27.90708
543.41        27.99162
543.85        28.09808
544.29        28.22561
544.72        28.36352
545.16        28.51373
545.60        28.66512
546.04        28.81346
546.47        28.96556
546.91        29.12881
547.35        29.29764
547.79        29.48126
548.22        29.64805
548.66        29.74084
549.10        29.77699
549.53        29.88027
549.97        30.06362
550.41        30.24286
550.84        30.41751
551.28        30.64951
551.72        30.91211
552.15        31.12529
552.59        31.28293
553.03        31.39374
553.46        31.48612
553.90        31.62998
554.34        31.82979
554.77        32.07505
555.21        32.31137
555.65        32.45326
556.08        32.45521
556.52        32.42477
556.96          32.402
557.39        32.49297
557.83          32.689
558.27        32.82231
558.70         32.8841
559.14        32.98207
559.57        33.10197
560.01         33.2183
560.45        33.30649
560.88         33.3051
561.32          33.283
561.75        33.34593
562.19        33.50484
562.63        33.71661
563.06         33.9154
563.50        33.93995
563.93        33.82409
564.37        33.84007
564.80         33.9926
565.24        34.14636
565.68        34.28522
566.11        34.43504
566.55        34.59818
566.98        34.79044
567.42        34.99155
567.85        35.07405
568.29        35.09829
568.72        35.17033
569.16        35.30664
569.60        35.53117
570.03        35.86912
570.47        35.90671
570.90        36.04179
571.34        36.69666
571.77        36.63901
572.21         36.5561
572.64        36.86767
573.08        36.70353
573.51        37.12589
573.95          37.193
574.38        37.10704
574.82        37.35452
