SpectraSmart Spectrum 2.9.0.0
--------- Device Information -----------
Spectrum Name :  反射率_0
Saving Time :  2024/04/27 22:41:00
Spectro-Module Model Name : SE2030-DUVN
Spectro-Module Serial Number : OS361AC55029948
Wavelength Start : 200
Wavelength End : 1025
Wavelength Unit : Wavelength(nm)
Spectrum Unit : Reflectance(%)
-----------Spectrum Setting ------------
Integration Time : 20ms
Average : 10
Boxcar : 0
Background removal :  enabled
linearity correction :  enabled
SC :  disabled
Intensity correction :  disabled
DWT denoise :  enabled
savitzky-golay :  disabled
FFT :  disabled
Running average :  disabled
Kalman :  disabled
High pass :  disabled
---------------BEGIN--------------------
Wavelength(nm)             Reflectance(%)
200.29               0
200.75        9.222813
201.21        44.55581
201.67        73.45282
202.13        84.80142
202.58        84.38272
203.04        79.10635
203.50        72.82651
203.96        70.44915
204.42         72.4155
204.88        75.89997
205.34        79.04042
205.80        80.53165
206.26        80.02122
206.72         77.3438
207.18        71.84521
207.64        65.66412
208.10        63.04203
208.55        64.34917
209.01        64.67157
209.47        61.09585
209.93        51.34313
210.39        25.82081
210.85       -49.56208
211.31       -131.2496
211.77       -14.72081
212.23        56.01799
212.69        79.81303
213.14        86.46863
213.60        84.93212
214.06        77.02958
214.52        61.00887
214.98         47.0406
215.44        48.84866
215.90        57.43324
216.36        65.73485
216.81        71.60361
217.27         75.7897
217.73        79.94032
218.19        83.20312
218.65         83.4734
219.11        80.27451
219.57        73.70474
220.02        65.68982
220.48        62.55127
220.94        66.00841
221.40        73.36848
221.86         81.0669
222.32        85.73079
222.77        87.08682
223.23        86.36079
223.69        84.63203
224.15        82.83021
224.61        81.13283
225.06        79.26377
225.52        76.91654
225.98        73.71098
226.44        70.45193
226.90        67.67128
227.36        66.11692
227.81        66.24523
228.27        67.79199
228.73         70.4258
229.19        72.95715
229.65        72.98862
230.10        69.88613
230.56        64.94465
231.02        59.86966
231.48        57.05882
231.93        56.81001
232.39        58.26382
232.85        60.59774
233.31        62.76894
233.77        64.37302
234.22        65.79182
234.68        66.70996
235.14        66.70277
235.60         65.7702
236.05        63.80106
236.51        61.52411
236.97         60.7691
237.43        62.21926
237.88        65.59785
238.34        69.16464
238.80        71.17994
239.26        71.17303
239.71        68.97557
240.17        64.61771
240.63        62.26546
241.08        65.53551
241.54        71.38478
242.00        75.91939
242.46        77.45963
242.91        76.38441
243.37         71.8505
243.83        62.38092
244.28        54.16653
244.74        62.64925
245.20        81.49064
245.66        93.94774
246.11        96.38856
246.57        91.10737
247.03        77.12914
247.48        52.95011
247.94        30.80704
248.40        28.08878
248.85        39.65224
249.31        55.99978
249.77         68.4226
250.22        75.44865
250.68        79.74299
251.14         81.9947
251.59        82.63863
252.05        82.06944
252.51        79.37836
252.96        73.92381
253.42        68.17131
253.88        64.75653
254.33         64.1499
254.79        64.68549
255.25        63.98074
255.70        62.11021
256.16         60.3623
256.62        59.76418
257.07        61.38853
257.53        64.67458
257.99        68.00536
258.44        70.11234
258.90        70.40054
259.35        68.89564
259.81        66.78384
260.27        64.45656
260.72        62.41524
261.18        61.13421
261.63        60.09407
262.09        59.46436
262.55        59.03342
263.00        58.63584
263.46        58.44367
263.91        58.21758
264.37        57.99416
264.83        57.68066
265.28         57.2527
265.74          56.827
266.19        56.32428
266.65        55.83089
267.11         55.2976
267.56        54.72765
268.02        54.23814
268.47        53.79844
268.93        53.41298
269.38        53.02189
269.84        52.56916
270.30        52.02259
270.75        51.37797
271.21        50.67168
271.66        49.90578
272.12        49.11927
272.57        48.29042
273.03        47.43692
273.48        46.48638
273.94        45.52127
274.39         44.5382
274.85        43.68613
275.31        43.06575
275.76        42.63967
276.22        42.37185
276.67        42.10437
277.13        41.74255
277.58        41.19505
278.04        40.57603
278.49        39.82993
278.95         39.0206
279.40        38.12392
279.86        37.20673
280.31        36.34345
280.77        35.78227
281.22        35.49367
281.68        35.46696
282.13        35.47055
282.59        35.25125
283.04        34.74001
283.50        34.03345
283.95        33.32297
284.41        32.96224
284.86        32.97496
285.32        33.25539
285.77        33.52035
286.22         33.4148
286.68        32.90602
287.13        32.09969
287.59        31.27046
288.04        30.74396
288.50        30.62655
288.95         30.7618
289.41        30.99818
289.86        31.05402
290.32        30.88898
290.77        30.59421
291.22         30.2759
291.68        30.07758
292.13        30.02922
292.59        30.08728
293.04        30.22478
293.50        30.43927
293.95        30.70216
294.40        31.03081
294.86        31.38477
295.31        31.68389
295.77        31.92427
296.22         32.1094
296.68        32.30729
297.13        32.60724
297.58         33.0307
298.04        33.54285
298.49        34.07102
298.95        34.52559
299.40        34.87938
299.85         35.1636
300.31         35.4443
300.76        35.78452
301.21        36.20626
301.67        36.68468
302.12        37.13782
302.58        37.49495
303.03        37.72023
303.48        37.85018
303.94         37.9675
304.39        38.14437
304.84        38.40936
305.30        38.73466
305.75        39.02261
306.20        39.17067
306.66        39.17496
307.11         39.0522
307.57         38.9006
308.02        38.80105
308.47        38.79521
308.93        38.85172
309.38        38.91012
309.83        38.90813
310.29        38.83883
310.74        38.71654
311.19         38.5685
311.65        38.42995
312.10        38.29766
312.55        38.16486
313.00        38.04609
313.46        37.96824
313.91        37.92272
314.36        37.90268
314.82        37.86067
315.27        37.71493
315.72        37.45593
316.18        37.12315
316.63        36.76576
317.08        36.48475
317.53        36.30733
317.99        36.19875
318.44        36.13984
318.89        36.08151
319.35        36.00232
319.80         35.9187
320.25        35.81528
320.70        35.67178
321.16        35.48103
321.61        35.25156
322.06        35.01146
322.51        34.81453
322.97        34.67204
323.42        34.58937
323.87        34.52537
324.32        34.41824
324.78        34.24739
325.23        34.03027
325.68        33.81588
326.13        33.69316
326.59        33.66505
327.04        33.72676
327.49        33.77676
327.94        33.66073
328.39        33.34581
328.85        32.87072
329.30        32.36988
329.75        32.05716
330.20        31.99873
330.66        32.12398
331.11        32.33161
331.56        32.39911
332.01        32.26305
332.46        31.98363
332.92        31.64511
333.37        31.43032
333.82        31.38359
334.27        31.44666
334.72        31.55238
335.17        31.59574
335.63         31.5349
336.08         31.4281
336.53        31.29502
336.98        31.17642
337.43        31.09447
337.88        31.03591
338.34        31.00683
338.79        31.02844
339.24        31.09645
339.69        31.20085
340.14        31.31883
340.59        31.41076
341.05        31.46248
341.50        31.48951
341.95        31.47753
342.40        31.41779
342.85        31.31511
343.30        31.16618
343.75         31.0206
344.20        30.95881
344.66        30.99709
345.11        31.11493
345.56        31.23078
346.01         31.2075
346.46         31.0248
346.91        30.73217
347.36        30.44183
347.81        30.32408
348.26        30.41502
348.72        30.65939
349.17        30.95433
349.62        31.13706
350.07        31.15808
350.52        31.05573
350.97        30.90998
351.42         30.8498
351.87        30.90347
352.32        31.02706
352.77        31.12883
353.22        31.07491
353.67        30.84424
354.13        30.50098
354.58        30.13171
355.03          29.921
355.48        29.91277
355.93        30.05592
356.38        30.23665
356.83        30.27717
357.28        30.13577
357.73        29.86711
358.18        29.57295
358.63        29.41108
359.08        29.41234
359.53        29.51602
359.98        29.62549
360.43        29.59502
360.88        29.38965
361.33        29.05729
361.78        28.66723
362.23        28.36225
362.68        28.18653
363.13        28.03991
363.58        27.86164
364.03        27.88867
364.48        27.56449
364.93        27.34566
365.38        27.11143
365.83        26.93131
366.28        26.81418
366.73        26.74645
367.18        26.68662
367.63        26.55814
368.08        26.34753
368.53        26.07629
368.98        25.80567
369.43        25.63239
369.88        25.57789
370.33        25.61505
370.78        25.66879
371.23        25.61879
371.68        25.43341
372.13        25.14156
372.58        24.82763
373.03         24.6293
373.48        24.58043
373.93        24.64498
374.38        24.72155
374.83         24.6504
375.28        24.40166
375.72        24.01822
376.17        23.64416
376.62        23.46132
377.07        23.50094
377.52        23.68604
377.97        23.88999
378.42        23.91763
378.87        23.72655
379.32        23.39644
379.77        23.00909
380.22        22.68405
380.67        22.46075
381.11         22.2975
381.56        22.19624
382.01        22.16223
382.46        22.18305
382.91        22.26218
383.36        22.33536
383.81        22.29817
384.26        22.13194
384.71        21.85967
385.15        21.55675
385.60        21.37951
386.05        21.35152
386.50        21.43805
386.95         21.5551
387.40        21.56913
387.85        21.45784
388.29        21.25712
388.74          21.078
389.19        21.02851
389.64        21.11728
390.09        21.28138
390.54        21.44262
390.98        21.47635
391.43        21.36439
391.88        21.16187
392.33        20.89335
392.78        20.62569
393.23        20.39618
393.67        20.10073
394.12        19.81301
394.57        19.86871
395.02        19.91497
395.47        19.89801
395.91        19.73115
396.36        19.66313
396.81        19.70128
397.26         19.7017
397.71        19.65234
398.15        19.61261
398.60         19.6044
399.05        19.53047
399.50        19.43966
399.95        19.52942
400.39         19.7405
400.84          19.767
401.29        19.59402
401.74        19.39367
402.18        19.22351
402.63        19.13012
403.08        19.10417
403.53         19.0223
403.97        18.88913
404.42        18.81628
404.87        18.80806
405.32         18.8301
405.76        18.87368
406.21        18.89693
406.66        18.90361
407.11        18.99272
407.55        19.10847
408.00        19.04529
408.45        18.82044
408.90        18.53635
409.34        18.30061
409.79        18.33952
410.24        18.57581
410.68        18.64329
411.13        18.50853
411.58        18.38708
412.03        18.32664
412.47        18.31067
412.92        18.34283
413.37        18.42689
413.81        18.51248
414.26        18.54041
414.71        18.49391
415.15        18.39405
415.60        18.27371
416.05        18.20125
416.49        18.19918
416.94        18.24167
417.39        18.30178
417.83        18.33995
418.28        18.33648
418.73        18.29626
419.17        18.23493
419.62        18.17991
420.07        18.14692
420.51        18.13748
420.96        18.12285
421.41        18.08092
421.85        18.00592
422.30        17.82705
422.74        17.63317
423.19        17.77635
423.64        18.18242
424.08        18.36121
424.53         18.2254
424.98        18.15703
425.42        18.16943
425.87        17.91661
426.31        17.51908
426.76        17.54053
427.21        17.89765
427.65        17.93616
428.10        17.67375
428.54        17.58943
428.99        17.68681
429.44        17.87029
429.88        18.01565
430.33        17.71356
430.77        17.16233
431.22        17.11927
431.66        17.56142
432.11        17.90694
432.56        18.05026
433.00        18.15011
433.45        18.05366
433.89        17.67828
434.34        17.37569
434.78        16.55677
435.23        17.30119
435.67        17.89257
436.12        18.08589
436.57        18.09326
437.01        17.82102
437.46        17.67503
437.90        17.76617
438.35        17.97573
438.79        17.71374
439.24        17.66304
439.68        17.66821
440.13        17.68158
440.57        17.68662
441.02        17.81201
441.46        18.00265
441.91        17.86671
442.35        17.52825
442.80        17.69606
443.24        18.22738
443.69        18.18591
444.13        17.63124
444.58        17.41197
445.02         17.5422
445.47         17.5923
445.91        17.53021
446.36        17.52757
446.80        17.57314
447.24        17.60888
447.69        17.64033
448.13        17.72065
448.58        17.82391
449.02        17.85027
449.47        17.80771
449.91        17.79152
450.36        17.81034
450.80         17.8017
451.25        17.77599
451.69        17.77695
452.13        17.80056
452.58        17.81793
453.02        17.81387
453.47        17.77372
453.91        17.69502
454.36        17.61718
454.80        17.53003
455.24        17.39812
455.69        17.26971
456.13        17.16899
456.58        17.13764
457.02        17.30177
457.46         17.5556
457.91         17.5789
458.35        17.44288
458.79        17.37049
459.24        17.39089
459.68        17.34963
460.13        17.27007
460.57        17.16276
461.01        17.11515
461.46        17.13628
461.90         17.1361
462.34        17.15984
462.79        17.46429
463.23        17.57556
463.68        17.57012
464.12        17.53283
464.56         17.4861
465.01        17.48161
465.45        17.45939
465.89        17.32397
466.34        17.14143
466.78        16.99817
467.22        16.89877
467.67        17.20527
468.11        17.14644
468.55        17.15427
468.99        17.03139
469.44        16.99904
469.88        17.05959
470.32        17.07673
470.77        17.05825
471.21        17.07298
471.65        17.12582
472.10        17.20148
472.54        17.26362
472.98        17.28211
473.42        17.25746
473.87        17.15374
474.31         17.0273
474.75        17.12311
475.20        17.39038
475.64        17.47962
476.08        17.37344
476.52        17.38111
476.97        17.51831
477.41        17.44697
477.85         17.3438
478.29        17.45934
478.74        17.35948
479.18        17.23866
479.62        17.53866
480.06        17.62394
480.50        17.67368
480.95        17.68261
481.39        17.62709
481.83        17.85097
482.27        17.81765
482.72        17.67851
483.16        17.84272
483.60        17.84097
484.04        17.81659
484.48        17.86152
484.93        18.11697
485.37        18.03312
485.81         18.3419
486.25        18.82522
486.69        18.40277
487.14        17.87563
487.58        18.86766
488.02        18.71731
488.46        18.86453
488.90        19.16993
489.34        18.45847
489.79        18.19341
490.23        18.71161
490.67        19.07322
491.11        19.36299
491.55        19.38722
491.99         19.2258
492.43        19.26521
492.88        19.52093
493.32        19.70043
493.76        19.76828
494.20         19.8737
494.64        20.03042
495.08        20.13207
495.52        20.19197
495.96        20.41374
496.41        20.77249
496.85        20.72485
497.29        20.40317
497.73        20.56667
498.17        21.12207
498.61        21.36425
499.05        21.22758
499.49        21.14095
499.93        21.18037
500.37        21.26262
500.82        21.36844
501.26        21.51807
501.70         21.7151
502.14        21.51513
502.58        21.70925
503.02        21.75995
503.46        21.81113
503.90        21.88127
504.34         21.9469
504.78        22.03973
505.22        22.14525
505.66        22.21656
506.10        22.26544
506.54        22.37135
506.98        22.54101
507.42        22.63996
507.86        22.81626
508.30        22.88327
508.74        22.88692
509.18        22.83882
509.62        22.77688
510.06        22.75884
510.50        22.79954
510.94        22.88287
511.38        22.98658
511.82        23.07479
512.26        23.13267
512.70        23.16969
513.14        23.18976
513.58          23.189
514.02         23.1708
514.46        23.15487
514.90        23.14655
515.34        23.07435
515.78        23.07668
516.22        23.04699
516.66        23.04403
517.10        23.09218
517.54        23.19111
517.98        23.32613
518.42        23.45457
518.86        23.51217
519.30        23.48344
519.74         23.3871
520.18        23.26176
520.62        23.16906
521.06        23.12863
521.50        23.12726
521.93        23.14556
522.37        23.14183
522.81        23.10872
523.25        23.05702
523.69        23.00794
524.13        22.99285
524.57        23.01426
525.01         23.0568
525.45        23.08782
525.89        23.05785
526.32        22.95589
526.76        22.81011
527.20        22.65213
527.64        22.53595
528.08        22.47592
528.52        22.45068
528.96        22.44918
529.40        22.45319
529.83        22.45075
530.27        22.45204
530.71        22.43265
531.15        22.35401
531.59        22.21636
532.03        22.03354
532.46        21.85487
532.90         21.7732
533.34        21.80326
533.78        21.91775
534.22         22.0624
534.66        22.15336
535.09        22.16604
535.53        22.12661
535.97        22.06611
536.41        22.03849
536.85        22.05797
537.28        22.10737
537.72        22.16035
538.16        22.17334
538.60        22.14124
539.04        22.09074
539.47        22.04662
539.91        22.05634
540.35        22.12404
540.79        22.23704
541.22        22.37303
541.66        22.49817
542.10        22.59893
542.54        22.68458
542.97        22.75699
543.41        22.83354
543.85        22.91501
544.29        22.99624
544.72        23.07515
545.16        23.16673
545.60        23.26647
546.04         23.3748
546.47         23.4881
546.91        23.59391
547.35        23.68893
547.79        23.78793
548.22          23.891
548.66        23.99253
549.10          24.108
549.53        24.31917
549.97        24.59941
550.41        24.82044
550.84        24.96477
551.28        25.10103
551.72        25.23213
552.15        25.33385
552.59        25.41792
553.03        25.48255
553.46        25.54736
553.90        25.66256
554.34         25.8291
554.77         26.0427
555.21        26.25859
555.65        26.40408
556.08        26.43761
556.52        26.44168
556.96        26.44439
557.39        26.52727
557.83        26.68359
558.27        26.78142
558.70        26.81313
559.14        26.86591
559.57        26.93135
560.01        26.99019
560.45        27.03973
560.88        27.05192
561.32        27.08213
561.75        27.21761
562.19        27.43654
562.63        27.63207
563.06        27.75258
563.50        27.73729
563.93        27.62646
564.37        27.61403
564.80        27.71079
565.24        27.83252
565.68        27.95979
566.11        28.08882
566.55        28.21838
566.98        28.36941
567.42         28.5333
567.85        28.61772
568.29        28.67295
568.72        28.77387
569.16        28.91353
569.60        29.12262
570.03        29.42769
570.47        29.42201
570.90        29.42598
571.34        30.14128
571.77        29.97432
572.21        29.94146
572.64        30.22659
573.08        30.15783
573.51        30.57835
573.95        30.69315
574.38        30.68436
574.82        30.73897
