SpectraSmart Spectrum 2.9.0.0
--------- Device Information -----------
Spectrum Name :  反射率_0
Saving Time :  2024/04/27 22:28:23
Spectro-Module Model Name : SE2030-DUVN
Spectro-Module Serial Number : OS361AC55029948
Wavelength Start : 200
Wavelength End : 1025
Wavelength Unit : Wavelength(nm)
Spectrum Unit : Reflectance(%)
-----------Spectrum Setting ------------
Integration Time : 20ms
Average : 10
Boxcar : 0
Background removal :  enabled
linearity correction :  enabled
SC :  disabled
Intensity correction :  disabled
DWT denoise :  enabled
savitzky-golay :  disabled
FFT :  disabled
Running average :  disabled
Kalman :  disabled
High pass :  disabled
---------------BEGIN--------------------
Wavelength(nm)             Reflectance(%)
200.29               0
200.75       -8.735084
201.21         26.0912
201.67        55.36899
202.13         65.2047
202.58        61.94275
203.04        52.98575
203.50        43.85785
203.96        42.08786
204.42        47.92439
204.88        56.77867
205.34        65.76507
205.80        73.64472
206.26        81.12467
206.72        90.25937
207.18        101.7699
207.64        108.6715
208.10        105.2807
208.55        97.33279
209.01        89.73417
209.47        83.12566
209.93        74.80807
210.39        57.37789
210.85        9.306894
211.31       -40.79339
211.77        33.86845
212.23        78.98403
212.69        94.19281
213.14          98.588
213.60        97.55639
214.06        91.96513
214.52        79.91462
214.98        67.50681
215.44        65.43652
215.90        69.05087
216.36        73.14353
216.81        75.23321
217.27        75.70608
217.73        76.15157
218.19        76.16387
218.65        74.71651
219.11         71.7752
219.57        67.00154
220.02        62.71302
220.48        65.22921
220.94        74.78769
221.40        87.71057
221.86        98.39908
222.32        101.8238
222.77        98.92036
223.23        92.71562
223.69        86.42366
224.15         83.2803
224.61        83.53505
225.06        85.87867
225.52         89.2747
225.98        91.06236
226.44        90.59786
226.90        89.17441
227.36        87.72958
227.81        86.80503
228.27        86.50807
228.73        86.40838
229.19        86.22095
229.65        85.56511
230.10         84.2832
230.56        82.83543
231.02        81.48834
231.48        80.64151
231.93        80.26385
232.39        80.38446
232.85        80.67468
233.31        80.79888
233.77        80.70619
234.22        80.53611
234.68        80.40944
235.14        80.51598
235.60        80.89268
236.05        81.45243
236.51        82.16226
236.97        82.93802
237.43        83.62473
237.88          84.355
238.34        84.67857
238.80        84.53367
239.26        83.82997
239.71        82.39182
240.17          79.887
240.63        78.04942
241.08        78.79356
241.54        80.98737
242.00        82.97817
242.46        83.84888
242.91        83.78954
243.37        82.52872
243.83        79.35138
244.28        75.08894
244.74        74.04341
245.20        76.60224
245.66        78.74609
246.11         78.1584
246.57        74.60703
247.03        67.81638
247.48        56.69682
247.94        45.55796
248.40        42.26178
248.85        45.44775
249.31        52.45967
249.77        60.74823
250.22         68.3994
250.68        74.88136
251.14        79.95417
251.59        83.83224
252.05         87.2616
252.51        90.69084
252.96        92.88701
253.42         90.9278
253.88          84.481
254.33        76.87946
254.79         71.7331
255.25        69.56451
255.70        69.29181
256.16        70.57337
256.62        72.42596
257.07        73.90361
257.53        75.17134
257.99        75.97583
258.44         76.2173
258.90        76.32074
259.35        75.93598
259.81        75.52035
260.27        74.80941
260.72        73.58372
261.18        72.37063
261.63        71.00805
262.09        69.95361
262.55        69.20464
263.00        68.63754
263.46        68.34798
263.91        68.12403
264.37        68.11301
264.83        68.17545
265.28        68.23407
265.74        68.26665
266.19        67.95325
266.65        67.38525
267.11        66.56632
267.56        65.66151
268.02        65.06194
268.47        64.76979
268.93        64.69326
269.38        64.58807
269.84        64.11887
270.30         63.2081
270.75        61.98692
271.21        60.64793
271.66        59.41179
272.12        58.39386
272.57        57.48491
273.03        56.70072
273.48        55.95729
273.94          55.285
274.39        54.63865
274.85         54.0451
275.31        53.40239
275.76         52.6652
276.22        51.91477
276.67         51.1007
277.13        50.31833
277.58        49.51616
278.04        48.75217
278.49        47.98626
278.95        47.32455
279.40        46.69837
279.86        46.16206
280.31        45.61276
280.77        45.06652
281.22        44.45977
281.68        43.87538
282.13        43.27806
282.59         42.7185
283.04        42.16103
283.50        41.62104
283.95        41.09508
284.41        40.65584
284.86        40.28079
285.32        39.98833
285.77        39.68932
286.22        39.31313
286.68        38.87058
287.13         38.3534
287.59        37.86637
288.04        37.47203
288.50        37.22583
288.95        37.05949
289.41        36.95171
289.86        36.80502
290.32        36.62243
290.77        36.41085
291.22         36.2022
291.68        36.03297
292.13        35.90011
292.59        35.81242
293.04        35.75887
293.50        35.75988
293.95        35.80735
294.40        35.91514
294.86        36.08323
295.31        36.29602
295.77        36.55569
296.22        36.84148
296.68        37.16647
297.13         37.5266
297.58        37.91547
298.04         38.3244
298.49        38.70287
298.95        39.00425
299.40        39.21463
299.85        39.35366
300.31        39.49576
300.76        39.71892
301.21        40.04839
301.67        40.46289
302.12        40.86358
302.58        41.15458
303.03        41.29424
303.48        41.33256
303.94        41.36622
304.39        41.48478
304.84         41.7221
305.30         42.0393
305.75        42.33434
306.20        42.50544
306.66        42.54105
307.11        42.45008
307.57        42.31387
308.02        42.18281
308.47        42.09858
308.93        42.04846
309.38         41.9861
309.83         41.8748
310.29        41.71726
310.74        41.51629
311.19        41.31662
311.65           41.18
312.10        41.09851
312.55        41.05564
313.00        41.01406
313.46         40.9179
313.91        40.74883
314.36        40.53307
314.82        40.28371
315.27        40.02061
315.72        39.75783
316.18        39.49254
316.63        39.24414
317.08          39.066
317.53        38.96119
317.99        38.91409
318.44        38.86726
318.89        38.70846
319.35        38.41898
319.80        38.03708
320.25        37.64278
320.70        37.37292
321.16        37.25155
321.61        37.23855
322.06        37.26289
322.51        37.21254
322.97        37.04601
323.42        36.81237
323.87        36.52508
324.32        36.21687
324.78        35.90493
325.23        35.58516
325.68        35.28733
326.13        35.07148
326.59        34.93458
327.04        34.88942
327.49        34.86649
327.94        34.75481
328.39        34.52676
328.85        34.20333
329.30        33.86193
329.75        33.61926
330.20          33.514
330.66        33.49755
331.11        33.53455
331.56        33.51302
332.01         33.4006
332.46        33.22908
332.92        33.02524
333.37        32.87229
333.82        32.78307
334.27        32.73018
334.72        32.69815
335.17         32.6651
335.63        32.61255
336.08        32.57191
336.53        32.51811
336.98        32.42109
337.43        32.28156
337.88        32.10713
338.34        31.94225
338.79        31.86985
339.24        31.90291
339.69        32.01404
340.14        32.14347
340.59        32.19292
341.05        32.13637
341.50         32.0116
341.95        31.84879
342.40        31.70613
342.85        31.60425
343.30        31.51991
343.75        31.45995
344.20        31.43614
344.66        31.44797
345.11        31.49575
345.56        31.53696
346.01        31.49747
346.46        31.36762
346.91        31.16764
347.36        30.97303
347.81         30.9002
348.26        30.97154
348.72        31.15411
349.17        31.35962
349.62         31.4474
350.07        31.38173
350.52        31.19633
350.97        30.98837
351.42         30.9139
351.87        31.00282
352.32        31.20356
352.77        31.39441
353.22        31.39253
353.67        31.16525
354.13        30.78862
354.58        30.37002
355.03         30.1319
355.48        30.12559
355.93        30.28166
356.38        30.47573
356.83        30.51345
357.28        30.34979
357.73        30.05571
358.18        29.72323
358.63        29.49241
359.08        29.39922
359.53        29.38807
359.98        29.41131
360.43        29.40012
360.88        29.32878
361.33        29.22024
361.78        29.06756
362.23         28.8898
362.68          28.702
363.13        28.43841
363.58        28.11119
364.03         28.0764
364.48        27.80602
364.93        27.71264
365.38        27.61695
365.83         27.4963
366.28        27.33728
366.73        27.16492
367.18        26.97208
367.63        26.73377
368.08        26.45735
368.53        26.14662
368.98        25.86697
369.43         25.7227
369.88        25.73076
370.33        25.86508
370.78        26.02093
371.23        26.02695
371.68        25.83957
372.13        25.49645
372.58        25.11766
373.03        24.90351
373.48        24.90218
373.93        25.05873
374.38        25.23352
374.83        25.20621
375.28        24.93435
375.72        24.48316
376.17        24.03167
376.62         23.8153
377.07        23.87754
377.52        24.12029
377.97        24.39271
378.42        24.46301
378.87        24.27804
379.32        23.93218
379.77        23.51527
380.22        23.15716
380.67        22.90431
381.11        22.71301
381.56        22.59381
382.01        22.56682
382.46        22.62166
382.91        22.75713
383.36        22.89763
383.81        22.92034
384.26        22.79918
384.71        22.55778
385.15        22.27219
385.60        22.10288
386.05        22.07336
386.50        22.14572
386.95        22.23537
387.40        22.20852
387.85        22.04771
388.29         21.7976
388.74        21.57248
389.19        21.48074
389.64        21.53331
390.09        21.66666
390.54        21.81727
390.98        21.88203
391.43        21.84214
391.88        21.74257
392.33        21.57605
392.78          21.366
393.23        21.14445
393.67        20.81708
394.12        20.49196
394.57        20.56459
395.02        20.67964
395.47         20.7653
395.91        20.69772
396.36        20.68299
396.81        20.71533
397.26        20.66264
397.71        20.54172
398.15        20.45649
398.60        20.44147
399.05        20.38429
399.50        20.32065
399.95        20.43558
400.39        20.66306
400.84        20.69021
401.29        20.51551
401.74        20.34153
402.18        20.22956
402.63        20.21459
403.08        20.26466
403.53        20.21437
403.97        20.06012
404.42        19.93503
404.87        19.85602
405.32        19.80687
405.76        19.78808
406.21        19.75002
406.66        19.71011
407.11        19.79048
407.55        19.93549
408.00        19.93257
408.45        19.76805
408.90         19.4922
409.34        19.20916
409.79        19.17309
410.24        19.34937
410.68        19.43225
411.13         19.4002
411.58        19.45025
412.03        19.58118
412.47        19.68337
412.92        19.72987
413.37        19.75183
413.81        19.73547
414.26        19.67666
414.71         19.5759
415.15        19.44127
415.60        19.29269
416.05         19.1788
416.49        19.12043
416.94        19.10592
417.39        19.12749
417.83           19.17
418.28        19.21655
418.73         19.2595
419.17        19.29263
419.62        19.30924
420.07        19.31478
420.51        19.32071
420.96        19.30751
421.41        19.27009
421.85        19.20848
422.30        19.03938
422.74        18.85816
423.19        19.04428
423.64        19.51854
424.08        19.75531
424.53        19.65112
424.98        19.60007
425.42        19.61412
425.87        19.32542
426.31        18.87285
426.76        18.87713
427.21        19.25212
427.65        19.28651
428.10        19.00357
428.54        18.92328
428.99        19.04748
429.44        19.27418
429.88        19.44937
430.33        19.09898
430.77        18.44061
431.22        18.30139
431.66        18.68171
432.11        19.01923
432.56        19.21849
433.00        19.40838
433.45        19.39209
433.89         19.0798
434.34        18.79806
434.78        17.80058
435.23        18.38722
435.67        18.90702
436.12        19.13416
436.57         19.1932
437.01        18.95569
437.46        18.84587
437.90        18.96865
438.35         19.2018
438.79         18.9211
439.24         18.8633
439.68        18.86736
440.13         18.8796
440.57        18.88071
441.02        19.01393
441.46        19.22193
441.91        19.06759
442.35        18.69314
442.80        18.90602
443.24        19.53646
443.69        19.48768
444.13        18.82963
444.58        18.56131
445.02        18.70049
445.47          18.737
445.91        18.63985
446.36        18.62001
446.80        18.66666
447.24        18.71077
447.69         18.7527
448.13        18.83879
448.58        18.93992
449.02         18.9546
449.47        18.89662
449.91        18.87428
450.36        18.89924
450.80        18.90225
451.25        18.89315
451.69        18.91679
452.13        18.96635
452.58        19.00927
453.02        19.02595
453.47        18.99543
453.91        18.91424
454.36        18.82714
454.80        18.72301
455.24        18.56429
455.69        18.40506
456.13        18.27233
456.58        18.22095
457.02        18.39966
457.46        18.69872
457.91        18.77471
458.35        18.68414
458.79        18.63911
459.24        18.66573
459.68        18.60183
460.13        18.49478
460.57         18.3919
461.01        18.39103
461.46        18.49115
461.90        18.55991
462.34        18.58944
462.79        18.84885
463.23        18.84678
463.68        18.71617
464.12        18.62347
464.56        18.60974
465.01        18.70396
465.45        18.80476
465.89        18.75474
466.34        18.60961
466.78        18.47739
467.22        18.37939
467.67        18.73606
468.11        18.71354
468.55        18.76907
468.99        18.66897
469.44        18.63046
469.88        18.65358
470.32        18.60311
470.77        18.50783
471.21        18.47393
471.65         18.5163
472.10        18.60724
472.54        18.70196
472.98        18.75897
473.42        18.77139
473.87        18.70238
474.31        18.59734
474.75        18.69793
475.20        18.94867
475.64        18.97967
476.08        18.80101
476.52        18.79054
476.97        18.97229
477.41        18.96388
477.85        18.94078
478.29        19.14909
478.74        19.10049
479.18        19.01702
479.62        19.37366
480.06        19.45091
480.50        19.44929
480.95        19.36593
481.39        19.21772
481.83        19.44649
482.27        19.47889
482.72        19.45795
483.16        19.78023
483.60        19.84903
484.04        19.79371
484.48        19.75024
484.93        19.94533
485.37        19.82218
485.81        20.13013
486.25        20.97087
486.69        20.17668
487.14        19.61852
487.58        21.17105
488.02        20.95499
488.46         20.8899
488.90        21.25974
489.34        20.63598
489.79        20.45031
490.23        20.97388
490.67        21.31061
491.11        21.57412
491.55        21.57994
491.99        21.42196
492.43        21.46903
492.88        21.73887
493.32        21.95584
493.76         22.0824
494.20        22.25677
494.64        22.48879
495.08        22.66494
495.52        22.78216
495.96        23.04415
496.41        23.40988
496.85        23.28887
497.29        22.85471
497.73        22.97831
498.17        23.57154
498.61        23.88216
499.05        23.80949
499.49        23.74822
499.93        23.77261
500.37        23.82753
500.82        23.91515
501.26        24.08537
501.70        24.35033
502.14        24.19944
502.58        24.49919
503.02        24.61311
503.46        24.69325
503.90        24.76783
504.34        24.82505
504.78        24.92564
505.22        25.05924
505.66        25.16465
506.10        25.23927
506.54        25.34817
506.98          25.496
507.42        25.54361
507.86        25.67815
508.30         25.7194
508.74        25.72745
509.18        25.70444
509.62        25.68227
510.06        25.70879
510.50        25.79121
510.94        25.91383
511.38        26.04708
511.82        26.14284
512.26        26.18706
512.70        26.19756
513.14        26.18622
513.58        26.16219
514.02          26.135
514.46        26.12064
514.90        26.13807
515.34        26.12539
515.78        26.23518
516.22        26.33802
516.66        26.45718
517.10        26.55265
517.54        26.61251
517.98        26.64067
518.42        26.64201
518.86        26.63163
519.30        26.61534
519.74        26.59039
520.18        26.55746
520.62        26.51719
521.06        26.47313
521.50        26.43114
521.93        26.39931
522.37        26.37906
522.81        26.37279
523.25        26.37281
523.69        26.37502
524.13        26.37375
524.57        26.36345
525.01        26.34438
525.45        26.30282
525.89        26.21765
526.32        26.08703
526.76        25.93047
527.20        25.77456
527.64        25.66536
528.08        25.61345
528.52        25.60215
528.96        25.61495
529.40        25.62392
529.83         25.6156
530.27          25.601
530.71        25.56662
531.15        25.49359
531.59        25.38382
532.03        25.24302
532.46        25.10319
532.90        25.03013
533.34         25.0333
533.78        25.09719
534.22        25.18188
534.66        25.22462
535.09         25.2081
535.53        25.15438
535.97        25.09366
536.41        25.07894
536.85        25.12199
537.28        25.20605
537.72        25.29818
538.16        25.34258
538.60        25.33072
539.04        25.29138
539.47        25.25247
539.91        25.27047
540.35        25.35013
540.79        25.47478
541.22        25.62079
541.66        25.75268
542.10        25.85626
542.54        25.94481
542.97         26.0162
543.41        26.08143
543.85        26.14416
544.29        26.20598
544.72        26.27806
545.16        26.39756
545.60        26.56123
546.04        26.75601
546.47        26.96768
546.91        27.16729
547.35        27.34007
547.79        27.50517
548.22        27.64671
548.66         27.7334
549.10         27.7868
549.53        27.91386
549.97        28.11844
550.41        28.31019
550.84        28.48373
551.28         28.6999
551.72        28.93763
552.15        29.12766
552.59        29.26636
553.03        29.36159
553.46         29.4355
553.90        29.54598
554.34        29.69915
554.77        29.89169
555.21         30.0845
555.65         30.2161
556.08        30.24634
556.52        30.26476
556.96         30.2999
557.39        30.43903
557.83         30.6673
558.27        30.82866
558.70        30.90456
559.14        30.98178
559.57        31.04894
560.01        31.08988
560.45        31.10263
560.88        31.06672
561.32        31.05643
561.75        31.14748
562.19        31.33753
562.63        31.60475
563.06        31.86074
563.50        31.86785
563.93        31.69077
564.37        31.71272
564.80        31.94474
565.24         32.1932
565.68        32.39818
566.11        32.54254
566.55        32.61916
566.98        32.65501
567.42        32.68102
567.85        32.67069
568.29        32.69308
568.72        32.79319
569.16         32.9615
569.60        33.20314
570.03         33.5297
570.47        33.56058
570.90         33.6855
571.34        34.29218
571.77        34.34503
572.21         34.3383
572.64         34.6545
573.08        34.68333
573.51        34.85053
573.95         34.9903
574.38        35.08501
574.82        35.24976
