SpectraSmart Spectrum 2.9.0.0
--------- Device Information -----------
Spectrum Name :  反射率_0
Saving Time :  2024/04/27 22:52:44
Spectro-Module Model Name : SE2030-DUVN
Spectro-Module Serial Number : OS361AC55029948
Wavelength Start : 200
Wavelength End : 1025
Wavelength Unit : Wavelength(nm)
Spectrum Unit : Reflectance(%)
-----------Spectrum Setting ------------
Integration Time : 20ms
Average : 10
Boxcar : 0
Background removal :  enabled
linearity correction :  enabled
SC :  disabled
Intensity correction :  disabled
DWT denoise :  enabled
savitzky-golay :  disabled
FFT :  disabled
Running average :  disabled
Kalman :  disabled
High pass :  disabled
---------------BEGIN--------------------
Wavelength(nm)             Reflectance(%)
200.29               0
200.75       -7.513454
201.21        22.90672
201.67         45.3642
202.13        53.25731
202.58        51.94254
203.04        46.20496
203.50        40.06002
203.96        38.96491
204.42        42.98903
204.88        48.93221
205.34        54.59691
205.80        58.64007
206.26        61.07383
206.72        62.48461
207.18        62.16207
207.64        58.18182
208.10         52.5537
208.55         49.2575
209.01        46.16788
209.47        41.02412
209.93          31.081
210.39        6.681792
210.85        -61.5016
211.31       -119.3372
211.77       -2.468848
212.23        59.65902
212.69        78.41106
213.14        81.76881
213.60        76.67019
214.06         63.0598
214.52        37.04173
214.98          12.508
215.44        11.56061
215.90        22.27178
216.36         33.8522
216.81        42.43624
217.27        48.49604
217.73         54.5946
218.19        58.59891
218.65        55.90127
219.11        45.38821
219.57        27.17267
220.02        5.841063
220.48       -4.274385
220.94        1.404879
221.40         16.8183
221.86         34.0451
222.32        45.14394
222.77        49.68005
223.23        50.74031
223.69        49.69557
224.15        47.64928
224.61        45.09802
225.06        41.22228
225.52        37.69446
225.98        37.44747
226.44         40.2457
226.90        44.24672
227.36        47.25539
227.81        47.43258
228.27        44.94247
228.73        40.40625
229.19        34.77591
229.65        30.31462
230.10        28.10026
230.56        27.88564
231.02        28.70068
231.48        29.24437
231.93        29.13232
232.39         28.7826
232.85        28.80969
233.31        30.04122
233.77        32.40377
234.22         35.4925
234.68        38.13353
235.14        38.96825
235.60         37.7779
236.05        34.69893
236.51        31.06084
236.97        29.81563
237.43        32.11858
237.88        37.36647
238.34        42.88844
238.80        45.76638
239.26        45.20511
239.71        40.65873
240.17        32.64764
240.63        29.01584
241.08         36.0238
241.54        47.57703
242.00        56.41162
242.46        59.78205
242.91        58.51644
243.37        51.85659
243.83        36.50031
244.28        17.70999
244.74        19.30498
245.20        39.16929
245.66        56.00642
246.11        62.27545
246.57        60.73005
247.03        53.20785
247.48        38.75185
247.94        24.62173
248.40        21.56565
248.85        25.75623
249.31        34.73369
249.77        46.41746
250.22        57.93254
250.68        68.57135
251.14        75.83888
251.59        77.44305
252.05        73.63133
252.51        63.51088
252.96        47.94656
253.42        37.90841
253.88        39.96048
254.33        48.89392
254.79        56.38691
255.25        56.73624
255.70         51.6622
256.16        45.09347
256.62        39.96925
257.07        39.28949
257.53        42.28635
257.99        46.23346
258.44        49.42636
258.90        50.83534
259.35        50.38977
259.81        49.14665
260.27        47.37946
260.72        45.38188
261.18        43.63625
261.63        41.93439
262.09        40.44931
262.55        39.07947
263.00        37.76358
263.46        36.61293
263.91        35.68488
264.37        35.30034
264.83        35.34964
265.28        35.64669
265.74        35.89982
266.19        35.60769
266.65        34.78633
267.11        33.59153
267.56        32.28534
268.02        31.36765
268.47        30.92417
268.93        30.80195
269.38        30.84472
269.84        30.82525
270.30        30.64447
270.75        30.36574
271.21          29.962
271.66        29.35122
272.12        28.56699
272.57        27.60787
273.03        26.62223
273.48         25.7822
273.94        25.18071
274.39        24.75014
274.85        24.44766
275.31        24.14373
275.76        23.78242
276.22        23.40573
276.67         23.0081
277.13        22.64856
277.58        22.29749
278.04        21.97422
278.49         21.5948
278.95        21.12808
279.40        20.54883
279.86        19.94165
280.31        19.37941
280.77        19.05567
281.22        18.96028
281.68        19.04891
282.13        19.19103
282.59        19.22874
283.04        19.11935
283.50        18.91251
283.95        18.67408
284.41        18.52839
284.86        18.48952
285.32        18.52352
285.77        18.55084
286.22        18.48152
286.68        18.31606
287.13        18.06849
287.59        17.83344
288.04        17.68612
288.50         17.6702
288.95         17.7402
289.41        17.84718
289.86        17.88484
290.32        17.84819
290.77         17.7663
291.22        17.71225
291.68        17.79175
292.13        18.01521
292.59        18.35031
293.04        18.72494
293.50        19.04691
293.95        19.28777
294.40        19.49493
294.86        19.71189
295.31        19.99986
295.77        20.38538
296.22        20.82866
296.68        21.33707
297.13        21.90121
297.58        22.50371
298.04        23.13133
298.49         23.7252
298.95        24.20403
299.40        24.55966
299.85        24.81984
300.31         25.0676
300.76        25.40056
301.21        25.85122
301.67        26.38675
302.12        26.93388
302.58          27.411
303.03        27.78371
303.48        28.08437
303.94        28.36903
304.39        28.68196
304.84         29.0447
305.30        29.43664
305.75        29.79584
306.20        30.06365
306.66        30.23927
307.11        30.32075
307.57        30.37343
308.02          30.439
308.47        30.54171
308.93        30.65989
309.38        30.74292
309.83        30.73302
310.29        30.63247
310.74        30.46252
311.19        30.26308
311.65         30.0925
312.10         29.9548
312.55        29.83503
313.00        29.74691
313.46        29.71217
313.91        29.71827
314.36         29.7603
314.82        29.76351
315.27        29.60333
315.72         29.2657
316.18        28.79979
316.63        28.30828
317.08        27.97572
317.53        27.84494
317.99        27.85827
318.44        27.93133
318.89        27.90855
319.35        27.74476
319.80        27.48904
320.25        27.19149
320.70         26.9377
321.16        26.74623
321.61        26.58655
322.06        26.43187
322.51        26.24812
322.97        26.02028
323.42        25.77826
323.87        25.51428
324.32        25.21791
324.78        24.89294
325.23        24.54492
325.68        24.21396
326.13        23.97123
326.59        23.82035
327.04        23.76413
327.49        23.72669
327.94        23.58823
328.39        23.31685
328.85        22.93453
329.30        22.52726
329.75        22.24609
330.20         22.1358
330.66        22.14804
331.11        22.19729
331.56        22.09847
332.01        21.80774
332.46         21.3801
332.92        20.92884
333.37        20.66844
333.82        20.65316
334.27        20.81315
334.72        21.03878
335.17        21.15134
335.63        21.08528
336.08        20.90492
336.53        20.64948
336.98        20.39609
337.43        20.18245
337.88        19.98747
338.34        19.82041
338.79        19.70018
339.24        19.63019
339.69        19.61362
340.14        19.63376
340.59        19.65492
341.05        19.66127
341.50        19.65758
341.95        19.63225
342.40        19.58124
342.85        19.50296
343.30        19.39191
343.75        19.26187
344.20        19.13675
344.66        19.03073
345.11         18.9471
345.56        18.86751
346.01        18.75814
346.46        18.61447
346.91        18.43958
347.36        18.29227
347.81        18.25882
348.26        18.34933
348.72         18.5435
349.17        18.72935
349.62        18.72724
350.07        18.50499
350.52        18.10795
350.97        17.70644
351.42        17.57494
351.87        17.76066
352.32        18.17124
352.77         18.5912
353.22         18.6903
353.67        18.40287
354.13        17.85344
354.58        17.22213
355.03        16.84689
355.48        16.81865
355.93        17.03658
356.38        17.34097
356.83        17.48475
357.28        17.40044
357.73        17.16596
358.18        16.89242
358.63         16.7475
359.08        16.76508
359.53        16.87514
359.98        16.97724
360.43        16.92321
360.88        16.68515
361.33        16.32572
361.78        15.92309
362.23        15.63697
362.68        15.51662
363.13        15.43834
363.58        15.35311
364.03        15.57307
364.48        15.44009
364.93        15.46977
365.38        15.45004
365.83        15.35569
366.28        15.17948
366.73         14.9378
367.18         14.6708
367.63        14.43281
368.08        14.24546
368.53        14.09719
368.98        13.98095
369.43        13.87983
369.88        13.78518
370.33        13.70471
370.78        13.62363
371.23        13.51691
371.68        13.37827
372.13         13.2074
372.58        13.03068
373.03        12.89365
373.48        12.81027
373.93        12.77845
374.38        12.76053
374.83        12.69426
375.28        12.56989
375.72        12.39428
376.17        12.25068
376.62          12.233
377.07          12.347
377.52        12.54291
377.97        12.72762
378.42        12.75831
378.87        12.60776
379.32         12.3368
379.77        12.01168
380.22        11.73047
380.67        11.52871
381.11        11.37757
381.56        11.28843
382.01        11.27724
382.46         11.3335
382.91        11.45129
383.36        11.56774
383.81        11.58181
384.26        11.47349
384.71        11.26869
385.15        11.02466
385.60        10.86419
386.05        10.81181
386.50        10.84501
386.95        10.92168
387.40        10.97235
387.85        10.98159
388.29        10.96445
388.74        10.97267
389.19        11.05561
389.64        11.21181
390.09         11.4023
390.54        11.57455
390.98        11.64731
391.43        11.60432
391.88        11.48264
392.33        11.30275
392.78         11.1114
393.23         10.9375
393.67        10.72887
394.12        10.53606
394.57        10.54572
395.02        10.57263
395.47         10.5859
395.91        10.53697
396.36        10.55114
396.81        10.62494
397.26        10.67549
397.71        10.68523
398.15        10.67342
398.60        10.65117
399.05        10.57284
399.50        10.47303
399.95        10.46824
400.39        10.53225
400.84        10.50319
401.29        10.38242
401.74        10.27396
402.18        10.20958
402.63        10.20997
403.08        10.26299
403.53        10.28983
403.97        10.28388
404.42        10.30353
404.87        10.34048
405.32        10.36139
405.76        10.36144
406.21        10.32234
406.66        10.26588
407.11        10.27609
407.55        10.33094
408.00        10.31473
408.45        10.22302
408.90        10.08446
409.34        9.951029
409.79        9.956985
410.24        10.07162
410.68         10.1145
411.13        10.07097
411.58        10.04767
412.03        10.06349
412.47        10.09853
412.92        10.14501
413.37        10.20727
413.81        10.25307
414.26        10.24239
414.71        10.16847
415.15        10.04792
415.60         9.91235
416.05        9.819274
416.49        9.790676
416.94        9.808149
417.39        9.858326
417.83         9.92035
418.28        9.976732
418.73        10.02662
419.17        10.06065
419.62        10.06548
420.07         10.0453
420.51        10.01419
420.96        9.968966
421.41        9.920186
421.85         9.87154
422.30        9.773019
422.74        9.684352
423.19        9.817277
423.64        10.13077
424.08        10.35261
424.53         10.3807
424.98        10.35556
425.42        10.27029
425.87        9.953218
426.31        9.541729
426.76        9.458274
427.21        9.680246
427.65        9.826984
428.10        9.837863
428.54        9.876113
428.99        9.920652
429.44         9.94978
429.88        9.935037
430.33        9.721018
430.77        9.430668
431.22        9.451199
431.66        9.746855
432.11        9.952521
432.56        9.999229
433.00        9.993972
433.45        9.873797
433.89        9.627738
434.34        9.462348
434.78        9.035513
435.23        9.482503
435.67        9.873442
436.12         10.0624
436.57        10.16213
437.01        10.08307
437.46        9.992025
437.90         9.94704
438.35         9.89943
438.79        9.576901
439.24        9.440825
439.68        9.425878
440.13        9.487181
440.57        9.582011
441.02        9.724151
441.46        9.863357
441.91        9.784198
442.35        9.576421
442.80        9.674006
443.24        9.994523
443.69        9.971251
444.13        9.620742
444.58         9.42951
445.02        9.403769
445.47        9.301352
445.91        9.149157
446.36        9.117644
446.80        9.210434
447.24        9.373774
447.69        9.556394
448.13        9.709653
448.58        9.796931
449.02         9.78561
449.47        9.715167
449.91        9.697803
450.36        9.750517
450.80        9.817179
451.25         9.87312
451.69        9.899465
452.13        9.883469
452.58        9.827548
453.02         9.74464
453.47        9.658378
453.91        9.577305
454.36        9.514221
454.80        9.455734
455.24        9.371423
455.69        9.285134
456.13        9.217146
456.58         9.19132
457.02        9.274591
457.46        9.410948
457.91        9.423432
458.35        9.357656
458.79        9.342443
459.24        9.392809
459.68         9.42004
460.13        9.419646
460.57        9.368709
461.01        9.312066
461.46        9.262906
461.90        9.194445
462.34        9.165672
462.79        9.321738
463.23        9.402844
463.68        9.431106
464.12        9.426442
464.56        9.391995
465.01        9.366488
465.45        9.326643
465.89        9.238134
466.34        9.140121
466.78        9.071338
467.22        9.027721
467.67        9.191427
468.11        9.148057
468.55        9.133939
468.99        9.051321
469.44         9.02894
469.88         9.07009
470.32        9.097946
470.77         9.11365
471.21        9.147823
471.65        9.200264
472.10         9.26333
472.54        9.313834
472.98        9.328403
473.42        9.307395
473.87        9.234724
474.31        9.148733
474.75        9.196486
475.20         9.35341
475.64        9.428535
476.08        9.402246
476.52        9.426984
476.97         9.50852
477.41        9.465305
477.85        9.401067
478.29        9.464799
478.74        9.424105
479.18        9.381173
479.62        9.565089
480.06        9.611945
480.50        9.617605
480.95        9.586034
481.39        9.523511
481.83        9.648482
482.27        9.676514
482.72        9.676464
483.16         9.85048
483.60        9.902926
484.04         9.89459
484.48        9.912464
484.93        10.06958
485.37         10.0247
485.81        10.13613
486.25        10.67977
486.69        10.18908
487.14        9.912108
487.58        10.79809
488.02        10.77754
488.46        10.60626
488.90        10.79616
489.34        10.43561
489.79        10.36359
490.23        10.67155
490.67        10.93323
491.11        11.17749
491.55        11.22017
491.99        11.11719
492.43        11.15242
492.88         11.3396
493.32        11.47286
493.76        11.53758
494.20         11.6469
494.64        11.80998
495.08        11.95842
495.52        12.08606
495.96        12.27871
496.41        12.54024
496.85        12.52811
497.29        12.34038
497.73        12.45482
498.17         12.8225
498.61        13.01242
499.05         12.9735
499.49         12.9519
499.93        12.99135
500.37        13.04585
500.82         13.1163
501.26         13.2307
501.70        13.39511
502.14        13.32711
502.58        13.49983
503.02        13.55581
503.46        13.58003
503.90        13.59512
504.34        13.60059
504.78        13.63889
505.22        13.70957
505.66        13.77666
506.10        13.84725
506.54         13.9699
506.98         14.1449
507.42        14.28716
507.86        14.47527
508.30        14.56811
508.74        14.58879
509.18        14.54766
509.62        14.48484
510.06        14.46543
510.50        14.50548
510.94        14.58735
511.38        14.68072
511.82        14.73559
512.26        14.73937
512.70        14.71245
513.14         14.6748
513.58        14.65088
514.02        14.65003
514.46        14.67213
514.90        14.71593
515.34        14.72904
515.78         14.7911
516.22        14.83381
516.66        14.87526
517.10        14.90032
517.54        14.90705
517.98        14.89854
518.42        14.87728
518.86        14.85183
519.30        14.82586
519.74        14.79637
520.18        14.77268
520.62        14.76749
521.06        14.78299
521.50        14.82019
521.93        14.85898
522.37        14.85805
522.81        14.81302
523.25        14.73001
523.69         14.6466
524.13         14.6236
524.57        14.66786
525.01        14.75683
525.45         14.8354
525.89        14.81635
526.32        14.68175
526.76        14.47246
527.20        14.24233
527.64        14.07921
528.08        14.00822
528.52          13.999
528.96        14.02812
529.40        14.05843
529.83        14.07157
530.27        14.07861
530.71        14.06389
531.15         14.0006
531.59         13.8897
532.03        13.74017
532.46        13.58395
532.90        13.48635
533.34        13.46022
533.78        13.48965
534.22        13.54954
534.66        13.59918
535.09        13.62352
535.53        13.63333
535.97        13.63352
536.41        13.63357
536.85        13.63674
537.28        13.63894
537.72        13.63619
538.16        13.62268
538.60        13.60116
539.04         13.5811
539.47        13.57117
539.91        13.59091
540.35         13.6398
540.79        13.71455
541.22        13.80284
541.66        13.88444
542.10          13.953
542.54        14.01466
542.97        14.07349
543.41        14.14516
543.85        14.23128
544.29        14.32684
544.72        14.42814
545.16        14.54338
545.60        14.66657
546.04        14.79727
546.47        14.93071
546.91        15.05282
547.35        15.16113
547.79        15.26704
548.22        15.37219
548.66         15.4792
549.10        15.59984
549.53        15.78723
549.97        16.02631
550.41        16.23787
550.84        16.40863
551.28        16.57983
551.72        16.74689
552.15        16.88302
552.59        16.99266
553.03        17.07724
553.46        17.15081
553.90        17.24919
554.34        17.37654
554.77        17.53106
555.21        17.69031
555.65        17.81714
556.08        17.88497
556.52        17.94596
556.96        18.00904
557.39         18.1149
557.83        18.25512
558.27        18.34098
558.70        18.37431
559.14        18.42731
559.57         18.4968
560.01        18.56546
560.45         18.6205
560.88        18.63243
561.32        18.64018
561.75        18.69523
562.19        18.79798
562.63        18.94025
563.06        19.07318
563.50        19.05775
563.93        18.93573
564.37        18.94331
564.80        19.08949
565.24        19.25825
565.68        19.41905
566.11        19.56702
566.55        19.69549
566.98        19.82092
567.42        19.94719
567.85        20.02477
568.29        20.09354
568.72        20.20446
569.16        20.35765
569.60        20.55727
570.03        20.81957
570.47        20.90308
570.90        21.03267
571.34        21.51334
571.77        21.52216
572.21        21.51006
572.64        21.72686
573.08        21.72195
573.51        22.10377
573.95        22.29467
574.38        22.34413
574.82          22.337
