SpectraSmart Spectrum 2.9.0.0
--------- Device Information -----------
Spectrum Name :  反射率_0
Saving Time :  2024/04/27 22:30:21
Spectro-Module Model Name : SE2030-DUVN
Spectro-Module Serial Number : OS361AC55029948
Wavelength Start : 200
Wavelength End : 1025
Wavelength Unit : Wavelength(nm)
Spectrum Unit : Reflectance(%)
-----------Spectrum Setting ------------
Integration Time : 20ms
Average : 10
Boxcar : 0
Background removal :  enabled
linearity correction :  enabled
SC :  disabled
Intensity correction :  disabled
DWT denoise :  enabled
savitzky-golay :  disabled
FFT :  disabled
Running average :  disabled
Kalman :  disabled
High pass :  disabled
---------------BEGIN--------------------
Wavelength(nm)             Reflectance(%)
200.29               0
200.75        30.74248
201.21        61.98312
201.67        81.92439
202.13        86.07561
202.58        80.21667
203.04        68.78063
203.50        57.64473
203.96        55.39346
204.42        61.80903
204.88        72.11501
205.34        81.42783
205.80        85.68235
206.26        84.56479
206.72        78.18418
207.18        66.82673
207.64        60.11744
208.10        64.93659
208.55        74.43619
209.01        80.73367
209.47        81.94109
209.93        78.04154
210.39        65.12635
210.85        23.14417
211.31       -34.36732
211.77        22.04652
212.23        62.28048
212.69        77.29515
213.14        83.08721
213.60        84.75482
214.06        84.89518
214.52        82.92456
214.98        78.46806
215.44        74.43912
215.90        71.72662
216.36        70.55553
216.81        70.62897
217.27        71.32765
217.73        72.75086
218.19        74.01909
218.65        73.37369
219.11        70.45763
219.57        65.72389
220.02        60.33187
220.48        58.48846
220.94        61.17068
221.40         66.3014
221.86        72.25094
222.32        77.64217
222.77        81.94637
223.23        85.39776
223.69        87.46662
224.15        87.49681
224.61        85.70181
225.06        82.29843
225.52        78.50846
225.98        76.51344
226.44        76.79708
226.90        78.18707
227.36        79.70772
227.81        80.55334
228.27          80.849
228.73        80.85658
229.19        80.52596
229.65        79.74168
230.10        78.53973
230.56        77.24401
231.02        76.18896
231.48         75.9711
231.93        76.50585
232.39        77.63511
232.85         78.9521
233.31        80.00008
233.77        80.62094
234.22        80.98254
234.68        80.99478
235.14        80.50024
235.60        79.53302
236.05        78.09789
236.51        76.51927
236.97        75.75421
237.43        76.15345
237.88        77.53661
238.34        79.08791
238.80        80.25964
239.26        80.91957
239.71        81.51169
240.17        81.27376
240.63        78.88757
241.08        75.06261
241.54        71.33352
242.00        69.37939
242.46        69.50437
242.91        71.61521
243.37        76.72872
243.83        87.81232
244.28        103.3776
244.74        107.3847
245.20        97.28968
245.66        85.13988
246.11        75.99194
246.57        67.25201
247.03        55.21791
247.48        39.47084
247.94        30.44708
248.40        38.24083
248.85        56.67073
249.31        74.81419
249.77        83.76783
250.22        84.76494
250.68        81.89278
251.14        78.14252
251.59        75.92783
252.05        75.38229
252.51        75.19047
252.96        74.60487
253.42        73.19794
253.88        71.09473
254.33        70.08606
254.79         69.6255
255.25        68.12073
255.70        65.84429
256.16        63.75661
256.62        63.46888
257.07        66.63781
257.53        72.20785
257.99         77.9785
258.44         81.8616
258.90        82.68259
259.35        80.65556
259.81          77.477
260.27         74.1286
260.72        71.77913
261.18        70.89804
261.63        70.59365
262.09        70.60963
262.55        70.19785
263.00        69.21881
263.46        68.13776
263.91        67.09187
264.37        66.67742
264.83        66.80027
265.28        67.14223
265.74        67.48996
266.19        67.30498
266.65        66.63707
267.11        65.60824
267.56         64.4054
268.02        63.43795
268.47        62.75405
268.93        62.25452
269.38        61.82645
269.84        61.34304
270.30        60.74215
270.75        60.07833
271.21        59.33858
271.66        58.42471
272.12         57.3762
272.57        56.17465
273.03        54.98928
273.48        53.98376
273.94        53.25771
274.39        52.69503
274.85         52.2291
275.31         51.6329
275.76          50.836
276.22        49.96427
276.67        49.04336
277.13        48.26071
277.58        47.57472
278.04        46.99997
278.49        46.40409
278.95        45.76043
279.40        44.99118
279.86        44.20279
280.31        43.40578
280.77        42.77544
281.22        42.26934
281.68        41.89783
282.13        41.53008
282.59        41.07699
283.04        40.48555
283.50        39.83189
283.95        39.16579
284.41        38.63584
284.86        38.24488
285.32        37.97001
285.77        37.73106
286.22        37.47276
286.68        37.18746
287.13        36.85604
287.59        36.51212
288.04         36.1099
288.50        35.69596
288.95        35.25253
289.41        34.84081
289.86        34.49118
290.32        34.24175
290.77        34.06638
291.22        33.96397
291.68        33.91961
292.13        33.90675
292.59        33.94125
293.04        34.00513
293.50        34.10424
293.95        34.22614
294.40        34.38298
294.86        34.56918
295.31        34.76793
295.77        34.98848
296.22        35.21626
296.68        35.49612
297.13        35.87247
297.58        36.34603
298.04        36.89194
298.49        37.42189
298.95        37.82859
299.40        38.08665
299.85        38.23555
300.31        38.37507
300.76        38.62451
301.21        39.02018
301.67         39.5227
302.12        40.02374
302.58        40.41498
303.03        40.64649
303.48        40.76865
303.94        40.87204
304.39        41.03511
304.84        41.29453
305.30        41.62383
305.75        41.92526
306.20        42.10287
306.66        42.15247
307.11        42.08112
307.57        41.99564
308.02        41.98546
308.47        42.08678
308.93        42.26353
309.38        42.41544
309.83        42.42591
310.29        42.28397
310.74        42.02133
311.19        41.72136
311.65        41.51064
312.10        41.40332
312.55        41.36117
313.00        41.34535
313.46        41.29749
313.91        41.18939
314.36        41.04973
314.82        40.86065
315.27        40.58788
315.72        40.24159
316.18        39.84296
316.63        39.45353
317.08        39.19519
317.53        39.09053
317.99         39.1007
318.44        39.15734
318.89        39.12869
319.35         38.9774
319.80        38.74136
320.25        38.46561
320.70        38.23222
321.16        38.05631
321.61        37.91172
322.06        37.77171
322.51        37.60076
322.97        37.38247
323.42        37.15224
323.87        36.89799
324.32        36.60569
324.78        36.27688
325.23        35.92018
325.68        35.58484
326.13        35.36094
326.59        35.25125
327.04        35.25718
327.49        35.27851
327.94        35.15716
328.39        34.85674
328.85        34.41348
329.30        33.94805
329.75        33.65187
330.20        33.58294
330.66        33.66756
331.11        33.82604
331.56        33.87342
332.01        33.75229
332.46        33.51247
332.92        33.19769
333.37        32.92459
333.82        32.72176
334.27          32.552
334.72        32.40419
335.17        32.26359
335.63        32.11509
336.08        31.99927
336.53         31.8859
336.98        31.72915
337.43        31.52935
337.88         31.2998
338.34        31.10201
338.79        31.04673
339.24         31.1503
339.69        31.37089
340.14        31.62473
340.59        31.77694
341.05        31.78588
341.50         31.6927
341.95        31.53476
342.40        31.38468
342.85         31.2691
343.30        31.16311
343.75        31.06863
344.20         30.9901
344.66        30.92998
345.11        30.89569
345.56        30.86436
346.01        30.79116
346.46        30.66825
346.91        30.50208
347.36        30.34482
347.81        30.27424
348.26        30.30791
348.72        30.43596
349.17        30.57683
349.62         30.6018
350.07        30.48361
350.52        30.24234
350.97        30.01523
351.42        30.02294
351.87        30.29155
352.32        30.74353
352.77        31.15538
353.22        31.18701
353.67        30.78199
354.13         30.0703
354.58        29.27892
355.03        28.82452
355.48        28.81149
355.93        29.11497
356.38        29.52234
356.83         29.6988
357.28        29.55696
357.73         29.2077
358.18        28.79366
358.63        28.53114
359.08        28.47403
359.53        28.53699
359.98        28.62385
360.43        28.59653
360.88        28.41751
361.33        28.13704
361.78        27.80993
362.23        27.55087
362.68        27.39571
363.13        27.24756
363.58        27.05563
364.03        27.07857
364.48        26.76042
364.93        26.55931
365.38        26.34412
365.83        26.17288
366.28         26.0497
366.73         25.9589
367.18        25.87579
367.63        25.74909
368.08        25.56861
368.53        25.35354
368.98        25.12315
369.43        24.90673
369.88        24.71845
370.33        24.55319
370.78        24.41331
371.23        24.30301
371.68        24.21714
372.13        24.14768
372.58        24.08663
373.03        24.02012
373.48        23.93977
373.93        23.84892
374.38         23.7287
374.83        23.55093
375.28        23.31952
375.72        23.04037
376.17        22.78342
376.62        22.61567
377.07        22.54891
377.52        22.55221
377.97        22.58341
378.42        22.57447
378.87        22.50354
379.32        22.39487
379.77        22.24847
380.22         22.0648
380.67        21.85165
381.11        21.60527
381.56        21.36798
382.01        21.21175
382.46        21.15237
382.91        21.17677
383.36        21.21699
383.81        21.16237
384.26         20.9924
384.71        20.73993
385.15        20.47806
385.60        20.35434
386.05        20.38497
386.50        20.52444
386.95        20.68711
387.40        20.74155
387.85        20.66042
388.29        20.47828
388.74        20.28963
389.19        20.17893
389.64        20.16135
390.09        20.19508
390.54        20.23634
390.98        20.21592
391.43        20.12746
391.88        20.00056
392.33        19.84805
392.78        19.71751
393.23        19.62957
393.67        19.48442
394.12        19.31862
394.57        19.41131
395.02        19.41601
395.47        19.29495
395.91        19.01886
396.36        18.92219
396.81         19.0311
397.26        19.17198
397.71        19.28195
398.15        19.34347
398.60        19.36013
399.05        19.26494
399.50        19.12237
399.95        19.14669
400.39        19.29082
400.84        19.25048
401.29        19.03037
401.74        18.83101
402.18        18.71356
402.63        18.71472
403.08        18.80356
403.53        18.81792
403.97        18.74669
404.42        18.70905
404.87        18.71117
405.32        18.72539
405.76        18.74783
406.21        18.73193
406.66         18.6979
407.11        18.77018
407.55        18.89877
408.00         18.8795
408.45        18.70197
408.90        18.41768
409.34        18.12766
409.79        18.07574
410.24        18.22345
410.68        18.27226
411.13        18.20152
411.58        18.19894
412.03        18.27975
412.47        18.36894
412.92        18.44787
413.37        18.54009
413.81        18.60493
414.26        18.59828
414.71         18.5133
415.15        18.36398
415.60        18.20409
416.05        18.14034
416.49        18.19946
416.94        18.34365
417.39        18.50826
417.83        18.59243
418.28        18.56355
418.73        18.44705
419.17        18.28795
419.62        18.16269
420.07        18.10545
420.51        18.10476
420.96        18.12645
421.41         18.1395
421.85        18.12936
422.30        18.02296
422.74         17.8994
423.19        18.10277
423.64        18.55447
424.08        18.75323
424.53        18.60918
424.98        18.51554
425.42        18.49063
425.87        18.18856
426.31        17.73897
426.76        17.71915
427.21        18.05033
427.65        18.07538
428.10        17.82522
428.54        17.80004
428.99        17.99704
429.44        18.30042
429.88        18.56071
430.33        18.32085
430.77         17.7764
431.22        17.72714
431.66        18.14206
432.11        18.42395
432.56        18.47598
433.00         18.4053
433.45         18.1135
433.89        17.77602
434.34        17.69027
434.78        16.89354
435.23        17.53208
435.67        18.15125
436.12        18.50789
436.57        18.62633
437.01         18.3827
437.46        18.24461
437.90        18.32204
438.35        18.48054
438.79        18.12699
439.24        17.98457
439.68        17.90567
440.13        17.84707
440.57        17.80547
441.02        17.92655
441.46        18.15353
441.91        18.07963
442.35         17.8119
442.80        18.04876
443.24        18.64445
443.69        18.65252
444.13        18.11236
444.58        17.86688
445.02         17.9305
445.47        17.86977
445.91        17.69955
446.36        17.66479
446.80        17.76567
447.24        17.92448
447.69        18.08718
448.13         18.2144
448.58        18.26134
449.02        18.15512
449.47        17.96606
449.91        17.88757
450.36        17.94914
450.80        18.05436
451.25         18.1601
451.69        18.22818
452.13        18.23416
452.58        18.17739
453.02        18.08023
453.47        17.98598
453.91        17.90853
454.36        17.86667
454.80        17.82979
455.24        17.73064
455.69        17.60856
456.13        17.50199
456.58        17.46055
457.02        17.62094
457.46        17.87975
457.91        17.90658
458.35        17.77638
458.79        17.72258
459.24        17.77312
459.68        17.76549
460.13        17.71663
460.57        17.62622
461.01        17.58101
461.46        17.59553
461.90        17.57502
462.34        17.56262
462.79        17.82465
463.23        17.87993
463.68        17.82649
464.12        17.78027
464.56         17.7659
465.01        17.82204
465.45        17.86623
465.89        17.76836
466.34        17.58914
466.78        17.43015
467.22        17.30069
467.67        17.57918
468.11        17.48396
468.55        17.45342
468.99        17.30507
469.44        17.29287
469.88        17.42228
470.32        17.54767
470.77        17.64093
471.21          17.713
471.65        17.75448
472.10        17.76449
472.54        17.74423
472.98        17.72465
473.42         17.7192
473.87        17.67104
474.31         17.6031
474.75        17.71458
475.20        17.94302
475.64        17.95033
476.08        17.75238
476.52        17.71125
476.97        17.85181
477.41        17.81174
477.85        17.75626
478.29        17.91781
478.74        17.84152
479.18        17.73793
479.62        18.05634
480.06        18.13245
480.50        18.15475
480.95        18.12123
481.39        18.03357
481.83        18.28434
482.27        18.32789
482.72        18.30073
483.16        18.59339
483.60         18.6621
484.04        18.64252
484.48        18.66244
484.93        18.86388
485.37        18.70053
485.81        18.98037
486.25        19.43635
486.69        18.95459
487.14         18.6857
487.58        19.54099
488.02        19.50452
488.46        19.70332
488.90        19.87536
489.34        19.29209
489.79         19.0177
490.23        19.55988
490.67        19.81306
491.11        19.93282
491.55        19.97006
491.99        19.97762
492.43        20.09139
492.88         20.3101
493.32        20.48771
493.76        20.60398
494.20        20.76427
494.64        20.98365
495.08        21.16035
495.52        21.28934
495.96        21.55924
496.41        21.93445
496.85        21.84984
497.29        21.46512
497.73        21.60999
498.17        22.19429
498.61        22.47439
499.05        22.36396
499.49        22.28189
499.93        22.30286
500.37        22.35265
500.82        22.42809
501.26         22.5764
501.70        22.80714
502.14        22.64229
502.58        22.89939
503.02         22.9916
503.46        23.06344
503.90        23.14127
504.34        23.20405
504.78        23.29158
505.22        23.39236
505.66        23.45453
506.10          23.495
506.54        23.60554
506.98        23.79375
507.42        23.91537
507.86        24.12032
508.30        24.19982
508.74        24.19956
509.18        24.13643
509.62        24.05302
510.06        24.01481
510.50        24.04095
510.94        24.11397
511.38        24.21756
511.82        24.32424
512.26        24.42052
512.70        24.51543
513.14        24.60053
513.58        24.65136
514.02        24.66476
514.46        24.66159
514.90        24.66358
515.34         24.6216
515.78        24.68655
516.22        24.73669
516.66        24.80333
517.10        24.86331
517.54        24.91005
517.98         24.9463
518.42        24.97194
518.86        24.99102
519.30        25.00313
519.74        25.00433
520.18        24.99338
520.62        24.96912
521.06        24.93406
521.50         24.8943
521.93        24.85345
522.37        24.80742
522.81        24.76094
523.25        24.71085
523.69        24.66894
524.13        24.65331
524.57         24.6622
525.01        24.68809
525.45        24.69949
525.89        24.64663
526.32        24.51966
526.76        24.34547
527.20        24.16173
527.64        24.03257
528.08        23.97468
528.52        23.96632
528.96        23.98539
529.40        23.99597
529.83        23.98252
530.27        23.95843
530.71        23.91683
531.15        23.84738
531.59         23.7536
532.03        23.63916
532.46        23.52412
532.90         23.4561
533.34        23.44057
533.78        23.46461
534.22        23.50748
534.66        23.53568
535.09        23.53626
535.53        23.52335
535.97        23.49811
536.41        23.46666
536.85        23.43442
537.28        23.40157
537.72        23.37612
538.16        23.36861
538.60         23.3833
539.04        23.42347
539.47        23.47872
539.91        23.54573
540.35        23.61534
540.79        23.69339
541.22        23.77459
541.66        23.85196
542.10        23.92487
542.54        23.99714
542.97        24.07416
543.41        24.17933
543.85        24.31233
544.29        24.46652
544.72        24.63083
545.16        24.80601
545.60        24.97914
546.04        25.14689
546.47         25.3042
546.91        25.43935
547.35        25.54876
547.79        25.65011
548.22        25.73845
548.66        25.79925
549.10        25.85439
549.53        26.00048
549.97        26.23196
550.41        26.44721
550.84        26.63482
551.28        26.85567
551.72        27.09018
552.15        27.27497
552.59        27.40881
553.03        27.49735
553.46        27.56766
553.90        27.68538
554.34        27.85611
554.77        28.07074
555.21        28.28387
555.65        28.42269
556.08        28.44601
556.52        28.44658
556.96        28.45206
557.39        28.54444
557.83        28.71504
558.27        28.82017
558.70         28.8609
559.14        28.94676
559.57        29.06872
560.01        29.19745
560.45        29.30487
560.88        29.33289
561.32        29.33868
561.75        29.40134
562.19         29.5287
562.63        29.71702
563.06        29.89235
563.50          29.833
563.93        29.59923
564.37        29.55169
564.80        29.70231
565.24        29.86564
565.68        30.01262
566.11        30.17113
566.55        30.33552
566.98        30.51652
567.42        30.69874
567.85        30.77421
568.29         30.7972
568.72        30.86665
569.16        31.01399
569.60        31.22167
570.03        31.50042
570.47        31.60579
570.90        31.90486
571.34        32.23254
571.77        32.42213
572.21        32.36573
572.64        32.62705
573.08        32.56419
573.51        32.74468
573.95        32.93161
574.38        33.04715
574.82        33.21129
