SpectraSmart Spectrum 2.9.0.0
--------- Device Information -----------
Spectrum Name :  反射率_0
Saving Time :  2024/04/27 23:00:04
Spectro-Module Model Name : SE2030-DUVN
Spectro-Module Serial Number : OS361AC55029948
Wavelength Start : 200
Wavelength End : 1025
Wavelength Unit : Wavelength(nm)
Spectrum Unit : Reflectance(%)
-----------Spectrum Setting ------------
Integration Time : 20ms
Average : 10
Boxcar : 0
Background removal :  enabled
linearity correction :  enabled
SC :  disabled
Intensity correction :  disabled
DWT denoise :  enabled
savitzky-golay :  disabled
FFT :  disabled
Running average :  disabled
Kalman :  disabled
High pass :  disabled
---------------BEGIN--------------------
Wavelength(nm)             Reflectance(%)
200.29               0
200.75       -0.526783
201.21        39.09046
201.67        65.47509
202.13        70.62482
202.58        62.08476
203.04        46.78594
203.50        31.86124
203.96        27.49974
204.42        33.82583
204.88        44.87209
205.34        55.49421
205.80         61.9149
206.26        63.94432
206.72        62.25898
207.18        56.70202
207.64        51.08344
208.10        49.95897
208.55         52.2841
209.01        52.51064
209.47        47.50134
209.93        34.16197
210.39      -0.5503066
210.85       -105.3507
211.31        -233.657
211.77       -83.05312
212.23        16.96898
212.69        51.96741
213.14         61.5597
213.60        58.80165
214.06        46.34554
214.52        22.32952
214.98        4.432037
215.44        11.99281
215.90        28.35076
216.36        42.02833
216.81        50.02666
217.27        53.97115
217.73        56.74783
218.19        57.66775
218.65        54.73688
219.11        47.65961
219.57        36.14441
220.02        23.35432
220.48        19.03798
220.94        25.61861
221.40        38.84282
221.86        52.33373
222.32        59.85079
222.77        61.55532
223.23         60.1091
223.69        57.75422
224.15        56.71236
224.61        57.36198
225.06        58.68893
225.52         60.4785
225.98        61.73009
226.44        61.97469
226.90        61.63746
227.36        60.92189
227.81        59.78688
228.27         58.2463
228.73        56.19583
229.19        53.58292
229.65        50.63257
230.10        47.70257
230.56        45.28743
231.02        43.60437
231.48        42.92786
231.93        43.09523
232.39        43.90997
232.85        45.19263
233.31        46.74211
233.77        48.35968
234.22        50.11171
234.68        51.36678
235.14        51.38948
235.60        50.10038
236.05        47.44286
236.51        44.51423
236.97        43.80829
237.43        46.21724
237.88        51.24798
238.34        56.40581
238.80        58.99765
239.26        58.25339
239.71        53.55867
240.17         45.0116
240.63        39.95267
241.08        44.96544
241.54        54.89313
242.00        62.66346
242.46         64.9959
242.91        62.20747
243.37        52.86188
243.83        31.99916
244.28         4.30886
244.74       0.7316087
245.20        22.91966
245.66        44.12033
246.11        52.89284
246.57        52.36649
247.03        45.48434
247.48        32.40809
247.94        22.82279
248.40        26.92965
248.85        37.91025
249.31        50.41373
249.77        61.01284
250.22        68.51398
250.68        73.85178
251.14        76.57648
251.59        75.91863
252.05        71.88475
252.51        63.34382
252.96         49.8365
253.42        38.11262
253.88        34.29658
254.33        37.04084
254.79        41.20563
255.25        42.38763
255.70        41.10892
256.16        39.58831
256.62        39.27829
257.07         41.5815
257.53        45.77613
257.99        50.00062
258.44        53.18684
258.90        54.86443
259.35         54.9688
259.81        54.37904
260.27        53.18526
260.72        51.48333
261.18        49.81868
261.63        48.09348
262.09        46.65759
262.55        45.55725
263.00        44.70182
263.46        44.11448
263.91        43.71802
264.37        43.69271
264.83        43.89447
265.28        44.20821
265.74        44.40356
266.19        44.00773
266.65         43.0809
267.11        41.75946
267.56        40.35485
268.02        39.46171
268.47        39.15591
268.93        39.23874
269.38        39.46717
269.84        39.48128
270.30        39.15133
270.75        38.60434
271.21        37.84097
271.66        36.81057
272.12        35.59993
272.57        34.21864
273.03        32.93214
273.48        32.08068
273.94        31.76126
274.39        31.80578
274.85        32.02492
275.31        32.06281
275.76        31.80757
276.22        31.38863
276.67         30.8318
277.13        30.27135
277.58        29.70844
278.04        29.15453
278.49        28.58529
278.95        28.08275
279.40        27.60967
279.86        27.21503
280.31        26.85721
280.77         26.5748
281.22        26.32805
281.68        26.15578
282.13        25.99099
282.59        25.78688
283.04        25.52004
283.50        25.20672
283.95        24.91466
284.41        24.78687
284.86        24.81707
285.32        24.97044
285.77        25.09288
286.22        24.99677
286.68        24.67327
287.13        24.16138
287.59        23.63935
288.04        23.30345
288.50        23.22637
288.95        23.31838
289.41        23.46532
289.86        23.45199
290.32        23.25603
290.77        22.94267
291.22        22.64239
291.68        22.54107
292.13        22.66654
292.59        22.96317
293.04        23.31771
293.50        23.58194
293.95        23.71043
294.40        23.76665
294.86        23.83332
295.31        24.02817
295.77        24.38984
296.22         24.8634
296.68        25.40242
297.13        25.91227
297.58        26.36521
298.04        26.78123
298.49        27.17784
298.95        27.59223
299.40        28.03003
299.85        28.47285
300.31        28.92146
300.76        29.34239
301.21         29.7363
301.67        30.11873
302.12        30.46825
302.58        30.78709
303.03        31.06361
303.48        31.30479
303.94        31.55995
304.39        31.85958
304.84        32.22007
305.30        32.63275
305.75         33.0167
306.20        33.28575
306.66        33.43506
307.11        33.46191
307.57        33.46408
308.02        33.53215
308.47         33.6973
308.93        33.92406
309.38        34.10986
309.83        34.12282
310.29        33.95445
310.74        33.64806
311.19        33.30735
311.65        33.09216
312.10         33.0255
312.55        33.05771
313.00          33.132
313.46         33.1615
313.91        33.10939
314.36        33.00809
314.82        32.84241
315.27         32.5832
315.72        32.24306
316.18        31.84049
316.63        31.43824
317.08        31.15963
317.53        31.03004
317.99        31.01451
318.44        31.05139
318.89        31.01796
319.35        30.88034
319.80         30.6761
320.25        30.44386
320.70        30.25367
321.16        30.11827
321.61        30.01179
322.06        29.91584
322.51        29.80914
322.97        29.67653
323.42        29.54161
323.87        29.37839
324.32        29.14938
324.78        28.85067
325.23        28.49618
325.68         28.1431
326.13         27.8932
326.59        27.75813
327.04         27.7339
327.49         27.7307
327.94        27.60583
328.39        27.32175
328.85        26.90932
329.30        26.46751
329.75        26.16087
330.20        26.04185
330.66        26.05788
331.11        26.12691
331.56        26.06563
332.01        25.82897
332.46        25.47028
332.92        25.09176
333.37        24.89543
333.82        24.92459
334.27        25.10596
334.72         25.3352
335.17        25.44439
335.63        25.37318
336.08        25.19451
336.53        24.93419
336.98        24.64742
337.43        24.37405
337.88        24.10042
338.34        23.88352
338.79        23.82163
339.24        23.92449
339.69        24.16252
340.14        24.43893
340.59        24.58805
341.05        24.56324
341.50        24.41382
341.95        24.19021
342.40        23.98969
342.85        23.84675
343.30        23.72692
343.75        23.63787
344.20        23.59244
344.66        23.58983
345.11        23.63683
345.56        23.68339
346.01        23.63921
346.46        23.49218
346.91        23.26492
347.36        23.04502
347.81        22.97029
348.26        23.06346
348.72        23.27881
349.17        23.51217
349.62        23.59608
350.07         23.4894
350.52        23.23994
350.97        22.95096
351.42        22.78763
351.87        22.79046
352.32        22.90864
352.77        23.04193
353.22        23.04073
353.67        22.87184
354.13        22.59492
354.58        22.28506
355.03        22.10921
355.48        22.10645
355.93        22.23114
356.38        22.37062
356.83        22.35098
357.28        22.14083
357.73        21.80195
358.18        21.46036
358.63        21.30985
359.08         21.3846
359.53        21.60764
359.98        21.85836
360.43        21.95115
360.88        21.83737
361.33        21.57709
361.78        21.23372
362.23        20.94659
362.68        20.76667
363.13        20.58782
363.58        20.38331
364.03        20.47935
364.48         20.2717
364.93        20.24272
365.38        20.20512
365.83        20.14993
366.28        20.06467
366.73        19.95528
367.18         19.8215
367.63        19.65378
368.08        19.45732
368.53        19.23621
368.98        19.01666
369.43        18.83821
369.88          18.714
370.33        18.64378
370.78        18.59721
371.23        18.52278
371.68        18.40491
372.13        18.24551
372.58        18.09334
373.03        18.02877
373.48        18.06264
373.93        18.17303
374.38        18.26256
374.83        18.17912
375.28        17.90264
375.72        17.47742
376.17        17.06179
376.62        16.86511
377.07        16.92388
377.52        17.15214
377.97        17.41699
378.42        17.51002
378.87        17.38003
379.32        17.10979
379.77        16.76349
380.22        16.43413
380.67        16.16233
381.11        15.91722
381.56        15.73557
382.01        15.68032
382.46        15.75144
382.91        15.93162
383.36        16.12766
383.81        16.18924
384.26        16.08187
384.71        15.84115
385.15        15.54513
385.60        15.35278
386.05        15.29525
386.50        15.33789
386.95        15.41343
387.40        15.41569
387.85        15.32751
388.29        15.18183
388.74        15.06883
389.19        15.07796
389.64        15.21582
390.09        15.43101
390.54        15.64769
390.98        15.74598
391.43        15.70178
391.88        15.56037
392.33        15.35993
392.78        15.18016
393.23        15.05318
393.67        14.89313
394.12        14.73065
394.57        14.77849
395.02        14.76931
395.47        14.67473
395.91        14.46692
396.36        14.38704
396.81        14.45089
397.26        14.53033
397.71        14.57459
398.15        14.56682
398.60         14.5134
399.05        14.36836
399.50        14.19664
399.95        14.18009
400.39        14.28697
400.84        14.28624
401.29        14.16414
401.74        14.03892
402.18          13.947
402.63        13.92371
403.08        13.96054
403.53        13.96256
403.97        13.92714
404.42        13.93144
404.87        13.96551
405.32         13.9874
405.76        13.98849
406.21        13.94123
406.66        13.87114
407.11        13.88476
407.55        13.95034
408.00        13.91607
408.45        13.76952
408.90        13.54022
409.34        13.30213
409.79         13.2378
410.24        13.33048
410.68        13.38004
411.13         13.3716
411.58        13.43378
412.03        13.55639
412.47        13.64705
412.92        13.68243
413.37        13.69497
413.81        13.67496
414.26        13.61983
414.71        13.53308
415.15        13.41443
415.60         13.3047
416.05        13.28022
416.49         13.3573
416.94        13.51181
417.39        13.67847
417.83        13.75521
418.28        13.71291
418.73        13.57356
419.17        13.40051
419.62        13.30229
420.07        13.31101
420.51         13.4002
420.96        13.50068
421.41        13.52196
421.85        13.44432
422.30        13.24434
422.74        13.02433
423.19        13.09451
423.64        13.41125
424.08         13.5954
424.53         13.5585
424.98         13.5524
425.42          13.575
425.87        13.37981
426.31        13.05863
426.76         13.0391
427.21        13.26037
427.65        13.23551
428.10        12.99096
428.54        12.89882
428.99        12.96477
429.44        13.11836
429.88        13.25324
430.33         13.0458
430.77        12.63536
431.22        12.58129
431.66        12.88565
432.11        13.15093
432.56        13.30731
433.00        13.46591
433.45        13.47356
433.89        13.19378
434.34        12.88046
434.78        12.13052
435.23        12.53102
435.67         12.9092
436.12        13.11114
436.57        13.26073
437.01        13.22354
437.46        13.19382
437.90        13.23129
438.35        13.27685
438.79        12.94549
439.24        12.82246
439.68        12.81462
440.13         12.8651
440.57        12.92802
441.02        13.04795
441.46        13.17175
441.91        13.01665
442.35        12.70986
442.80        12.83402
443.24        13.27758
443.69        13.28268
444.13        12.86673
444.58        12.67129
445.02        12.70114
445.47        12.62748
445.91         12.4609
446.36        12.39292
446.80        12.42707
447.24        12.50249
447.69        12.59755
448.13        12.71419
448.58           12.82
449.02        12.85456
449.47        12.82906
449.91        12.82245
450.36        12.84417
450.80        12.84456
451.25        12.82975
451.69        12.83243
452.13        12.84999
452.58        12.86345
453.02        12.86294
453.47        12.83896
453.91         12.7884
454.36        12.73751
454.80         12.6767
455.24        12.57794
455.69        12.47561
456.13         12.3895
456.58        12.34742
457.02        12.43507
457.46        12.57889
457.91        12.55361
458.35        12.42453
458.79        12.36789
459.24        12.40587
459.68        12.41892
460.13        12.41335
460.57        12.37869
461.01        12.37259
461.46        12.40698
461.90        12.41382
462.34        12.42107
462.79        12.61608
463.23        12.65863
463.68        12.62085
464.12        12.59378
464.56        12.59508
465.01         12.6515
465.45        12.69709
465.89        12.63109
466.34        12.49541
466.78         12.3635
467.22        12.24988
467.67        12.43452
468.11        12.36749
468.55        12.35633
468.99        12.26053
469.44        12.24192
469.88        12.30108
470.32         12.3416
470.77         12.3614
471.21        12.39497
471.65        12.44311
472.10        12.49769
472.54        12.54202
472.98        12.56957
473.42        12.58299
473.87        12.54942
474.31        12.50098
474.75        12.60599
475.20        12.82391
475.64        12.90242
476.08        12.82938
476.52        12.83499
476.97        12.93293
477.41         12.8711
477.85        12.78769
478.29        12.88002
478.74        12.83009
479.18        12.77969
479.62        13.04076
480.06        13.11697
480.50         13.1369
480.95        13.10202
481.39        13.02128
481.83        13.19108
482.27        13.22371
482.72        13.21863
483.16        13.44273
483.60        13.48693
484.04        13.44262
484.48        13.38993
484.93        13.50442
485.37        13.43966
485.81         13.7259
486.25        14.27599
486.69        13.90284
487.14        13.35298
487.58        14.64224
488.02        14.01378
488.46        14.45928
488.90        14.57793
489.34        14.04644
489.79         13.8627
490.23        14.27965
490.67        14.60268
491.11        14.85217
491.55         14.8189
491.99        14.59687
492.43        14.61519
492.88        14.90047
493.32        15.15973
493.76        15.32843
494.20        15.49087
494.64        15.64528
495.08        15.71804
495.52        15.74879
495.96        15.93784
496.41        16.29075
496.85        16.35176
497.29        16.19924
497.73        16.39745
498.17        16.86709
498.61        17.06125
499.05        16.93818
499.49        16.85764
499.93        16.88895
500.37        16.95949
500.82        17.06276
501.26        17.22847
501.70        17.45779
502.14        17.38407
502.58        17.62268
503.02        17.70386
503.46        17.73589
503.90        17.74664
504.34        17.72975
504.78         17.7335
505.22        17.75896
505.66        17.76553
506.10         17.7758
506.54        17.87185
506.98        18.05974
507.42        18.22678
507.86        18.46739
508.30         18.5899
508.74        18.61907
509.18        18.57134
509.62        18.49592
510.06        18.47263
510.50        18.52253
510.94        18.62321
511.38        18.74089
511.82        18.82163
512.26        18.84946
512.70        18.84361
513.14         18.8255
513.58        18.81954
514.02        18.83444
514.46        18.87467
514.90        18.92929
515.34        18.91591
515.78        18.93884
516.22        18.91673
516.66        18.90156
517.10        18.91918
517.54        18.97469
517.98         19.0577
518.42        19.13675
518.86        19.16537
519.30        19.13335
519.74        19.05379
520.18        18.96382
520.62        18.92138
521.06        18.93925
521.50        19.00112
521.93        19.06965
522.37        19.07555
522.81        19.00734
523.25        18.88611
523.69        18.75378
524.13        18.67562
524.57        18.66483
525.01        18.69724
525.45        18.73516
525.89         18.7194
526.32        18.63348
526.76        18.50844
527.20        18.36774
527.64        18.25082
528.08        18.17085
528.52         18.1107
528.96        18.07233
529.40        18.05949
529.83        18.06581
530.27        18.09324
530.71        18.10947
531.15        18.06221
531.59        17.94615
532.03        17.77815
532.46        17.60646
532.90        17.52215
533.34        17.53994
533.78        17.63114
534.22        17.74661
534.66        17.81057
535.09        17.80235
535.53        17.74948
535.97        17.67734
536.41        17.62843
536.85        17.61694
537.28        17.62892
537.72        17.65665
538.16        17.68635
538.60        17.71474
539.04        17.75424
539.47        17.80005
539.91        17.85368
540.35        17.91044
540.79           17.97
541.22        18.03659
541.66        18.11885
542.10        18.21656
542.54        18.32908
542.97        18.43955
543.41        18.53327
543.85        18.60546
544.29        18.66135
544.72        18.72113
545.16        18.83151
545.60        18.99298
546.04        19.19214
546.47        19.39672
546.91        19.54969
547.35        19.63818
547.79        19.69028
548.22        19.73295
548.66        19.80436
549.10        19.92871
549.53        20.16265
549.97        20.46831
550.41        20.71331
550.84        20.87508
551.28        21.01941
551.72        21.15997
552.15        21.29314
552.59        21.43049
553.03        21.55989
553.46        21.68451
553.90        21.82953
554.34        21.99155
554.77        22.17302
555.21        22.34416
555.65        22.45571
556.08        22.47891
556.52         22.4844
556.96        22.49279
557.39        22.56873
557.83        22.70527
558.27        22.78857
558.70        22.82344
559.14        22.90149
559.57        23.01543
560.01         23.1415
560.45        23.24697
560.88        23.26961
561.32        23.25486
561.75        23.27363
562.19        23.34769
562.63        23.49957
563.06        23.67476
563.50        23.68772
563.93        23.57116
564.37        23.58752
564.80        23.74033
565.24          23.896
565.68        24.02617
566.11        24.13876
566.55        24.23184
566.98         24.3227
567.42        24.41892
567.85        24.46277
568.29        24.50562
568.72        24.61881
569.16        24.80282
569.60        25.02617
570.03        25.29289
570.47        25.37179
570.90        25.57211
571.34        25.96322
571.77        26.09134
572.21        26.13573
572.64        26.48193
573.08        26.35931
573.51        26.57732
573.95        26.67869
574.38        26.74484
574.82        27.08143
