SpectraSmart Spectrum 2.9.0.0
--------- Device Information -----------
Spectrum Name :  反射率_0
Saving Time :  2024/04/27 22:13:48
Spectro-Module Model Name : SE2030-DUVN
Spectro-Module Serial Number : OS361AC55029948
Wavelength Start : 200
Wavelength End : 1025
Wavelength Unit : Wavelength(nm)
Spectrum Unit : Reflectance(%)
-----------Spectrum Setting ------------
Integration Time : 20ms
Average : 10
Boxcar : 0
Background removal :  enabled
linearity correction :  enabled
SC :  disabled
Intensity correction :  disabled
DWT denoise :  enabled
savitzky-golay :  disabled
FFT :  disabled
Running average :  disabled
Kalman :  disabled
High pass :  disabled
---------------BEGIN--------------------
Wavelength(nm)             Reflectance(%)
200.29               0
200.75       -60.51054
201.21       -15.85478
201.67        18.98293
202.13        31.22341
202.58        28.91566
203.04        19.59418
203.50        11.09653
203.96        13.40951
204.42        25.54993
204.88        41.16616
205.34        54.63005
205.80        61.82922
206.26        62.67776
206.72        57.42934
207.18        45.18186
207.64        33.04081
208.10        30.22275
208.55        34.42203
209.01        36.52613
209.47        31.52134
209.93          15.776
210.39       -25.94273
210.85         -153.65
211.31       -317.2134
211.77       -138.8867
212.23       -16.37838
212.69        27.25142
213.14        39.71695
213.60        37.28616
214.06        23.60243
214.52       -2.925373
214.98       -21.51867
215.44       -11.11672
215.90        8.496744
216.36        24.00673
216.81        32.03492
217.27        34.58476
217.73        35.10698
218.19        33.52361
218.65        28.81028
219.11        21.16788
219.57        10.32192
220.02      -0.9121985
220.48       -3.616156
220.94        3.903096
221.40        17.14302
221.86        30.77764
222.32        39.75936
222.77        43.95996
223.23        45.40829
223.69        44.78066
224.15        42.43381
224.61         38.8676
225.06        33.76318
225.52        29.33077
225.98        29.38177
226.44        33.53299
226.90        39.06192
227.36        43.51945
227.81        45.09181
228.27        44.00084
228.73        41.04303
229.19        36.63779
229.65        31.95678
230.10        27.86852
230.56        24.52506
231.02        22.26595
231.48        21.52974
231.93        22.09788
232.39        23.80139
232.85        26.00631
233.31        27.76905
233.77         28.8782
234.22        29.68097
234.68        30.10235
235.14        30.29403
235.60        30.33666
236.05        29.94027
236.51        29.79305
236.97        31.09496
237.43        34.05769
237.88        38.49003
238.34        42.47873
238.80         44.1389
239.26        42.96436
239.71        38.11414
240.17        30.04869
240.63        26.36098
241.08        33.21366
241.54        44.83567
242.00        54.04668
242.46         58.2478
242.91        58.46306
243.37         54.3669
243.83        43.58838
244.28        29.53592
244.74         28.9572
245.20         41.6118
245.66        51.48962
246.11        50.99611
246.57          40.559
247.03        19.40713
247.48        -13.3999
247.94        -37.4314
248.40       -29.72242
248.85       -2.739477
249.31        27.44601
249.77        48.51386
250.22        59.49338
250.68         64.7925
251.14         66.1402
251.59        64.49864
252.05        60.20518
252.51        51.54283
252.96        38.29271
253.42         27.8839
253.88        26.20506
254.33        31.43089
254.79         37.4818
255.25         39.6874
255.70        38.80522
256.16        37.09652
256.62        36.47797
257.07        38.83738
257.53        43.28865
257.99        47.78054
258.44          50.838
258.90        51.57077
259.35        50.17186
259.81        47.88531
260.27        45.26217
260.72        42.93904
261.18        41.35744
261.63        40.10446
262.09        39.22498
262.55        38.50419
263.00        37.82033
263.46        37.30236
263.91        36.87994
264.37        36.69455
264.83        36.64802
265.28        36.63712
265.74        36.55598
266.19        36.14555
266.65        35.44685
267.11        34.52792
267.56        33.51816
268.02        32.70902
268.47         32.1401
268.93        31.74208
269.38        31.44952
269.84        31.17188
270.30        30.85579
270.75        30.52113
271.21        30.11345
271.66        29.51254
272.12         28.7306
272.57        27.77525
273.03        26.79162
273.48        25.93993
273.94        25.31327
274.39        24.85193
274.85         24.5023
275.31        24.12295
275.76        23.66788
276.22        23.18846
276.67        22.73201
277.13        22.43003
277.58        22.25444
278.04        22.19397
278.49        22.08776
278.95         21.7941
279.40        21.26791
279.86        20.62803
280.31        20.01324
280.77        19.71774
281.22        19.74262
281.68        20.00112
282.13        20.30299
282.59        20.41315
283.04        20.27727
283.50        19.98224
283.95        19.63263
284.41        19.41116
284.86        19.34837
285.32        19.39118
285.77        19.44659
286.22        19.40755
286.68        19.26795
287.13        19.04933
287.59        18.84098
288.04        18.70667
288.50        18.68958
288.95        18.74322
289.41        18.83395
289.86        18.87805
290.32        18.87577
290.77        18.85212
291.22        18.85965
291.68        18.97193
292.13        19.19494
292.59        19.50627
293.04        19.86396
293.50        20.22489
293.95        20.56406
294.40        20.90561
294.86        21.25187
295.31        21.60063
295.77        21.96386
296.22        22.32498
296.68        22.71814
297.13        23.17609
297.58        23.70199
298.04        24.27642
298.49        24.84136
298.95        25.31821
299.40        25.69119
299.85        25.97929
300.31        26.25736
300.76        26.60881
301.21        27.05536
301.67        27.56498
302.12        28.04153
302.58        28.37371
303.03        28.53328
303.48          28.575
303.94        28.60605
304.39        28.74434
304.84        29.02896
305.30        29.41966
305.75        29.81823
306.20        30.10925
306.66        30.27322
307.11        30.31877
307.57         30.3311
308.02        30.38209
308.47        30.50233
308.93        30.66091
309.38        30.77455
309.83        30.74096
310.29         30.5551
310.74        30.24603
311.19        29.91057
311.65        29.69683
312.10        29.62289
312.55        29.64973
313.00         29.6992
313.46        29.64964
313.91        29.46742
314.36        29.19639
314.82        28.88029
315.27        28.58518
315.72        28.33815
316.18         28.1233
316.63        27.92769
317.08        27.75375
317.53        27.59499
317.99        27.44967
318.44        27.30969
318.89        27.14288
319.35        26.94329
319.80        26.72096
320.25        26.48447
320.70        26.25612
321.16        26.03692
321.61        25.82357
322.06        25.61985
322.51        25.43399
322.97        25.26251
323.42        25.11826
323.87        24.96514
324.32        24.75001
324.78        24.46247
325.23        24.11597
325.68        23.77451
326.13        23.55006
326.59        23.45385
327.04        23.47287
327.49        23.49999
327.94        23.36463
328.39        23.02505
328.85        22.52558
329.30        21.98419
329.75         21.6067
330.20        21.46011
330.66        21.48203
331.11        21.57929
331.56        21.55347
332.01        21.34788
332.46        21.01661
332.92        20.65139
333.37        20.42914
333.82        20.39293
334.27        20.47952
334.72        20.59686
335.17        20.59938
335.63        20.43981
336.08        20.18432
336.53        19.87851
336.98        19.60559
337.43        19.40334
337.88        19.24652
338.34        19.14511
338.79        19.11626
339.24        19.15276
339.69        19.24899
340.14        19.35235
340.59         19.3744
341.05        19.29171
341.50         19.1275
341.95        18.91925
342.40        18.74037
342.85        18.61419
343.30        18.52203
343.75        18.44583
344.20        18.35537
344.66        18.24615
345.11        18.12962
345.56        18.01926
346.01        17.92967
346.46        17.86335
346.91        17.81029
347.36        17.76595
347.81        17.72272
348.26        17.68048
348.72        17.64849
349.17        17.61727
349.62        17.57027
350.07        17.50289
350.52        17.40425
350.97         17.3198
351.42        17.32337
351.87        17.41805
352.32        17.58313
352.77        17.70951
353.22        17.63064
353.67        17.32827
354.13        16.87523
354.58        16.40264
355.03        16.17085
355.48        16.23942
355.93        16.53069
356.38        16.89239
356.83        17.08514
357.28        17.04456
357.73        16.83923
358.18        16.57496
358.63        16.41826
359.08        16.40667
359.53        16.47625
359.98        16.54412
360.43        16.48677
360.88        16.28086
361.33         15.9825
361.78        15.65138
362.23        15.41482
362.68        15.31583
363.13        15.24405
363.58         15.1627
364.03        15.40572
364.48        15.31845
364.93        15.40279
365.38        15.45116
365.83        15.44766
366.28        15.37976
366.73        15.26191
367.18        15.09741
367.63        14.88066
368.08        14.62799
368.53        14.35094
368.98        14.10171
369.43        13.95898
369.88        13.93833
370.33        14.01941
370.78        14.13865
371.23        14.19029
371.68        14.13775
372.13        13.99552
372.58         13.8116
373.03        13.66872
373.48        13.59266
373.93        13.57176
374.38        13.54519
374.83        13.41683
375.28        13.17912
375.72        12.86058
376.17        12.59512
376.62        12.55107
377.07        12.74468
377.52        13.09521
377.97        13.45609
378.42        13.60023
378.87        13.47776
379.32        13.17726
379.77         12.7879
380.22        12.44488
380.67        12.19772
381.11        12.00172
381.56        11.88223
382.01          11.879
382.46        11.98296
382.91        12.18859
383.36        12.39182
383.81        12.42437
384.26         12.2559
384.71        11.92883
385.15        11.56073
385.60        11.37179
386.05        11.40235
386.50        11.59556
386.95        11.83585
387.40        11.94008
387.85        11.87222
388.29        11.69147
388.74         11.5188
389.19         11.4958
389.64         11.6419
390.09         11.8906
390.54        12.14907
390.98        12.27168
391.43        12.22592
391.88        12.07053
392.33        11.85893
392.78        11.68479
393.23        11.58047
393.67        11.46574
394.12        11.35717
394.57        11.40771
395.02        11.40773
395.47        11.34176
395.91        11.18511
396.36        11.11678
396.81         11.1503
397.26        11.18845
397.71        11.20549
398.15        11.20898
398.60        11.20414
399.05        11.14582
399.50         11.0676
399.95        11.08791
400.39        11.17735
400.84        11.16242
401.29        11.04087
401.74        10.92011
402.18        10.83457
402.63        10.80838
403.08        10.83525
403.53        10.84224
403.97        10.82663
404.42        10.84885
404.87        10.89679
405.32        10.93002
405.76        10.93931
406.21        10.90273
406.66         10.8449
407.11        10.85684
407.55        10.91605
408.00          10.904
408.45        10.80293
408.90        10.62258
409.34        10.41986
409.79        10.34292
410.24        10.39481
410.68        10.44506
411.13        10.48609
411.58        10.61022
412.03        10.78657
412.47        10.90229
412.92        10.92539
413.37        10.89094
413.81        10.81625
414.26        10.73662
414.71        10.66325
415.15        10.58707
415.60        10.51606
416.05         10.4674
416.49        10.44708
416.94        10.45303
417.39        10.47277
417.83        10.48405
418.28        10.47433
418.73         10.4416
419.17        10.39655
419.62        10.36097
420.07        10.34484
420.51        10.35111
420.96        10.35282
421.41        10.32206
421.85        10.25398
422.30        10.11157
422.74        9.968618
423.19        10.05897
423.64        10.34558
424.08         10.5442
424.53        10.55822
424.98        10.54183
425.42         10.4875
425.87        10.21582
426.31         9.84973
426.76        9.796591
427.21        10.02687
427.65        10.15343
428.10        10.12618
428.54        10.13326
428.99         10.1597
429.44        10.17828
429.88        10.16173
430.33        9.953456
430.77        9.676227
431.22         9.72543
431.66        10.05946
432.11        10.29181
432.56         10.3463
433.00        10.33405
433.45        10.19235
433.89        9.917108
434.34        9.727384
434.78        9.275218
435.23        9.725069
435.67        10.11992
436.12        10.31135
436.57        10.41422
437.01        10.34701
437.46        10.29684
437.90        10.32162
438.35        10.36241
438.79        10.10511
439.24        9.989729
439.68         9.94016
440.13        9.923782
440.57        9.921259
441.02         9.98877
441.46        10.09119
441.91        10.00145
442.35        9.802656
442.80        9.926187
443.24         10.2837
443.69        10.29313
444.13        9.970613
444.58        9.820339
445.02        9.846814
445.47        9.792365
445.91        9.664701
446.36        9.615311
446.80        9.646971
447.24        9.715836
447.69        9.799088
448.13        9.890596
448.58        9.964605
449.02        9.977921
449.47        9.951463
449.91        9.967507
450.36        10.03343
450.80        10.09922
451.25          10.151
451.69        10.18737
452.13        10.19814
452.58        10.17741
453.02        10.12353
453.47        10.03932
453.91        9.930555
454.36         9.81966
454.80        9.710542
455.24         9.60003
455.69        9.518534
456.13        9.475689
456.58        9.482805
457.02        9.589143
457.46         9.73101
457.91        9.733717
458.35        9.646246
458.79        9.603537
459.24         9.62499
459.68        9.620149
460.13        9.595296
460.57        9.544216
461.01        9.514497
461.46         9.51363
461.90        9.501163
462.34        9.516233
462.79        9.701692
463.23        9.790063
463.68        9.809182
464.12        9.789187
464.56         9.73824
465.01        9.696597
465.45        9.637638
465.89        9.521565
466.34        9.390746
466.78         9.28872
467.22        9.223602
467.67        9.401167
468.11        9.400684
468.55        9.455034
468.99        9.443192
469.44        9.468278
469.88        9.525526
470.32        9.541115
470.77        9.527369
471.21        9.536485
471.65        9.576294
472.10        9.635082
472.54        9.684843
472.98        9.695412
473.42        9.665638
473.87         9.58086
474.31        9.487058
474.75        9.544729
475.20        9.728148
475.64        9.834541
476.08        9.829405
476.52        9.852637
476.97        9.908191
477.41        9.814631
477.85        9.696817
478.29        9.735547
478.74        9.699697
479.18        9.685715
479.62        9.920828
480.06        10.01362
480.50        10.05688
480.95        10.05863
481.39        10.02385
481.83        10.18081
482.27         10.2298
482.72        10.24041
483.16        10.43172
483.60        10.49937
484.04         10.5011
484.48        10.54286
484.93        10.74804
485.37        10.67587
485.81         10.6732
486.25        11.35672
486.69        10.75744
487.14        10.36538
487.58        11.26703
488.02        11.45621
488.46        11.22469
488.90        11.53636
489.34         11.2316
489.79        11.15417
490.23        11.41279
490.67        11.64847
491.11        11.90923
491.55        11.94665
491.99        11.82396
492.43        11.86847
492.88        12.09387
493.32        12.27364
493.76        12.38085
494.20        12.51688
494.64        12.68692
495.08        12.82506
495.52         12.9284
495.96        13.09579
496.41        13.33206
496.85        13.28146
497.29        13.06205
497.73         13.1868
498.17        13.61209
498.61         13.9056
499.05        13.97839
499.49        14.01319
499.93        14.04511
500.37        14.05532
500.82        14.07126
501.26        14.15996
501.70        14.34089
502.14        14.30126
502.58        14.53104
503.02         14.6202
503.46        14.65158
503.90        14.65621
504.34        14.64648
504.78        14.68807
505.22        14.78456
505.66        14.89039
506.10         14.9927
506.54        15.11334
506.98        15.24773
507.42        15.31469
507.86        15.42952
508.30        15.48903
508.74        15.53042
509.18        15.55424
509.62        15.56992
510.06        15.59194
510.50         15.6242
510.94        15.66192
511.38        15.71078
511.82        15.77896
512.26        15.86309
512.70        15.96104
513.14        16.04688
513.58        16.07203
514.02        16.02959
514.46        15.94699
514.90        15.86494
515.34        15.79389
515.78        15.84159
516.22         15.9167
516.66        16.01877
517.10            16.1
517.54        16.14519
517.98        16.16471
518.42        16.16682
518.86        16.16804
519.30        16.17236
519.74        16.17118
520.18        16.15985
520.62        16.13282
521.06        16.09173
521.50        16.04586
521.93        16.00192
522.37        15.96048
522.81        15.92704
523.25        15.89693
523.69        15.87935
524.13        15.88869
524.57        15.92168
525.01        15.97099
525.45        16.00628
525.89        15.97973
526.32        15.88201
526.76        15.73759
527.20        15.58136
527.64        15.47295
528.08        15.42729
528.52        15.42216
528.96        15.43959
529.40        15.45028
529.83        15.44097
530.27        15.42268
530.71        15.38159
531.15        15.29467
531.59        15.16496
532.03        15.00162
532.46         14.8415
532.90        14.75631
533.34        14.75707
533.78        14.82359
534.22        14.91728
534.66         14.9772
535.09        14.98531
535.53        14.96029
535.97        14.91988
536.41        14.89478
536.85         14.8947
537.28        14.90915
537.72        14.92975
538.16        14.94264
538.60        14.94615
539.04        14.95195
539.47        14.96384
539.91        14.99483
540.35        15.04303
540.79        15.10579
541.22        15.17759
541.66        15.25011
542.10        15.32064
542.54        15.39457
542.97        15.46818
543.41        15.54533
543.85        15.62546
544.29        15.70677
544.72        15.79828
545.16        15.92812
545.60        16.09255
546.04        16.28415
546.47        16.47726
546.91        16.62537
547.35        16.71856
547.79        16.77769
548.22         16.8275
548.66        16.90574
549.10        17.03205
549.53        17.25314
549.97        17.52971
550.41        17.73732
550.84        17.85535
551.28        17.94582
551.72        18.02832
552.15        18.11208
552.59        18.21246
553.03        18.31718
553.46        18.42923
553.90         18.5691
554.34        18.73278
554.77        18.92282
555.21        19.10898
555.65        19.24129
556.08          19.291
556.52         19.3166
556.96        19.34031
557.39        19.42594
557.83        19.56944
558.27        19.67237
558.70        19.72763
559.14        19.79644
559.57        19.87177
560.01        19.94034
560.45         19.9967
560.88        20.02172
561.32        20.05804
561.75        20.15326
562.19        20.29973
562.63        20.47661
563.06        20.62757
563.50        20.60653
563.93        20.46035
564.37        20.44667
564.80        20.57747
565.24        20.72614
565.68        20.86632
566.11        21.00319
566.55        21.13019
566.98        21.26118
567.42        21.38872
567.85        21.44323
568.29        21.46492
568.72        21.51129
569.16        21.59518
569.60        21.75161
570.03         22.0008
570.47        22.06243
570.90        22.16857
571.34        22.67989
571.77        22.64773
572.21        22.63441
572.64        22.85984
573.08        22.82151
573.51        23.09864
573.95        23.26997
574.38        23.38629
574.82        23.43207
