SpectraSmart Spectrum 2.9.0.0
--------- Device Information -----------
Spectrum Name :  反射率_0
Saving Time :  2024/04/27 22:13:00
Spectro-Module Model Name : SE2030-DUVN
Spectro-Module Serial Number : OS361AC55029948
Wavelength Start : 200
Wavelength End : 1025
Wavelength Unit : Wavelength(nm)
Spectrum Unit : Reflectance(%)
-----------Spectrum Setting ------------
Integration Time : 20ms
Average : 10
Boxcar : 0
Background removal :  enabled
linearity correction :  enabled
SC :  disabled
Intensity correction :  disabled
DWT denoise :  enabled
savitzky-golay :  disabled
FFT :  disabled
Running average :  disabled
Kalman :  disabled
High pass :  disabled
---------------BEGIN--------------------
Wavelength(nm)             Reflectance(%)
200.29               0
200.75       -43.46872
201.21       -16.76573
201.67        8.636777
202.13        23.27115
202.58        30.95497
203.04        35.75745
203.50        40.42249
203.96        47.06175
204.42        54.82954
204.88        62.28357
205.34         67.8185
205.80        70.43418
206.26        70.20184
206.72        66.41092
207.18        59.08025
207.64        54.02398
208.10        55.87682
208.55        61.77131
209.01        64.59805
209.47        61.05025
209.93        48.68017
210.39        15.00222
210.85       -88.78169
211.31       -221.0065
211.77        -75.4606
212.23        23.95033
212.69        59.34024
213.14         69.5663
213.60        67.84735
214.06        57.41391
214.52        36.77219
214.98        21.11493
215.44        27.56226
215.90        41.90393
216.36        54.34772
216.81        62.56868
217.27        68.06861
217.73        73.12878
218.19        77.36439
218.65        79.33615
219.11        78.72819
219.57        75.44753
220.02        70.92588
220.48        69.94442
220.94        73.54258
221.40        79.88133
221.86         85.9026
222.32        88.68201
222.77        88.48955
223.23        86.75551
223.69        85.24429
224.15        85.84867
224.61        88.75478
225.06        93.31676
225.52        98.22047
225.98        100.1164
226.44        98.69041
226.90        95.84635
227.36        93.48991
227.81        93.03828
228.27        94.58492
228.73        97.43363
229.19        100.8718
229.65        103.3133
230.10         103.917
230.56        103.3939
231.02        102.1898
231.48        101.0657
231.93        100.1812
232.39        99.48613
232.85        98.86421
233.31        98.35464
233.77        97.93409
234.22        97.64985
234.68         97.4282
235.14        97.04345
235.60        96.45492
236.05        95.72948
236.51        94.87685
236.97        94.21255
237.43        93.86698
237.88        93.83737
238.34        93.80159
238.80        93.81272
239.26        93.78127
239.71         93.9729
240.17         93.4252
240.63        90.65341
241.08         86.2622
241.54        82.10536
242.00        79.50318
242.46        78.00809
242.91        76.87593
243.37        75.48347
243.83        72.86503
244.28         67.4789
244.74        61.55862
245.20        59.24368
245.66        58.58643
246.11        55.82126
246.57        49.47279
247.03         38.7201
247.48        22.94114
247.94        11.76774
248.40        15.89355
248.85        29.26627
249.31        44.10268
249.77        54.62911
250.22        60.35096
250.68        63.09105
251.14        64.03795
251.59        64.05581
252.05        63.58537
252.51         62.2738
252.96        59.60504
253.42        56.79982
253.88        55.33325
254.33        55.86242
254.79        58.03447
255.25        60.94022
255.70        64.13496
256.16         67.7607
256.62        71.57845
257.07        75.24927
257.53        78.70621
257.99        81.43089
258.44        82.87218
258.90        83.12486
259.35        82.10695
259.81        80.73251
260.27         79.2518
260.72        78.01646
261.18        77.50124
261.63        77.17787
262.09        77.17018
262.55         77.0873
263.00        76.79002
263.46        76.57265
263.91        76.34701
264.37        76.46851
264.83        76.79382
265.28        77.10892
265.74        77.36567
266.19        77.18096
266.65        76.64452
267.11        75.80026
267.56        74.74451
268.02        73.76126
268.47        72.87566
268.93        72.06929
269.38        71.29526
269.84        70.53001
270.30        69.74831
270.75        68.96973
271.21        68.20102
271.66        67.36228
272.12        66.48048
272.57        65.52433
273.03        64.57256
273.48        63.63579
273.94        62.79984
274.39        61.98248
274.85        61.24494
275.31        60.52584
275.76        59.77199
276.22        59.05684
276.67        58.28872
277.13        57.51917
277.58        56.66868
278.04        55.81596
278.49        54.89988
278.95        54.02057
279.40        53.11157
279.86        52.24756
280.31        51.36873
280.77         50.5701
281.22        49.79933
281.68        49.13641
282.13        48.49098
282.59        47.84946
283.04        47.15569
283.50         46.4431
283.95         45.7574
284.41        45.25955
284.86        44.92485
285.32        44.73326
285.77        44.50316
286.22        44.04325
286.68        43.35082
287.13        42.46405
287.59        41.57311
288.04        40.86403
288.50        40.42507
288.95        40.14234
289.41        39.95441
289.86        39.69473
290.32        39.35233
290.77        38.96852
291.22        38.57855
291.68        38.21731
292.13        37.88889
292.59        37.59475
293.04         37.3647
293.50        37.29188
293.95        37.36527
294.40        37.56168
294.86        37.80029
295.31        37.93851
295.77        37.95067
296.22        37.86089
296.68        37.73967
297.13        37.67908
297.58        37.71684
298.04        37.82788
298.49        37.96687
298.95        38.08743
299.40        38.16468
299.85        38.21584
300.31        38.28712
300.76        38.41002
301.21        38.59443
301.67         38.8223
302.12        39.00819
302.58        39.07844
303.03        39.00173
303.48        38.82627
303.94        38.64564
304.39        38.54655
304.84         38.5685
305.30        38.68356
305.75        38.80854
306.20        38.86195
306.66        38.83244
307.11        38.71687
307.57        38.58189
308.02        38.46091
308.47        38.38264
308.93        38.33281
309.38        38.25342
309.83        38.08722
310.29        37.83692
310.74        37.51506
311.19        37.18775
311.65        36.95421
312.10        36.81806
312.55        36.75102
313.00        36.70571
313.46        36.60937
313.91        36.43406
314.36        36.20733
314.82        35.93335
315.27        35.61619
315.72        35.27342
316.18        34.91647
316.63         34.5776
317.08        34.32955
317.53         34.1854
317.99        34.12255
318.44        34.10503
318.89        34.05404
319.35        33.94468
319.80        33.79591
320.25        33.62392
320.70        33.46472
321.16        33.32035
321.61        33.17851
322.06        33.02893
322.51         32.8627
322.97        32.67291
323.42        32.48328
323.87        32.27775
324.32        32.03512
324.78        31.75558
325.23        31.45353
325.68        31.17489
326.13        31.00092
326.59        30.93447
327.04        30.97325
327.49        31.03429
327.94        30.98922
328.39        30.80368
328.85        30.50335
329.30        30.17136
329.75        29.94096
330.20        29.85502
330.66          29.862
331.11        29.91386
331.56        29.88115
332.01        29.72979
332.46        29.50172
332.92          29.244
333.37        29.06691
333.82        28.99521
334.27        28.99352
334.72        29.03378
335.17         29.0731
335.63        29.08302
336.08        29.09383
336.53        29.08092
336.98        29.01536
337.43        28.89808
337.88        28.73683
338.34        28.57221
338.79        28.47968
339.24        28.47865
339.69         28.5526
340.14        28.66337
340.59        28.74483
341.05        28.77625
341.50        28.77947
341.95        28.76803
342.40        28.77467
342.85        28.80396
343.30        28.83224
343.75        28.85013
344.20        28.84592
344.66        28.82018
345.11        28.78658
345.56        28.72847
346.01        28.61415
346.46         28.4498
346.91        28.24636
347.36        28.07985
347.81        28.06463
348.26        28.21321
348.72        28.48733
349.17        28.77246
349.62        28.88517
350.07        28.78144
350.52        28.50898
350.97        28.18708
351.42        28.01017
351.87        28.02493
352.32        28.17338
352.77        28.33811
353.22        28.34092
353.67        28.14456
354.13        27.82178
354.58         27.4649
355.03        27.26828
355.48        27.27749
355.93        27.43409
356.38        27.61625
356.83        27.63738
357.28        27.45711
357.73        27.13765
358.18        26.79607
358.63        26.61213
359.08        26.62154
359.53        26.75731
359.98        26.91236
360.43        26.92221
360.88        26.74833
361.33        26.44812
361.78        26.09255
362.23        25.82894
362.68        25.70254
363.13        25.60196
363.58        25.47932
364.03         25.6038
364.48        25.40016
364.93        25.33181
365.38         25.2304
365.83        25.10026
366.28         24.9398
366.73        24.75364
367.18        24.56222
367.63        24.38815
368.08          24.241
368.53         24.1172
368.98        24.00887
369.43        23.89964
369.88        23.78475
370.33        23.66993
370.78        23.55533
371.23        23.44291
371.68        23.32884
372.13        23.20145
372.58        23.06609
373.03        22.93291
373.48         22.8052
373.93        22.69302
374.38        22.56578
374.83        22.37247
375.28        22.11399
375.72         21.7986
376.17        21.52871
376.62        21.42299
377.07        21.49214
377.52        21.67995
377.97        21.87779
378.42         21.9158
378.87        21.75782
379.32        21.47057
379.77        21.12265
380.22        20.81773
380.67        20.59264
381.11        20.41307
381.56        20.29428
382.01        20.26167
382.46        20.30664
382.91        20.42464
383.36        20.54019
383.81        20.53036
384.26         20.3744
384.71        20.10725
385.15        19.80757
385.60        19.63616
386.05        19.61953
386.50        19.71454
386.95        19.85404
387.40         19.9321
387.85        19.91975
388.29        19.83749
388.74        19.75018
389.19        19.70299
389.64        19.70214
390.09        19.71648
390.54        19.71418
390.98        19.64751
391.43        19.52021
391.88        19.35933
392.33        19.17947
392.78         19.0288
393.23        18.92813
393.67        18.78262
394.12        18.62753
394.57        18.73091
395.02        18.75557
395.47        18.65999
395.91        18.41026
396.36         18.3222
396.81        18.41827
397.26        18.53419
397.71         18.6062
398.15        18.61318
398.60        18.56333
399.05        18.39838
399.50        18.19823
399.95        18.19127
400.39        18.33603
400.84        18.33665
401.29        18.17927
401.74        18.02261
402.18         17.9153
402.63         17.9007
403.08        17.96176
403.53        17.96558
403.97        17.90761
404.42        17.89284
404.87        17.91968
405.32        17.95074
405.76        17.97954
406.21        17.96733
406.66         17.9354
407.11        18.00528
407.55        18.12995
408.00        18.10978
408.45        17.93905
408.90        17.67543
409.34         17.4142
409.79        17.38594
410.24        17.54065
410.68        17.56881
411.13        17.44954
411.58        17.37509
412.03        17.37489
412.47        17.40595
412.92        17.45983
413.37        17.54522
413.81        17.62415
414.26        17.65592
414.71        17.62719
415.15         17.5518
415.60        17.44722
416.05        17.35599
416.49         17.2978
416.94        17.26078
417.39         17.2417
417.83         17.2353
418.28        17.23112
418.73        17.22422
419.17        17.21709
419.62        17.21436
420.07        17.22149
420.51        17.24471
420.96        17.25434
421.41        17.22644
421.85        17.15669
422.30        16.97727
422.74        16.78089
423.19        16.91619
423.64        17.31517
424.08        17.50823
424.53        17.40399
424.98        17.35351
425.42        17.36633
425.87         17.1179
426.31        16.72671
426.76        16.73651
427.21        17.07061
427.65        17.10367
428.10        16.85769
428.54        16.79772
428.99        16.92547
429.44        17.14351
429.88        17.32137
430.33        17.04868
430.77        16.51022
431.22        16.43832
431.66        16.81279
432.11        17.07812
432.56         17.1394
433.00        17.15484
433.45        16.98256
433.89        16.55254
434.34        16.20579
434.78        15.39406
435.23        16.07161
435.67        16.67301
436.12         16.9683
436.57        17.13742
437.01        17.03305
437.46        16.95384
437.90        16.98991
438.35        17.05027
438.79        16.63322
439.24         16.4786
439.68        16.46445
440.13        16.52347
440.57        16.60309
441.02        16.76681
441.46        16.94657
441.91        16.77708
442.35        16.40797
442.80        16.57745
443.24        17.14018
443.69        17.11935
444.13        16.55994
444.58        16.31956
445.02        16.41001
445.47        16.39709
445.91        16.26234
446.36        16.20184
446.80        16.21321
447.24        16.23451
447.69        16.27656
448.13        16.39791
448.58        16.56963
449.02        16.69096
449.47        16.74719
449.91        16.79434
450.36        16.83188
450.80        16.81043
451.25        16.74895
451.69        16.70525
452.13        16.68492
452.58        16.65905
453.02        16.62343
453.47        16.57951
453.91        16.52591
454.36        16.49501
454.80        16.46348
455.24        16.37335
455.69        16.26303
456.13        16.16297
456.58         16.1174
457.02        16.25306
457.46        16.47565
457.91        16.48271
458.35        16.34966
458.79        16.29799
459.24        16.35459
459.68         16.3683
460.13        16.34837
460.57        16.28403
461.01        16.25302
461.46        16.27043
461.90         16.2548
462.34        16.25632
462.79        16.52269
463.23        16.60394
463.68        16.58081
464.12        16.54667
464.56        16.52273
465.01          16.553
465.45        16.56814
465.89        16.45888
466.34        16.28398
466.78        16.13102
467.22        16.01132
467.67        16.27928
468.11        16.21031
468.55        16.21184
468.99        16.09599
469.44        16.06948
469.88        16.13365
470.32        16.16011
470.77        16.15878
471.21         16.1981
471.65        16.28058
472.10        16.38734
472.54        16.47404
472.98        16.49815
473.42        16.45852
473.87        16.32729
474.31        16.16767
474.75        16.22679
475.20        16.46144
475.64        16.53798
476.08        16.43843
476.52         16.4523
476.97        16.59141
477.41        16.53384
477.85        16.44451
478.29        16.55678
478.74        16.45727
479.18        16.33278
479.62        16.59688
480.06         16.6405
480.50        16.63668
480.95        16.58518
481.39        16.48149
481.83        16.67582
482.27        16.66845
482.72        16.58425
483.16        16.79226
483.60        16.82698
484.04        16.80684
484.48        16.85527
484.93         17.0975
485.37        16.97071
485.81        17.13528
486.25        17.71978
486.69        16.87711
487.14        16.62158
487.58        17.76254
488.02        17.54325
488.46        17.47076
488.90        17.77769
489.34        17.11871
489.79        16.92672
490.23        17.37987
490.67        17.72308
491.11        18.00701
491.55         17.9556
491.99        17.67672
492.43         17.6513
492.88        17.90925
493.32        18.12065
493.76        18.22937
494.20         18.3583
494.64        18.50808
495.08        18.58372
495.52        18.61145
495.96        18.78885
496.41        19.10055
496.85        19.06708
497.29        18.79274
497.73         18.8812
498.17        19.27208
498.61        19.48558
499.05        19.45203
499.49         19.4009
499.93        19.39559
500.37        19.45046
500.82        19.56002
501.26         19.7198
501.70        19.93357
502.14        19.79456
502.58        20.01606
503.02        20.08345
503.46         20.1235
503.90        20.15746
504.34        20.17104
504.78        20.20716
505.22        20.25971
505.66        20.28569
506.10        20.29736
506.54        20.36835
506.98        20.50536
507.42        20.58637
507.86        20.74957
508.30        20.82949
508.74        20.86547
509.18        20.86364
509.62         20.8448
510.06        20.84069
510.50        20.86065
510.94        20.89663
511.38        20.94264
511.82        20.98941
512.26        21.03135
512.70        21.07253
513.14        21.11036
513.58        21.12988
514.02        21.13072
514.46        21.13493
514.90         21.1497
515.34        21.11331
515.78        21.15049
516.22        21.15612
516.66        21.18058
517.10        21.24297
517.54         21.3406
517.98         21.4626
518.42         21.5624
518.86        21.56917
519.30        21.47213
519.74        21.29768
520.18        21.10506
520.62        20.98586
521.06        20.96642
521.50        21.02561
521.93        21.12515
522.37        21.19171
522.81        21.20527
523.25        21.17961
523.69        21.14535
524.13        21.15101
524.57        21.20213
525.01        21.27725
525.45        21.32857
525.89        21.28414
526.32        21.13266
526.76        20.91459
527.20        20.68819
527.64        20.54723
528.08        20.51512
528.52         20.5575
528.96        20.64048
529.40         20.7098
529.83        20.74138
530.27        20.75235
530.71        20.72865
531.15        20.64858
531.59        20.51724
532.03        20.34302
532.46         20.1661
532.90        20.06624
533.34        20.05778
533.78        20.12092
534.22        20.21846
534.66        20.29008
535.09        20.31583
535.53         20.3147
535.97        20.29897
536.41         20.2924
536.85        20.30174
537.28        20.31689
537.72        20.33107
538.16        20.33295
538.60        20.32348
539.04        20.31751
539.47        20.31666
539.91        20.33313
540.35        20.36473
540.79        20.41027
541.22        20.47183
541.66        20.55363
542.10        20.65212
542.54        20.76592
542.97        20.87524
543.41        20.96216
543.85        21.02127
544.29         21.0604
544.72        21.09874
545.16        21.18325
545.60        21.31539
546.04        21.48033
546.47        21.65594
546.91        21.80193
547.35        21.90471
547.79        21.98587
548.22        22.05077
548.66        22.10228
549.10        22.16175
549.53        22.30743
549.97        22.51819
550.41        22.68352
550.84        22.79037
551.28         22.8979
551.72         23.0192
552.15        23.14636
552.59        23.28694
553.03        23.43298
553.46        23.56663
553.90        23.68095
554.34        23.76999
554.77        23.84539
555.21        23.91468
555.65        23.99178
556.08        24.05667
556.52        24.15931
556.96         24.2752
557.39        24.40322
557.83        24.51982
558.27        24.52672
558.70        24.45904
559.14        24.46325
559.57        24.54885
560.01         24.6751
560.45        24.80126
560.88        24.85312
561.32        24.87088
561.75        24.92987
562.19        25.04416
562.63        25.22132
563.06        25.39868
563.50         25.3816
563.93         25.2081
564.37        25.16456
564.80        25.26139
565.24        25.35925
565.68        25.44206
566.11        25.53829
566.55        25.64778
566.98        25.77984
567.42        25.92691
567.85        26.00416
568.29        26.05698
568.72        26.15952
569.16        26.30335
569.60        26.49418
570.03         26.7533
570.47        26.74287
570.90        26.76431
571.34        27.35117
571.77        27.30916
572.21        27.30085
572.64        27.51183
573.08        27.64154
573.51        27.80337
573.95        27.99769
574.38        28.05929
574.82        28.48606
