SpectraSmart Spectrum 2.9.0.0
--------- Device Information -----------
Spectrum Name :  反射率_0
Saving Time :  2024/04/27 23:04:32
Spectro-Module Model Name : SE2030-DUVN
Spectro-Module Serial Number : OS361AC55029948
Wavelength Start : 200
Wavelength End : 1025
Wavelength Unit : Wavelength(nm)
Spectrum Unit : Reflectance(%)
-----------Spectrum Setting ------------
Integration Time : 20ms
Average : 10
Boxcar : 0
Background removal :  enabled
linearity correction :  enabled
SC :  disabled
Intensity correction :  disabled
DWT denoise :  enabled
savitzky-golay :  disabled
FFT :  disabled
Running average :  disabled
Kalman :  disabled
High pass :  disabled
---------------BEGIN--------------------
Wavelength(nm)             Reflectance(%)
200.29               0
200.75       -117.9973
201.21       -60.77907
201.67       -10.01262
202.13        11.09952
202.58        12.15378
203.04         3.92575
203.50       -4.125821
203.96      -0.8775346
204.42        12.97571
204.88        30.90074
205.34        45.79818
205.80        52.24965
206.26         49.8539
206.72         37.2458
207.18        16.45348
207.64        9.210041
208.10        26.28571
208.55        51.24072
209.01         65.8177
209.47         64.5126
209.93        45.27223
210.39       -12.42182
210.85       -195.7923
211.31       -440.9615
211.77       -191.1722
212.23       -14.32334
212.69        49.72643
213.14        68.52287
213.60        66.45904
214.06        49.13482
214.52        13.62743
214.98       -15.49228
215.44       -8.156575
215.90        13.36594
216.36        31.68241
216.81        41.49825
217.27        44.93517
217.73        45.99998
218.19        45.31896
218.65        42.73024
219.11        38.63496
219.57         32.8432
220.02        26.01394
220.48        22.27808
220.94        22.83651
221.40        26.01786
221.86         31.5126
222.32        38.93398
222.77        47.16275
223.23        55.45956
223.69        61.29374
224.15        61.78373
224.61        57.23171
225.06        48.55214
225.52        39.38606
225.98        36.60718
226.44        40.75592
226.90        47.70088
227.36        53.79525
227.81         56.3523
228.27        55.66927
228.73         52.9173
229.19        48.93166
229.65        45.46254
230.10        43.40313
230.56        42.49799
231.02        42.41991
231.48         42.8588
231.93        43.49128
232.39        44.42233
232.85        45.52943
233.31        46.61505
233.77        47.58014
234.22        48.53308
234.68        49.01683
235.14        48.52996
235.60        47.04267
236.05         44.4801
236.51        41.86246
236.97        41.45778
237.43        44.00424
237.88         48.9494
238.34        53.96374
238.80        56.61876
239.26        56.23277
239.71        52.36617
240.17        44.64214
240.63        38.23622
241.08         39.2992
241.54        44.92339
242.00        50.03648
242.46        51.75353
242.91        50.04211
243.37        44.14897
243.83        30.93795
244.28        13.17679
244.74        10.44276
245.20        23.67006
245.66        35.51555
246.11        37.73971
246.57        31.20558
247.03        16.43507
247.48       -7.602746
247.94       -26.72288
248.40       -23.82956
248.85       -7.126138
249.31        13.73588
249.77        31.41754
250.22        44.04968
250.68        53.23994
251.14        59.08845
251.59        61.77343
252.05         62.0323
252.51        59.14448
252.96        53.28609
253.42        49.12181
253.88        49.17998
254.33        52.19949
254.79        54.25837
255.25        52.00772
255.70        46.70678
256.16        40.91706
256.62        37.37671
257.07        38.86524
257.53        44.10602
257.99        50.24248
258.44        55.03175
258.90        57.00699
259.35        56.35096
259.81        54.54201
260.27        52.33655
260.72        50.59081
261.18        49.72033
261.63        49.11678
262.09        48.69564
262.55        48.04994
263.00        47.08781
263.46         46.1076
263.91        45.16295
264.37        44.60769
264.83        44.38311
265.28        44.31585
265.74        44.27747
266.19        43.93976
266.65        43.33537
267.11        42.54314
267.56        41.67327
268.02        40.99184
268.47         40.5211
268.93        40.18498
269.38        39.92888
269.84        39.69656
270.30        39.43768
270.75        39.16492
271.21        38.79662
271.66        38.16089
272.12          37.275
272.57         36.1684
273.03        35.04538
273.48        34.14597
273.94        33.57558
274.39        33.21758
274.85        32.97768
275.31        32.63739
275.76        32.12703
276.22        31.54241
276.67        30.91067
277.13        30.36182
277.58        29.87299
278.04         29.4495
278.49        29.00024
278.95        28.50537
279.40        27.92322
279.86        27.34839
280.31        26.80658
280.77        26.44239
281.22        26.23265
281.68        26.16109
282.13        26.14311
282.59        26.10947
283.04        26.01646
283.50        25.89226
283.95        25.73404
284.41        25.57814
284.86         25.4156
285.32        25.24989
285.77         25.0575
286.22        24.84149
286.68        24.61866
287.13        24.36771
287.59        24.12675
288.04        23.87743
288.50        23.65269
288.95        23.43589
289.41        23.25132
289.86        23.08753
290.32        22.96715
290.77        22.89344
291.22         22.8705
291.68        22.89938
292.13        22.96734
292.59         23.0686
293.04        23.22149
293.50        23.47995
293.95        23.83035
294.40        24.26519
294.86        24.68922
295.31        24.94832
295.77        25.03102
296.22        24.97312
296.68        24.93301
297.13         25.1417
297.58        25.64616
298.04        26.36047
298.49        27.11206
298.95        27.65039
299.40        27.91882
299.85        27.99919
300.31        28.03719
300.76        28.22658
301.21        28.62358
301.67        29.15333
302.12        29.69015
302.58        30.08779
303.03        30.29523
303.48        30.37321
303.94        30.41942
304.39        30.53228
304.84        30.74968
305.30        31.03872
305.75        31.30319
306.20        31.43563
306.66        31.42863
307.11        31.29669
307.57        31.15252
308.02        31.10854
308.47        31.19759
308.93         31.3695
309.38        31.51244
309.83        31.47725
310.29        31.25014
310.74        30.88634
311.19        30.47871
311.65        30.17144
312.10        29.99258
312.55        29.89621
313.00        29.86905
313.46        29.89187
313.91        29.93389
314.36        30.00212
314.82        30.01383
315.27        29.82993
315.72        29.43868
316.18        28.89443
316.63        28.32078
317.08        27.93795
317.53         27.7996
317.99        27.84059
318.44        27.96802
318.89        28.01019
319.35        27.91156
319.80           27.72
320.25        27.47988
320.70        27.26828
321.16         27.1015
321.61        26.95216
322.06        26.79066
322.51        26.58001
322.97        26.31176
323.42        26.02293
323.87         25.7306
324.32        25.46341
324.78        25.23151
325.23        25.02509
325.68         24.8557
326.13        24.74709
326.59        24.68199
327.04        24.66907
327.49        24.63596
327.94        24.47211
328.39        24.15502
328.85          23.711
329.30        23.23333
329.75        22.88512
330.20        22.72217
330.66        22.69882
331.11        22.75418
331.56        22.73698
332.01        22.60394
332.46        22.39697
332.92        22.17362
333.37        22.05417
333.82        22.06194
334.27        22.14502
334.72        22.24757
335.17        22.28572
335.63        22.22607
336.08         22.1169
336.53         21.9578
336.98        21.75675
337.43        21.53565
337.88        21.29682
338.34        21.10249
338.79         21.0558
339.24        21.17155
339.69         21.4149
340.14         21.6947
340.59        21.85835
341.05        21.86131
341.50        21.74956
341.95        21.56752
342.40        21.40113
342.85         21.2805
343.30        21.17345
343.75        21.08594
344.20        21.02909
344.66        21.00263
345.11        21.01294
345.56        21.01644
346.01        20.93416
346.46        20.75674
346.91        20.50585
347.36        20.26381
347.81        20.15689
348.26        20.21024
348.72         20.3903
349.17        20.59959
349.62        20.68046
350.07        20.59383
350.52        20.37509
350.97        20.14082
351.42        20.07825
351.87        20.22056
352.32         20.5055
352.77        20.77643
353.22        20.79811
353.67        20.52865
354.13        20.06042
354.58         19.5459
355.03        19.27628
355.48        19.32339
355.93        19.60553
356.38        19.95072
356.83        20.09059
357.28        19.96256
357.73        19.65032
358.18        19.30838
358.63        19.17552
359.08        19.29593
359.53        19.57497
359.98        19.86249
360.43        19.93015
360.88        19.72709
361.33        19.33774
361.78        18.86943
362.23         18.5293
362.68        18.38346
363.13        18.29783
363.58        18.21345
364.03        18.41413
364.48         18.2609
364.93        18.26451
365.38        18.23056
365.83        18.14711
366.28        18.00926
366.73        17.82507
367.18        17.62586
367.63        17.45337
368.08        17.32403
368.53        17.23023
368.98         17.1623
369.43        17.09996
369.88        17.03573
370.33        16.97644
370.78        16.91941
371.23        16.86051
371.68        16.79525
372.13        16.71467
372.58        16.62373
373.03         16.5335
373.48        16.44758
373.93        16.37213
374.38        16.28646
374.83        16.15542
375.28        15.97994
375.72         15.7645
376.17        15.58326
376.62        15.51363
377.07        15.56024
377.52        15.67985
377.97         15.8023
378.42        15.81794
378.87        15.70252
379.32        15.50429
379.77        15.25185
380.22        14.98761
380.67        14.73592
381.11        14.48212
381.56        14.27854
382.01        14.21007
382.46        14.28281
382.91        14.47116
383.36        14.66688
383.81        14.69784
384.26        14.53099
384.71        14.21856
385.15        13.86421
385.60        13.66355
386.05        13.65552
386.50        13.78833
386.95        13.98001
387.40        14.10087
387.85        14.11786
388.29        14.06437
388.74        14.01486
389.19        14.04226
389.64        14.15376
390.09        14.30306
390.54         14.4367
390.98        14.47302
391.43        14.39986
391.88        14.25777
392.33        14.06786
392.78        13.88056
393.23        13.72232
393.67        13.52121
394.12        13.32637
394.57        13.35863
395.02        13.37906
395.47        13.35233
395.91        13.22086
396.36        13.15159
396.81        13.15115
397.26        13.12485
397.71        13.06668
398.15        13.01875
398.60        12.99578
399.05        12.93247
399.50        12.86257
399.95         12.9177
400.39        13.05919
400.84        13.08652
401.29        12.98359
401.74         12.8542
402.18        12.73369
402.63        12.65293
403.08        12.62113
403.53        12.58288
403.97        12.54392
404.42        12.56926
404.87         12.6297
405.32        12.65265
405.76        12.62417
406.21        12.53085
406.66        12.41837
407.11        12.41768
407.55        12.50748
408.00        12.53795
408.45        12.47495
408.90        12.30727
409.34        12.08986
409.79        12.00131
410.24        12.03742
410.68        12.03383
411.13        11.98687
411.58        12.01065
412.03          12.098
412.47        12.17146
412.92        12.20948
413.37        12.23606
413.81        12.24393
414.26        12.23279
414.71        12.20109
415.15        12.14535
415.60        12.07756
416.05        12.02498
416.49        11.99777
416.94        11.99172
417.39        11.98973
417.83        11.96312
418.28        11.90271
418.73        11.81395
419.17         11.7278
419.62         11.6964
420.07        11.73276
420.51        11.82414
420.96        11.91959
421.41         11.9557
421.85        11.91656
422.30         11.7697
422.74          11.596
423.19        11.66047
423.64        11.92221
424.08         12.0513
424.53        11.97492
424.98        11.92534
425.42        11.90447
425.87        11.69425
426.31        11.38307
426.76        11.35622
427.21        11.56016
427.65        11.56928
428.10        11.38513
428.54        11.30241
428.99        11.32148
429.44        11.38901
429.88        11.43645
430.33        11.22562
430.77        10.88293
431.22        10.87499
431.66        11.18323
432.11        11.42636
432.56        11.53268
433.00        11.60899
433.45        11.54434
433.89        11.26161
434.34        10.99119
434.78        10.37315
435.23        10.74885
435.67        11.09553
436.12        11.27107
436.57        11.38811
437.01         11.3367
437.46        11.28915
437.90        11.30024
438.35        11.31836
438.79          11.014
439.24         10.8857
439.68        10.85491
440.13        10.87581
440.57        10.91884
441.02        11.03471
441.46        11.17791
441.91        11.09796
442.35        10.88551
442.80        11.01976
443.24        11.40341
443.69        11.39158
444.13         11.0069
444.58        10.81155
445.02        10.81321
445.47        10.72997
445.91        10.57481
446.36        10.51727
446.80         10.5603
447.24        10.65204
447.69        10.76525
448.13        10.88916
448.58        10.99176
449.02        11.02288
449.47        10.99796
449.91         10.9963
450.36        11.02663
450.80        11.04092
451.25         11.0348
451.69         11.0229
452.13        11.00026
452.58        10.95682
453.02        10.89339
453.47        10.81515
453.91        10.72609
454.36        10.64993
454.80         10.5768
455.24         10.4796
455.69         10.3871
456.13        10.31586
456.58        10.29645
457.02        10.41165
457.46        10.59774
457.91        10.65399
458.35        10.61332
458.79         10.5963
459.24        10.61804
459.68        10.58721
460.13         10.5238
460.57        10.44129
461.01        10.39739
461.46        10.39628
461.90        10.38371
462.34         10.3862
462.79        10.55859
463.23        10.61782
463.68        10.61237
464.12        10.59973
464.56        10.59157
465.01        10.61792
465.45        10.63335
465.89        10.57105
466.34        10.46922
466.78         10.3803
467.22        10.31416
467.67        10.50277
468.11         10.4775
468.55        10.49899
468.99        10.43544
469.44        10.40507
469.88        10.40686
470.32        10.36527
470.77        10.30289
471.21        10.28821
471.65        10.33219
472.10        10.41733
472.54        10.50766
472.98         10.5617
473.42        10.57208
473.87        10.52172
474.31        10.45229
474.75        10.52777
475.20        10.71967
475.64        10.80914
476.08        10.77153
476.52        10.78092
476.97        10.84417
477.41         10.7534
477.85        10.63993
478.29        10.69224
478.74        10.65183
479.18         10.6309
479.62        10.86584
480.06        10.90783
480.50        10.85938
480.95        10.73505
481.39        10.57854
481.83        10.68431
482.27        10.75023
482.72        10.84239
483.16        11.13705
483.60        11.23335
484.04        11.18968
484.48        11.07843
484.93         11.1026
485.37        11.05419
485.81        11.34192
486.25        11.92225
486.69        11.75223
487.14        11.18382
487.58        12.02091
488.02        12.05132
488.46        11.61134
488.90        11.84881
489.34        11.47024
489.79        11.40211
490.23        11.71083
490.67        11.97979
491.11         12.2429
491.55        12.24145
491.99        12.05238
492.43        12.04198
492.88        12.23358
493.32        12.38419
493.76        12.46545
494.20        12.58141
494.64        12.73645
495.08        12.86634
495.52        12.96848
495.96        13.14075
496.41        13.38625
496.85        13.34235
497.29        13.12081
497.73        13.24039
498.17         13.6502
498.61        13.88946
499.05         13.8898
499.49        13.89307
499.93        13.93933
500.37         13.9805
500.82         14.0285
501.26         14.1327
501.70        14.30455
502.14         14.2406
502.58          14.428
503.02        14.45603
503.46        14.41252
503.90        14.33053
504.34        14.24565
504.78         14.2612
505.22         14.3871
505.66        14.56582
506.10        14.75432
506.54        14.92409
506.98        15.05675
507.42        15.08622
507.86        15.14091
508.30        15.14582
508.74        15.14676
509.18        15.13301
509.62        15.11803
510.06        15.12283
510.50         15.1518
510.94        15.20602
511.38        15.27002
511.82         15.3159
512.26        15.33551
512.70        15.33329
513.14        15.32679
513.58        15.33895
514.02        15.37446
514.46        15.43842
514.90        15.50679
515.34        15.48667
515.78         15.4618
516.22        15.37502
516.66        15.29635
517.10         15.2911
517.54        15.37218
517.98        15.51581
518.42        15.66997
518.86        15.75364
519.30        15.74463
519.74        15.66551
520.18         15.5594
520.62         15.4939
521.06        15.48815
521.50        15.52477
521.93        15.57165
522.37        15.56915
522.81        15.50846
523.25        15.40924
523.69        15.31235
524.13         15.2796
524.57        15.31991
525.01        15.40677
525.45        15.49345
525.89        15.50779
526.32        15.43064
526.76        15.29568
527.20        15.13486
527.64        15.00188
528.08        14.91506
528.52        14.85522
528.96        14.82139
529.40        14.81168
529.83        14.81905
530.27         14.8476
530.71        14.86829
531.15        14.83274
531.59         14.7355
532.03        14.59019
532.46        14.44182
532.90        14.37566
533.34        14.40558
533.78        14.50659
534.22        14.62896
534.66        14.69643
535.09        14.68968
535.53        14.63316
535.97        14.56213
536.41        14.53435
536.85        14.56374
537.28         14.6302
537.72        14.70374
538.16        14.73561
538.60        14.71671
539.04        14.67189
539.47        14.62371
539.91        14.61296
540.35        14.64635
540.79        14.71288
541.22        14.80011
541.66        14.88923
542.10        14.97154
542.54         15.0531
542.97        15.13067
543.41        15.20769
543.85        15.28359
544.29         15.3578
544.72        15.43226
545.16        15.52483
545.60        15.63341
546.04        15.75514
546.47        15.88612
546.91        16.01429
547.35        16.13375
547.79         16.2512
548.22         16.3625
548.66         16.4611
549.10         16.5563
549.53        16.70804
549.97         16.8953
550.41        17.02723
550.84        17.09517
551.28        17.14995
551.72        17.20969
552.15         17.2818
552.59        17.37867
553.03        17.49174
553.46        17.61391
553.90        17.74796
554.34        17.88722
554.77        18.03617
555.21        18.18046
555.65        18.29783
556.08        18.36464
556.52        18.42738
556.96        18.48756
557.39        18.57621
557.83         18.6843
558.27        18.72905
558.70        18.72202
559.14        18.75072
559.57        18.81576
560.01        18.89309
560.45        18.96742
560.88        19.00544
561.32        19.04151
561.75        19.12622
562.19        19.24877
562.63         19.3837
563.06        19.47857
563.50         19.3974
563.93        19.19839
564.37        19.14489
564.80        19.25329
565.24        19.40232
565.68        19.55414
566.11        19.69152
566.55        19.80322
566.98        19.90828
567.42        20.01677
567.85        20.08654
568.29        20.15871
568.72        20.28564
569.16        20.45735
569.60        20.64113
570.03        20.84485
570.47         20.8753
570.90        20.99725
571.34        21.34724
571.77        21.45156
572.21        21.51964
572.64        21.84982
573.08        21.81787
573.51        22.07252
573.95        22.24413
574.38        22.38458
574.82        22.48841
