SpectraSmart Spectrum 2.9.0.0
--------- Device Information -----------
Spectrum Name :  反射率_0
Saving Time :  2024/04/27 23:06:45
Spectro-Module Model Name : SE2030-DUVN
Spectro-Module Serial Number : OS361AC55029948
Wavelength Start : 200
Wavelength End : 1025
Wavelength Unit : Wavelength(nm)
Spectrum Unit : Reflectance(%)
-----------Spectrum Setting ------------
Integration Time : 20ms
Average : 10
Boxcar : 0
Background removal :  enabled
linearity correction :  enabled
SC :  disabled
Intensity correction :  disabled
DWT denoise :  enabled
savitzky-golay :  disabled
FFT :  disabled
Running average :  disabled
Kalman :  disabled
High pass :  disabled
---------------BEGIN--------------------
Wavelength(nm)             Reflectance(%)
200.29               0
200.75       -49.56631
201.21        1.358809
201.67        38.36111
202.13        46.53379
202.58        36.01542
203.04        16.67217
203.50       -1.342956
203.96       -3.864993
204.42        8.622963
204.88        27.05783
205.34        44.79857
205.80        57.78785
206.26        66.69833
206.72        74.42628
207.18        80.25458
207.64         77.7085
208.10        66.94164
208.55         55.9511
209.01        46.96261
209.47        38.06196
209.93        24.79062
210.39       -4.915824
210.85       -87.60384
211.31       -169.5118
211.77       -37.41636
212.23        39.66165
212.69        64.17214
213.14         68.5795
213.60        61.92225
214.06        44.12524
214.52         12.0533
214.98       -11.88843
215.44       -2.454465
215.90        19.42994
216.36        38.15832
216.81        49.38692
217.27        55.35529
217.73        59.69881
218.19        61.69997
218.65        59.12881
219.11        51.63341
219.57        38.81001
220.02        24.12116
220.48         18.4225
220.94        24.56595
221.40        37.83609
221.86        51.49539
222.32        58.83553
222.77        59.95792
223.23        57.87949
223.69        54.54498
224.15        51.65873
224.61        49.67578
225.06        47.74218
225.52        46.82116
225.98        48.19092
226.44        51.21006
226.90        54.62603
227.36        57.29972
227.81        58.42749
228.27        58.19689
228.73        56.87453
229.19        54.58843
229.65        51.78688
230.10        48.90633
230.56        46.40084
231.02        44.38972
231.48        43.03093
231.93        42.27044
232.39        42.08607
232.85        42.68641
233.31        44.36901
233.77        46.89356
234.22        50.02291
234.68        52.70298
235.14        53.65303
235.60        52.68871
236.05        49.94014
236.51        46.55029
236.97        45.21145
237.43        46.99397
237.88        51.34519
238.34         56.0146
238.80        58.61796
239.26         58.5126
239.71        55.47332
240.17        49.62475
240.63        46.25979
241.08        50.02384
241.54        56.90781
242.00        62.13277
242.46        63.52564
242.91        61.20633
243.37        53.97989
243.83        37.50625
244.28        13.03678
244.74         3.89635
245.20        15.96472
245.66        30.23026
246.11        35.77757
246.57        33.83521
247.03          26.918
247.48        15.38944
247.94        8.769108
248.40        15.73265
248.85        28.87809
249.31        42.41638
249.77        53.04239
250.22        60.20786
250.68        65.00583
251.14         67.6244
251.59        68.10268
252.05        66.72955
252.51        62.72382
252.96        56.06511
253.42        51.06178
253.88        50.56897
254.33         53.5876
254.79        56.33252
255.25        55.56279
255.70        52.21013
256.16         48.4063
256.62        46.40527
257.07        48.51442
257.53        53.58392
257.99        59.04955
258.44        62.96655
258.90         64.1426
259.35        62.77293
259.81        60.40961
260.27        57.65982
260.72        55.22982
261.18        53.65253
261.63        52.39701
262.09        51.64283
262.55        51.26726
263.00         51.0668
263.46        51.10506
263.91        51.10374
264.37        50.99174
264.83        50.66086
265.28        50.15577
265.74        49.50944
266.19        48.55723
266.65        47.41025
267.11        46.08204
267.56        44.80095
268.02        44.02998
268.47        43.79355
268.93        43.96021
269.38        44.22852
269.84        44.14516
270.30         43.5821
270.75        42.67218
271.21        41.58046
271.66        40.52199
272.12        39.60612
272.57        38.73355
273.03        37.93623
273.48        37.18565
273.94        36.52417
274.39        35.93843
274.85        35.44523
275.31        34.96297
275.76        34.45754
276.22        33.97639
276.67        33.48609
277.13        33.05153
277.58        32.62284
278.04        32.21513
278.49        31.78273
278.95        31.37664
279.40         30.9477
279.86        30.56441
280.31        30.14093
280.77        29.67424
281.22        29.13851
281.68        28.59787
282.13        28.11951
282.59        27.84671
283.04        27.76329
283.50        27.82889
283.95        27.91263
284.41        27.85808
284.86        27.61384
285.32        27.25405
285.77         26.8525
286.22        26.55482
286.68        26.40303
287.13        26.31701
287.59        26.26135
288.04        26.10846
288.50        25.86943
288.95        25.56875
289.41        25.28331
289.86        25.07491
290.32        24.98302
290.77        24.97542
291.22        25.03118
291.68        25.11529
292.13        25.20469
292.59        25.31852
293.04        25.47036
293.50        25.70459
293.95        26.01595
294.40         26.4016
294.86        26.81306
295.31        27.16923
295.77        27.46681
296.22        27.71468
296.68        28.00023
297.13        28.43915
297.58        29.04513
298.04        29.75847
298.49        30.46179
298.95        30.99801
299.40        31.32954
299.85        31.51025
300.31        31.63826
300.76        31.83148
301.21        32.13663
301.67        32.52028
302.12        32.90858
302.58        33.23159
303.03        33.45444
303.48        33.61501
303.94         33.7834
304.39        34.01209
304.84        34.32619
305.30        34.70661
305.75         35.0615
306.20        35.29535
306.66        35.40179
307.11        35.38067
307.57        35.34154
308.02        35.39071
308.47        35.55783
308.93        35.79573
309.38        35.98301
309.83        35.96201
310.29        35.72042
310.74        35.31576
311.19        34.85881
311.65        34.52116
312.10        34.33654
312.55        34.25418
313.00        34.24255
313.46         34.2513
313.91        34.24557
314.36        34.24801
314.82        34.19649
315.27        33.98567
315.72        33.60985
316.18        33.10444
316.63        32.58359
317.08        32.25492
317.53        32.16206
317.99        32.24502
318.44        32.38599
318.89        32.37181
319.35        32.14876
319.80        31.78437
320.25        31.37701
320.70        31.09216
321.16        30.96357
321.61        30.93152
322.06        30.92355
322.51        30.83035
322.97        30.61448
323.42        30.33516
323.87         30.0004
324.32        29.62815
324.78        29.23679
325.23        28.81952
325.68        28.44149
326.13        28.21848
326.59         28.1549
327.04        28.24471
327.49         28.3501
327.94        28.24566
328.39        27.87754
328.85        27.29797
329.30        26.66407
329.75        26.24844
330.20        26.13479
330.66        26.23367
331.11        26.42322
331.56        26.45291
332.01        26.24913
332.46        25.88729
332.92        25.45694
333.37         25.1376
333.82        24.98393
334.27        24.93785
334.72        24.95051
335.17        24.94842
335.63        24.89278
336.08        24.82293
336.53        24.73215
336.98        24.61473
337.43         24.4757
337.88        24.31428
338.34        24.14188
338.79        23.98592
339.24        23.85937
339.69          23.762
340.14        23.69895
340.59        23.67547
341.05        23.68484
341.50        23.72145
341.95        23.75899
342.40        23.76501
342.85        23.72684
343.30         23.6481
343.75        23.53093
344.20        23.38232
344.66        23.21748
345.11        23.04225
345.56        22.87424
346.01        22.73734
346.46        22.63901
346.91        22.56992
347.36        22.54019
347.81        22.56011
348.26        22.62252
348.72        22.72323
349.17        22.80784
349.62        22.79003
350.07        22.65551
350.52        22.42387
350.97        22.18557
351.42         22.0876
351.87        22.15839
352.32        22.35436
352.77        22.56236
353.22        22.60936
353.67        22.45905
354.13        22.17562
354.58        21.84909
355.03         21.6738
355.48        21.69669
355.93        21.86423
356.38        22.05622
356.83        22.08669
357.28         21.9178
357.73        21.61193
358.18        21.29366
358.63        21.15467
359.08        21.22848
359.53        21.43928
359.98        21.66499
360.43        21.71722
360.88        21.55339
361.33        21.24348
361.78        20.86353
362.23        20.57163
362.68        20.42262
363.13        20.29894
363.58        20.17451
364.03        20.37643
364.48        20.29031
364.93        20.39495
365.38        20.46768
365.83        20.44675
366.28        20.31351
366.73        20.09063
367.18        19.83132
367.63        19.61206
368.08        19.46154
368.53        19.36539
368.98        19.30024
369.43         19.2235
369.88        19.12466
370.33         19.0204
370.78        18.93024
371.23        18.88423
371.68        18.88177
372.13        18.89744
372.58        18.90649
373.03        18.87262
373.48        18.78673
373.93        18.67184
374.38        18.52375
374.83        18.33429
375.28        18.11685
375.72        17.86839
376.17        17.67412
376.62        17.62683
377.07        17.73051
377.52        17.93906
377.97        18.15574
378.42        18.22714
378.87        18.12045
379.32        17.89452
379.77        17.60672
380.22        17.34642
380.67        17.14544
381.11        16.97066
381.56         16.8466
382.01         16.8126
382.46        16.86385
382.91        16.99503
383.36        17.11382
383.81        17.07156
384.26        16.84577
384.71        16.47999
385.15        16.08893
385.60        15.88714
386.05        15.91026
386.50        16.09883
386.95        16.33931
387.40        16.45154
387.85        16.39677
388.29        16.22924
388.74        16.05733
389.19        15.99594
389.64        16.06269
390.09        16.19695
390.54        16.33889
390.98         16.3961
391.43         16.3492
391.88        16.23911
392.33        16.07523
392.78         15.8937
393.23        15.72079
393.67        15.48138
394.12        15.23766
394.57        15.25267
395.02         15.2591
395.47        15.21624
395.91        15.06523
396.36        15.00763
396.81        15.04916
397.26        15.07226
397.71        15.06003
398.15        15.04653
398.60        15.04393
399.05         14.9825
399.50        14.89291
399.95        14.91499
400.39        15.00506
400.84        14.93624
401.29        14.72248
401.74        14.53509
402.18        14.42643
402.63        14.41814
403.08        14.48293
403.53        14.49213
403.97        14.43383
404.42        14.40015
404.87        14.39114
405.32        14.37741
405.76        14.35578
406.21        14.29448
406.66        14.21592
407.11        14.22405
407.55        14.28558
408.00        14.24738
408.45         14.1033
408.90        13.89362
409.34        13.69123
409.79        13.67378
410.24        13.81325
410.68        13.88569
411.13        13.87109
411.58        13.91115
412.03         13.9928
412.47         14.0193
412.92         13.9732
413.37        13.88901
413.81        13.78422
414.26        13.69442
414.71        13.62671
415.15        13.57333
415.60         13.5321
416.05        13.50363
416.49        13.48864
416.94        13.48703
417.39        13.49204
417.83        13.49301
418.28        13.48042
418.73         13.4467
419.17        13.40363
419.62        13.37514
420.07        13.37097
420.51        13.39452
420.96        13.41004
421.41        13.37828
421.85        13.29325
422.30        13.10976
422.74        12.91863
423.19        13.01569
423.64        13.35185
424.08        13.55688
424.53        13.53037
424.98        13.50199
425.42        13.46821
425.87        13.19172
426.31        12.79129
426.76        12.72777
427.21        12.95136
427.65        12.97703
428.10        12.80571
428.54         12.7662
428.99         12.8518
429.44        12.99697
429.88        13.10809
430.33        12.88478
430.77         12.4695
431.22        12.41067
431.66        12.68935
432.11        12.87968
432.56        12.90925
433.00        12.89801
433.45        12.74783
433.89        12.41857
434.34        12.17002
434.78        11.58464
435.23        12.12006
435.67        12.58073
436.12        12.78648
436.57        12.87662
437.01        12.75908
437.46        12.68336
437.90        12.72221
438.35        12.80059
438.79        12.51635
439.24         12.3878
439.68        12.31642
440.13        12.26588
440.57        12.22931
441.02        12.30477
441.46        12.45291
441.91        12.38334
442.35        12.17373
442.80        12.33018
443.24        12.73858
443.69        12.68761
444.13        12.22577
444.58        12.00968
445.02         12.0528
445.47        12.02751
445.91        11.92414
446.36        11.89675
446.80         11.9399
447.24         12.0058
447.69        12.08028
448.13        12.17465
448.58        12.26202
449.02        12.28135
449.47        12.24556
449.91        12.23464
450.36        12.25801
450.80        12.26821
451.25        12.26684
451.69        12.27808
452.13        12.29652
452.58        12.30363
453.02         12.2933
453.47        12.26218
453.91        12.20889
454.36        12.15945
454.80        12.09796
455.24        11.98651
455.69         11.8597
456.13        11.74304
456.58        11.67931
457.02        11.77439
457.46        11.96038
457.91        12.00831
458.35        11.96054
458.79        11.95914
459.24        12.01902
459.68        12.03537
460.13        12.01212
460.57         11.9365
461.01        11.86964
461.46        11.82339
461.90        11.75957
462.34        11.74835
462.79        11.97394
463.23        12.10318
463.68        12.16392
464.12         12.1775
464.56        12.14919
465.01        12.12957
465.45        12.09073
465.89        11.98943
466.34        11.87731
466.78        11.80429
467.22        11.76908
467.67        12.01704
468.11        12.00567
468.55        12.03865
468.99        11.97488
469.44        11.96511
469.88        12.01147
470.32        12.02015
470.77        12.00198
471.21        12.01425
471.65        12.06369
472.10        12.13637
472.54        12.20719
472.98         12.2537
473.42        12.27431
473.87        12.24407
474.31        12.19422
474.75        12.28886
475.20        12.48983
475.64        12.54896
476.08        12.46565
476.52        12.48064
476.97        12.60902
477.41        12.60147
477.85        12.57146
478.29        12.67803
478.74        12.60157
479.18        12.49392
479.62        12.68758
480.06        12.74014
480.50        12.78778
480.95        12.82115
481.39        12.82062
481.83        13.03576
482.27        13.07238
482.72        13.03806
483.16        13.22664
483.60        13.27455
484.04        13.28051
484.48        13.33237
484.93        13.54294
485.37         13.4742
485.81        13.66638
486.25        14.11904
486.69        13.64748
487.14        13.28514
487.58        14.31404
488.02        13.98203
488.46        14.38972
488.90        14.66569
489.34        13.92379
489.79        13.78998
490.23        14.38861
490.67        14.74539
491.11        14.90473
491.55        14.89964
491.99        14.80877
492.43        14.86612
492.88         15.0871
493.32         15.2629
493.76        15.36844
494.20        15.51937
494.64        15.72454
495.08        15.90002
495.52        16.03403
495.96         16.2492
496.41        16.53367
496.85        16.45195
497.29        16.15212
497.73        16.29482
498.17        16.81944
498.61        17.15094
499.05        17.18774
499.49        17.20039
499.93        17.23539
500.37        17.24889
500.82        17.26471
501.26        17.36153
501.70        17.55903
502.14        17.47296
502.58        17.71799
503.02        17.81752
503.46        17.87577
503.90        17.92463
504.34        17.95052
504.78        17.98669
505.22        18.02961
505.66         18.0399
506.10        18.04389
506.54        18.13327
506.98        18.31766
507.42        18.48046
507.86        18.72076
508.30        18.84928
508.74        18.89179
509.18        18.86498
509.62        18.81182
510.06        18.80127
510.50        18.85161
510.94        18.94204
511.38        19.04732
511.82        19.12739
512.26        19.16965
512.70        19.19096
513.14        19.20111
513.58        19.20529
514.02        19.20921
514.46        19.22365
514.90        19.25575
515.34        19.25113
515.78        19.32039
516.22        19.36899
516.66        19.42706
517.10        19.48526
517.54        19.53994
517.98        19.59215
518.42        19.62542
518.86        19.61858
519.30        19.56949
519.74        19.48248
520.18        19.39184
520.62        19.35068
521.06        19.36991
521.50        19.43942
521.93        19.51441
522.37        19.51189
522.81        19.41972
523.25        19.26096
523.69        19.09853
524.13        19.03146
524.57         19.0769
525.01        19.19927
525.45        19.32825
525.89        19.35343
526.32        19.24722
526.76        19.05579
527.20        18.83626
527.64        18.68207
528.08         18.6201
528.52        18.61781
528.96        18.64717
529.40         18.6651
529.83        18.65438
530.27        18.63224
530.71        18.59523
531.15        18.53516
531.59        18.45598
532.03        18.35951
532.46        18.26371
532.90         18.2122
533.34        18.21006
533.78        18.24641
534.22        18.30232
534.66         18.3471
535.09        18.36958
535.53        18.38061
535.97        18.38308
536.41        18.38514
536.85        18.38996
537.28        18.39408
537.72        18.40013
538.16        18.41019
538.60        18.42772
539.04        18.46161
539.47        18.50304
539.91        18.54863
540.35        18.59298
540.79        18.63808
541.22        18.69608
541.66        18.78739
542.10          18.911
542.54         19.0592
542.97        19.19984
543.41         19.2952
543.85        19.33729
544.29        19.34242
544.72        19.34267
545.16        19.40393
545.60        19.53355
546.04        19.71093
546.47        19.90899
546.91        20.07851
547.35        20.20295
547.79        20.30725
548.22        20.39502
548.66        20.46744
549.10        20.54461
549.53        20.69718
549.97        20.91375
550.41        21.10563
550.84        21.26202
551.28        21.43454
551.72        21.61791
552.15        21.77671
552.59        21.91245
553.03        22.02468
553.46        22.12095
553.90        22.23189
554.34        22.35925
554.77        22.50418
555.21        22.64482
555.65        22.74744
556.08         22.7831
556.52        22.81397
556.96        22.85302
557.39        22.95225
557.83        23.10131
558.27        23.19352
558.70        23.22118
559.14        23.26122
559.57        23.30849
560.01        23.33482
560.45        23.35242
560.88        23.38075
561.32        23.46059
561.75        23.61646
562.19        23.81558
562.63        23.99074
563.06         24.0897
563.50        24.01876
563.93        23.84824
564.37        23.83406
564.80         23.9928
565.24        24.21374
565.68        24.43824
566.11        24.60577
566.55        24.70169
566.98        24.76644
567.42        24.82257
567.85        24.83533
568.29        24.86182
568.72        24.95826
569.16        25.12533
569.60        25.33375
570.03        25.59186
570.47        25.67235
570.90        25.85725
571.34        26.21827
571.77        26.30429
572.21        26.18407
572.64        26.30744
573.08        26.37532
573.51        26.62287
573.95        26.86289
574.38        26.98889
574.82        27.04634
