SpectraSmart Spectrum 2.9.0.0
--------- Device Information -----------
Spectrum Name :  反射率_0
Saving Time :  2024/04/27 23:06:57
Spectro-Module Model Name : SE2030-DUVN
Spectro-Module Serial Number : OS361AC55029948
Wavelength Start : 200
Wavelength End : 1025
Wavelength Unit : Wavelength(nm)
Spectrum Unit : Reflectance(%)
-----------Spectrum Setting ------------
Integration Time : 20ms
Average : 10
Boxcar : 0
Background removal :  enabled
linearity correction :  enabled
SC :  disabled
Intensity correction :  disabled
DWT denoise :  enabled
savitzky-golay :  disabled
FFT :  disabled
Running average :  disabled
Kalman :  disabled
High pass :  disabled
---------------BEGIN--------------------
Wavelength(nm)             Reflectance(%)
200.29               0
200.75       -6.898754
201.21        4.517694
201.67        15.49992
202.13        19.47803
202.58        18.63055
203.04        15.82091
203.50        15.43079
203.96        22.46353
204.42        35.04619
204.88        49.06804
205.34        60.61458
205.80        67.03234
206.26        68.54721
206.72        65.25751
207.18        56.13466
207.64        45.75188
208.10        41.62769
208.55        43.43712
209.01        44.26965
209.47        40.02461
209.93        27.72326
210.39       -4.434879
210.85       -100.9592
211.31       -215.6171
211.77       -74.09564
212.23         17.5985
212.69        49.30198
213.14        58.00073
213.60        55.50416
214.06        44.26511
214.52        22.83711
214.98        7.627795
215.44        15.74212
215.90        31.58105
216.36        44.58942
216.81        52.24614
217.27        56.05116
217.73        58.34125
218.19        58.71812
218.65        55.72531
219.11        49.11652
219.57        38.83532
220.02        26.48872
220.48         18.6844
220.94          18.162
221.40        23.02103
221.86        30.74238
222.32        38.52047
222.77        45.38043
223.23        51.37551
223.69        55.96691
224.15        58.60983
224.61        59.58934
225.06        59.07652
225.52        57.71922
225.98        56.44582
226.44        55.72059
226.90        55.24065
227.36        54.92168
227.81        54.59232
228.27          54.156
228.73        53.62387
229.19        52.69573
229.65        50.88547
230.10        48.23616
230.56        45.40004
231.02        42.87183
231.48        41.36044
231.93        40.89369
232.39        41.22723
232.85        42.20927
233.31         43.6855
233.77        45.41547
234.22        47.38605
234.68        48.98293
235.14        49.50312
235.60        48.85722
236.05        47.05867
236.51        44.86058
236.97        43.98489
237.43        45.14564
237.88        48.12713
238.34        51.33012
238.80        53.20555
239.26        53.36175
239.71        51.58281
240.17        48.37946
240.63        48.03864
241.08         53.2275
241.54        60.09608
242.00        64.76993
242.46        65.89274
242.91        63.76725
243.37        56.92225
243.83        42.09941
244.28        24.07313
244.74        25.34791
245.20        45.05587
245.66        61.43188
246.11        66.14384
246.57         61.5198
247.03         47.8061
247.48        25.04403
247.94        9.561364
248.40        18.10044
248.85         40.9152
249.31        63.62202
249.77        75.05537
250.22        76.52067
250.68        73.34447
251.14        69.47183
251.59        67.95872
252.05        69.13631
252.51        71.97276
252.96        74.60484
253.42         72.6557
253.88        65.21597
254.33        57.23346
254.79        52.03254
255.25        49.80182
255.70        49.63207
256.16        50.95272
256.62        53.40115
257.07        56.68291
257.53        60.23907
257.99        63.17571
258.44        64.85913
258.90        65.16053
259.35        64.04595
259.81        62.40819
260.27        60.30473
260.72        57.87038
261.18        55.68772
261.63        53.57231
262.09        51.98658
262.55        51.06039
263.00        50.61898
263.46        50.61786
263.91        50.68896
264.37        50.65654
264.83        50.38377
265.28         49.9329
265.74        49.38963
266.19        48.66434
266.65        47.84647
267.11        46.88804
267.56        45.90188
268.02        45.17669
268.47        44.71688
268.93        44.48458
269.38        44.27781
269.84         43.7969
270.30        42.97988
270.75        41.92125
271.21        40.82752
271.66        39.97036
272.12        39.43102
272.57        39.07318
273.03        38.77277
273.48        38.25698
273.94         37.5252
274.39          36.643
274.85        35.76652
275.31        35.02295
275.76        34.42411
276.22        33.94478
276.67        33.50124
277.13        33.08274
277.58        32.62177
278.04        32.18085
278.49        31.69766
278.95        31.19356
279.40        30.62354
279.86        30.04832
280.31        29.46621
280.77         28.9992
281.22        28.62479
281.68        28.36409
282.13         28.1377
282.59         27.8825
283.04        27.56747
283.50        27.22802
283.95        26.91457
284.41         26.7455
284.86         26.7138
285.32        26.78947
285.77        26.86164
286.22        26.81087
286.68        26.63163
287.13        26.33606
287.59        26.03042
288.04        25.79965
288.50        25.69825
288.95        25.66787
289.41        25.67733
289.86        25.63248
290.32        25.53708
290.77        25.41933
291.22        25.33019
291.68        25.33434
292.13        25.43977
292.59        25.63782
293.04        25.90158
293.50        26.21753
293.95         26.5627
294.40        26.94527
294.86        27.36196
295.31        27.79981
295.77        28.25993
296.22        28.72447
296.68        29.19403
297.13        29.64837
297.58        30.08797
298.04        30.51602
298.49         30.9301
298.95        31.34408
299.40        31.75739
299.85        32.16469
300.31        32.59315
300.76        33.04406
301.21        33.51842
301.67        34.01435
302.12        34.46114
302.58        34.79714
303.03        34.99935
303.48        35.10276
303.94        35.20515
304.39         35.4054
304.84        35.73719
305.30        36.16864
305.75        36.58866
306.20        36.86988
306.66         36.9963
307.11        36.97982
307.57        36.92671
308.02        36.93518
308.47        37.04241
308.93        37.20786
309.38        37.33442
309.83        37.30523
310.29        37.11099
310.74        36.78877
311.19        36.42792
311.65        36.16301
312.10        36.01434
312.55        35.94696
313.00        35.91675
313.46        35.85558
313.91        35.73401
314.36        35.57832
314.82        35.38379
315.27        35.13774
315.72        34.84896
316.18        34.52716
316.63        34.20135
317.08        33.94222
317.53        33.76407
317.99        33.64597
318.44         33.5558
318.89        33.42291
319.35        33.22608
319.80        32.98263
320.25        32.71667
320.70        32.47406
321.16        32.25899
321.61        32.06203
322.06        31.85407
322.51         31.5934
322.97        31.27019
323.42        30.91764
323.87        30.55875
324.32        30.23707
324.78        29.96552
325.23        29.73556
325.68        29.54458
326.13        29.39305
326.59        29.25947
327.04        29.16135
327.49        29.04964
327.94        28.85344
328.39        28.55761
328.85        28.17295
329.30        27.76425
329.75        27.43807
330.20        27.23178
330.66        27.11121
331.11        27.04208
331.56        26.91426
332.01        26.69707
332.46        26.42037
332.92        26.12515
333.37        25.90919
333.82        25.79146
334.27        25.73914
334.72        25.71209
335.17        25.64733
335.63        25.51807
336.08        25.36261
336.53        25.18456
336.98        25.00139
337.43        24.82606
337.88        24.65119
338.34        24.50019
338.79        24.41508
339.24        24.40131
339.69         24.4503
340.14        24.51205
340.59        24.50423
341.05        24.40614
341.50        24.24006
341.95        24.05298
342.40        23.93111
342.85        23.89178
343.30        23.90506
343.75        23.91802
344.20        23.84583
344.66        23.67604
345.11        23.44338
345.56        23.19722
346.01        23.01023
346.46          22.906
346.91        22.85911
347.36        22.86246
347.81        22.90265
348.26        22.96798
348.72         23.0647
349.17        23.15588
349.62        23.18117
350.07        23.12651
350.52        22.99288
350.97        22.84567
351.42        22.79586
351.87        22.85924
352.32        23.00308
352.77        23.12286
353.22        23.05726
353.67        22.78483
354.13        22.38143
354.58        21.95036
355.03        21.70594
355.48        21.70203
355.93         21.8747
356.38        22.11805
356.83        22.26572
357.28        22.26779
357.73         22.1714
358.18        22.03393
358.63        21.94468
359.08        21.92512
359.53        21.93675
359.98        21.93807
360.43        21.87267
360.88        21.72837
361.33        21.52741
361.78        21.29719
362.23        21.11414
362.68         21.0026
363.13         20.8778
363.58        20.70209
364.03        20.77993
364.48        20.51389
364.93         20.3904
365.38         20.2583
365.83        20.16931
366.28        20.12503
366.73        20.11483
367.18        20.11328
367.63        20.06653
368.08        19.96286
368.53        19.81651
368.98        19.65458
369.43        19.51972
369.88         19.4273
370.33        19.37096
370.78        19.32764
371.23        19.26158
371.68        19.16049
372.13        19.02495
372.58        18.89459
373.03        18.83133
373.48        18.84529
373.93        18.92628
374.38        18.98778
374.83        18.89475
375.28        18.63048
375.72        18.22741
376.17         17.8485
376.62         17.7096
377.07        17.84332
377.52        18.16509
377.97        18.50673
378.42        18.60475
378.87        18.40529
379.32        18.01026
379.77        17.54752
380.22        17.20841
380.67        17.04803
381.11        17.00031
381.56        17.03221
382.01        17.09072
382.46        17.14434
382.91        17.21428
383.36        17.25725
383.81        17.20001
384.26        17.03573
384.71        16.78078
385.15        16.50085
385.60        16.33599
386.05         16.3087
386.50        16.39069
386.95        16.51679
387.40        16.58052
387.85        16.55709
388.29        16.46694
388.74        16.38546
389.19        16.38372
389.64        16.46505
390.09        16.58379
390.54        16.67985
390.98        16.65945
391.43        16.51525
391.88        16.29799
392.33         16.0391
392.78        15.80588
393.23        15.63004
393.67        15.42586
394.12        15.24607
394.57        15.34145
395.02        15.43622
395.47        15.48723
395.91        15.41589
396.36        15.39946
396.81        15.43831
397.26        15.41983
397.71        15.34436
398.15         15.2758
398.60        15.23493
399.05        15.14331
399.50        15.03306
399.95        15.04399
400.39         15.1309
400.84        15.07221
401.29        14.86767
401.74        14.66418
402.18        14.51212
402.63         14.4376
403.08        14.44816
403.53        14.47437
403.97        14.50996
404.42        14.62232
404.87        14.75871
405.32        14.80657
405.76        14.74661
406.21        14.57779
406.66        14.36564
407.11        14.28125
407.55        14.31155
408.00        14.28215
408.45        14.18038
408.90        14.03202
409.34        13.89754
409.79        13.96383
410.24        14.17946
410.68        14.27546
411.13        14.22493
411.58        14.17867
412.03        14.16272
412.47        14.15123
412.92        14.14452
413.37         14.1581
413.81        14.15842
414.26        14.10421
414.71        13.98753
415.15        13.82237
415.60        13.65704
416.05        13.58052
416.49        13.61469
416.94         13.7276
417.39        13.85519
417.83        13.89879
418.28        13.82886
418.73        13.67052
419.17        13.47925
419.62        13.34844
420.07        13.31144
420.51        13.34945
420.96        13.41097
421.41        13.43346
421.85        13.39779
422.30        13.26248
422.74        13.11244
423.19        13.23759
423.64        13.58672
424.08        13.78319
424.53        13.72757
424.98        13.66083
425.42        13.58482
425.87        13.26252
426.31        12.82444
426.76        12.74641
427.21        12.98039
427.65        13.03579
428.10        12.90333
428.54        12.89788
428.99        13.00747
429.44        13.16993
429.88        13.28589
430.33        13.04502
430.77        12.59583
431.22        12.49598
431.66         12.7375
432.11        12.91485
432.56        12.96155
433.00        12.99203
433.45        12.89356
433.89         12.5954
434.34        12.35108
434.78        11.74902
435.23        12.27328
435.67        12.71846
436.12        12.90825
436.57        12.98008
437.01        12.85397
437.46        12.80158
437.90        12.89709
438.35        13.05925
438.79        12.85057
439.24        12.75792
439.68        12.67179
440.13        12.56501
440.57        12.45481
441.02         12.4831
441.46        12.62094
441.91        12.56132
442.35        12.36335
442.80        12.51394
443.24        12.89162
443.69        12.78769
444.13        12.26961
444.58        12.02005
445.02        12.05705
445.47        12.04431
445.91        11.96744
446.36        11.97343
446.80        12.05266
447.24         12.1594
447.69        12.27183
448.13        12.39039
448.58        12.48619
449.02        12.49702
449.47        12.44877
449.91        12.44447
450.36        12.49606
450.80        12.54742
451.25        12.58153
451.69         12.5933
452.13        12.57303
452.58        12.51532
453.02        12.43227
453.47         12.3489
453.91        12.27264
454.36        12.21996
454.80         12.1721
455.24        12.08544
455.69        11.98938
456.13        11.91202
456.58        11.88297
457.02        11.98847
457.46        12.15779
457.91        12.16457
458.35        12.07576
458.79         12.0709
459.24         12.1699
459.68        12.25357
460.13        12.30322
460.57        12.27131
461.01        12.21059
461.46        12.14238
461.90        12.03919
462.34        11.99241
462.79         12.1968
463.23        12.30814
463.68        12.34878
464.12         12.3307
464.56         12.2595
465.01        12.19274
465.45        12.11458
465.89        11.99757
466.34        11.89516
466.78        11.85191
467.22        11.85237
467.67         12.1203
468.11         12.1033
468.55        12.11492
468.99        12.02841
469.44        12.02095
469.88        12.09875
470.32        12.15456
470.77        12.18749
471.21        12.23678
471.65        12.30231
472.10        12.37936
472.54        12.43613
472.98        12.44006
473.42        12.39434
473.87        12.27887
474.31        12.15695
474.75        12.24012
475.20        12.49764
475.64        12.66681
476.08        12.70169
476.52        12.78231
476.97        12.91125
477.41        12.84836
477.85        12.74576
478.29        12.82538
478.74        12.77764
479.18        12.73387
479.62         12.9979
480.06        13.06448
480.50        13.06307
480.95        13.00802
481.39         12.9125
481.83        13.07565
482.27        13.11424
482.72        13.11762
483.16        13.36876
483.60        13.48521
484.04         13.5481
484.48        13.66171
484.93        13.93343
485.37        13.89445
485.81        14.03389
486.25        14.65268
486.69        13.73146
487.14        13.53959
487.58        14.53473
488.02        14.50759
488.46        14.33855
488.90        14.59098
489.34        14.20515
489.79        14.10981
490.23        14.49627
490.67         14.8301
491.11        15.16208
491.55        15.22273
491.99        15.08598
492.43        15.13936
492.88        15.40078
493.32        15.59826
493.76        15.70446
494.20        15.85379
494.64        16.05663
495.08        16.22689
495.52        16.36066
495.96        16.59298
496.41        16.91218
496.85        16.87275
497.29        16.60982
497.73        16.77934
498.17        17.31566
498.61        17.63197
499.05        17.64032
499.49        17.64604
499.93        17.70126
500.37        17.75044
500.82        17.80345
501.26        17.91702
501.70        18.10708
502.14        17.99214
502.58        18.21173
503.02        18.28383
503.46        18.32144
503.90        18.35035
504.34        18.37558
504.78        18.46275
505.22         18.6072
505.66        18.75585
506.10        18.88598
506.54        19.01408
506.98        19.13606
507.42        19.15622
507.86        19.23263
508.30        19.26012
508.74        19.29127
509.18        19.31719
509.62        19.34961
510.06        19.40414
510.50        19.48093
510.94        19.57795
511.38         19.6765
511.82        19.74562
512.26         19.7775
512.70        19.77999
513.14        19.77156
513.58         19.7756
514.02        19.79878
514.46        19.84827
514.90        19.91202
515.34        19.89969
515.78         19.9213
516.22        19.89417
516.66        19.87137
517.10        19.87845
517.54        19.92136
517.98        19.98756
518.42        20.05569
518.86        20.09557
519.30        20.09757
519.74        20.07018
520.18        20.02745
520.62        19.99084
521.06        19.96858
521.50        19.95791
521.93        19.95181
522.37        19.93069
522.81        19.89439
523.25        19.84584
523.69        19.80307
524.13        19.79338
524.57        19.81771
525.01        19.86443
525.45        19.89932
525.89        19.86929
526.32        19.76243
526.76        19.60519
527.20        19.43487
527.64        19.31397
528.08        19.25973
528.52        19.25277
528.96        19.27025
529.40        19.27526
529.83        19.25435
530.27        19.22019
530.71        19.17543
531.15        19.12361
531.59        19.06871
532.03        19.00874
532.46        18.94809
532.90        18.90776
533.34        18.88873
533.78        18.88873
534.22        18.90161
534.66        18.91628
535.09        18.92723
535.53         18.9394
535.97        18.95216
536.41        18.96788
536.85        18.98666
537.28        19.00723
537.72        19.02784
538.16        19.04334
538.60        19.05545
539.04        19.07294
539.47         19.0945
539.91        19.12922
540.35        19.17466
540.79         19.2323
541.22        19.30361
541.66        19.39129
542.10        19.49287
542.54        19.60724
542.97        19.72237
543.41        19.83146
543.85        19.93048
544.29        20.02398
544.72        20.11847
545.16        20.24061
545.60        20.38807
546.04        20.55168
546.47        20.72392
546.91        20.88772
547.35        21.03467
547.79        21.17846
548.22        21.30911
548.66        21.40728
549.10         21.4881
549.53        21.63261
549.97        21.83503
550.41        22.01184
550.84        22.15475
551.28        22.31376
551.72        22.48104
552.15        22.61652
552.59         22.7229
553.03        22.80569
553.46        22.87486
553.90         22.9635
554.34        23.07538
554.77        23.21125
555.21        23.35553
555.65        23.48415
556.08        23.56612
556.52        23.65907
556.96         23.7606
557.39        23.90244
557.83        24.06749
558.27        24.14841
558.70        24.14981
559.14        24.17074
559.57        24.21222
560.01        24.24916
560.45        24.27997
560.88        24.28943
561.32        24.32783
561.75        24.45197
562.19        24.63694
562.63         24.8298
563.06        24.95786
563.50        24.85257
563.93        24.59435
564.37        24.52754
564.80        24.67509
565.24        24.87666
565.68         25.0812
566.11        25.26407
566.55        25.41011
566.98        25.54445
567.42        25.67604
567.85        25.74739
568.29        25.81091
568.72        25.92846
569.16        26.08769
569.60         26.2889
570.03        26.55247
570.47        26.55386
570.90        26.59841
571.34        27.18455
571.77        27.12333
572.21        27.12427
572.64        27.42858
573.08        27.37546
573.51        27.72569
573.95        27.88624
574.38        27.98919
574.82        27.88143
