SpectraSmart Spectrum 2.9.0.0
--------- Device Information -----------
Spectrum Name :  反射率_0
Saving Time :  2024/04/27 22:33:14
Spectro-Module Model Name : SE2030-DUVN
Spectro-Module Serial Number : OS361AC55029948
Wavelength Start : 200
Wavelength End : 1025
Wavelength Unit : Wavelength(nm)
Spectrum Unit : Reflectance(%)
-----------Spectrum Setting ------------
Integration Time : 20ms
Average : 10
Boxcar : 0
Background removal :  enabled
linearity correction :  enabled
SC :  disabled
Intensity correction :  disabled
DWT denoise :  enabled
savitzky-golay :  disabled
FFT :  disabled
Running average :  disabled
Kalman :  disabled
High pass :  disabled
---------------BEGIN--------------------
Wavelength(nm)             Reflectance(%)
200.29               0
200.75       -9.511198
201.21        9.359659
201.67         27.1506
202.13        33.81403
202.58        32.59834
203.04        28.13505
203.50        25.47556
203.96        30.40195
204.42        41.59797
204.88        54.93409
205.34        65.87878
205.80        71.10513
206.26         70.4983
206.72        63.24798
207.18        49.63254
207.64        41.25918
208.10        46.42006
208.55        57.94403
209.01        64.47246
209.47        61.27266
209.93         45.8269
210.39        2.997817
210.85       -129.5422
211.31       -298.8712
211.77        -113.035
212.23        13.14727
212.69        58.83109
213.14         74.2289
213.60        76.82667
214.06        72.31554
214.52        58.20255
214.98        39.39675
215.44        31.19674
215.90        30.75708
216.36        34.26167
216.81        40.04532
217.27        47.01818
217.73        55.92636
218.19        64.57275
218.65        68.26397
219.11        65.48077
219.57        57.03026
220.02        44.23668
220.48        33.54787
220.94        28.58681
221.40        27.95672
221.86        30.96076
222.32        36.45435
222.77        43.12574
223.23        50.32725
223.69        56.21353
224.15        58.72652
224.61        57.97099
225.06        54.42782
225.52        49.73105
225.98        46.97985
226.44          46.909
226.90        48.01159
227.36        48.92692
227.81        48.43449
228.27        46.44829
228.73        43.37794
229.19        39.51184
229.65          35.688
230.10         32.5611
230.56         30.4044
231.02        29.13669
231.48        28.65779
231.93        28.78413
232.39        29.48573
232.85        30.86262
233.31        33.05315
233.77        35.83709
234.22        39.05132
234.68         41.8094
235.14        43.14031
235.60        42.92781
236.05        41.21984
236.51        39.08728
236.97        38.84539
237.43        41.29591
237.88        45.93909
238.34        50.55583
238.80        52.83251
239.26        52.14824
239.71        48.06604
240.17        40.84543
240.63        36.99505
241.08        42.18907
241.54        51.53739
242.00        59.12897
242.46        62.81186
242.91        63.50343
243.37        61.36293
243.83         55.2121
244.28        47.61967
244.74        48.66462
245.20        57.08635
245.66        63.30201
246.11        63.50686
246.57        58.23803
247.03        47.15849
247.48        30.01014
247.94        18.22484
248.40        23.83848
248.85        39.73729
249.31        56.55368
249.77        67.04169
250.22        71.31496
250.68        72.43402
251.14        71.81902
251.59        70.37798
252.05        68.23798
252.51        64.06554
252.96        57.65631
253.42        52.91438
253.88        52.33773
254.33        55.08939
254.79        57.56195
255.25        56.55778
255.70        52.94998
256.16         48.8488
256.62         46.4012
257.07        47.82779
257.53        52.16049
257.99        57.01576
258.44        60.53807
258.90         61.5975
259.35        60.31673
259.81        58.06322
260.27        55.46262
260.72         53.2513
261.18        51.87476
261.63        50.78052
262.09        49.96237
262.55        49.07384
263.00        48.00291
263.46        47.00238
263.91        46.05666
264.37        45.43721
264.83        45.08122
265.28         44.8537
265.74        44.66994
266.19        44.25703
266.65        43.64525
267.11        42.86985
267.56        42.02164
268.02        41.34116
268.47        40.83506
268.93        40.44381
269.38        40.07129
269.84        39.59551
270.30        38.97637
270.75        38.26245
271.21        37.48313
271.66        36.63496
272.12        35.76292
272.57         34.8404
273.03        33.96466
273.48        33.20638
273.94        32.62783
274.39        32.17184
274.85        31.80012
275.31        31.37757
275.76        30.85906
276.22        30.30584
276.67        29.74163
277.13        29.29087
277.58        28.92546
278.04        28.65445
278.49        28.36046
278.95        27.98305
279.40        27.46812
279.86        26.90303
280.31        26.35031
280.77        26.01033
281.22        25.86459
281.68        25.88545
282.13        25.91842
282.59        25.79365
283.04        25.47124
283.50        25.02674
283.95        24.57928
284.41        24.34503
284.86        24.34549
285.32        24.51933
285.77        24.71599
286.22        24.75503
286.68        24.61611
287.13        24.33134
287.59        24.03811
288.04        23.86796
288.50        23.88093
288.95        24.00447
289.41        24.16067
289.86        24.19107
290.32        24.09075
290.77        23.91085
291.22         23.7636
291.68        23.80727
292.13        24.06208
292.59        24.48185
293.04        24.97125
293.50        25.40756
293.95        25.74779
294.40        26.04668
294.86        26.35422
295.31        26.73979
295.77        27.23321
296.22         27.7894
296.68        28.40723
297.13        29.06312
297.58        29.73961
298.04        30.43403
298.49        31.10246
298.95        31.69546
299.40        32.20663
299.85         32.6551
300.31         33.1056
300.76        33.62201
301.21        34.22377
301.67        34.88542
302.12        35.53099
302.58        36.09455
303.03        36.53563
303.48        36.88138
303.94        37.19494
304.39        37.51867
304.84        37.88441
305.30        38.29051
305.75        38.65561
306.20        38.90177
306.66        39.03335
307.11        39.04661
307.57        39.06845
308.02        39.22424
308.47        39.54071
308.93          39.961
309.38        40.32408
309.83        40.41919
310.29        40.22421
310.74        39.80974
311.19        39.32298
311.65        38.99382
312.10         38.8718
312.55        38.89294
313.00        38.99436
313.46        39.07808
313.91        39.09647
314.36        39.08345
314.82        39.01434
315.27         38.8422
315.72        38.56995
316.18        38.21445
316.63        37.82777
317.08        37.52359
317.53        37.32935
317.99        37.21442
318.44        37.14158
318.89        37.02726
319.35        36.84737
319.80        36.63166
320.25        36.39754
320.70        36.17751
321.16         35.9754
321.61        35.78122
322.06        35.59252
322.51        35.41344
322.97        35.23766
323.42        35.08286
323.87        34.92062
324.32         34.7107
324.78        34.44432
325.23        34.13749
325.68        33.83678
326.13        33.62868
326.59        33.51595
327.04        33.49224
327.49        33.47308
327.94        33.32957
328.39        33.02751
328.85        32.59583
329.30        32.11893
329.75        31.72757
330.20        31.47139
330.66        31.30696
331.11        31.20162
331.56        31.04486
332.01        30.80614
332.46        30.52071
332.92        30.22609
333.37        30.01655
333.82         29.9081
334.27        29.86802
334.72         29.8606
335.17        29.83266
335.63        29.75475
336.08         29.6577
336.53        29.53516
336.98        29.39055
337.43        29.23275
337.88        29.06307
338.34        28.89809
338.79        28.77229
339.24        28.69417
339.69        28.65675
340.14         28.6474
340.59        28.64306
341.05        28.63136
341.50        28.61822
341.95        28.58792
342.40        28.52677
342.85        28.43086
343.30         28.2974
343.75        28.14244
344.20        27.99419
344.66         27.8673
345.11        27.76176
345.56        27.65884
346.01        27.52366
346.46        27.35358
346.91        27.15807
347.36        26.99234
347.81        26.93604
348.26        26.99993
348.72        27.16261
349.17        27.33069
349.62         27.3576
350.07        27.20998
350.52        26.91687
350.97        26.60798
351.42        26.49282
351.87        26.60924
352.32        26.89534
352.77        27.17288
353.22        27.16813
353.67        26.83625
354.13        26.28511
354.58        25.69867
355.03        25.42126
355.48         25.5299
355.93        25.91149
356.38        26.36559
356.83        26.58135
357.28        26.47927
357.73        26.15985
358.18        25.76034
358.63        25.49326
359.08        25.41273
359.53        25.43806
359.98        25.48693
360.43        25.43825
360.88        25.26042
361.33        25.00684
361.78        24.71184
362.23        24.45603
362.68        24.27407
363.13        24.07885
363.58        23.86111
364.03        23.96095
364.48        23.80374
364.93        23.83101
365.38        23.85073
365.83        23.83821
366.28        23.77452
366.73        23.67357
367.18         23.5284
367.63        23.31744
368.08        23.05151
368.53        22.74401
368.98        22.44856
369.43        22.24939
369.88        22.16618
370.33         22.1778
370.78        22.23023
371.23        22.23303
371.68        22.15186
372.13        21.99779
372.58        21.80629
373.03        21.63708
373.48        21.51237
373.93        21.43136
374.38        21.34169
374.83        21.16158
375.28        20.88673
375.72        20.53362
376.17        20.24553
376.62        20.20275
377.07         20.4181
377.52        20.80774
377.97        21.18705
378.42        21.27105
378.87        21.00381
379.32        20.49261
379.77        19.88828
380.22         19.4176
380.67        19.15021
381.11        19.02308
381.56        18.99552
382.01        18.99801
382.46         18.9994
382.91        19.02748
383.36        19.06325
383.81        19.06939
384.26        19.03575
384.71        18.95418
385.15        18.83959
385.60        18.75811
386.05         18.7127
386.50        18.69619
386.95        18.67893
387.40        18.61326
387.85        18.49734
388.29        18.34124
388.74        18.21214
389.19        18.16098
389.64        18.18842
390.09        18.26041
390.54        18.33012
390.98         18.3209
391.43        18.22562
391.88         18.0786
392.33        17.89264
392.78        17.71531
393.23        17.57078
393.67         17.3676
394.12        17.16248
394.57        17.23594
395.02        17.28047
395.47        17.25138
395.91        17.07633
396.36         16.9779
396.81        16.96761
397.26        16.92215
397.71        16.84047
398.15        16.78458
398.60        16.77418
399.05        16.72447
399.50        16.66492
399.95        16.74591
400.39        16.91336
400.84        16.90933
401.29         16.7357
401.74        16.56482
402.18        16.45044
402.63        16.42336
403.08        16.45804
403.53        16.41989
403.97        16.30498
404.42        16.21814
404.87        16.17475
405.32         16.1644
405.76        16.18407
406.21        16.18891
406.66        16.17933
407.11        16.23479
407.55         16.3063
408.00        16.22728
408.45        16.00565
408.90         15.7158
409.34        15.45351
409.79        15.41538
410.24        15.56509
410.68        15.64241
411.13        15.62384
411.58        15.67295
412.03         15.7853
412.47        15.86595
412.92         15.8927
413.37        15.89208
413.81        15.86093
414.26        15.80987
414.71        15.74054
415.15        15.65187
415.60        15.55538
416.05        15.47943
416.49        15.43626
416.94        15.42185
417.39        15.42189
417.83        15.41202
418.28        15.37909
418.73        15.31975
419.17        15.25675
419.62        15.23004
420.07        15.25138
420.51        15.31729
420.96         15.3721
421.41        15.34935
421.85        15.23878
422.30         14.9968
422.74        14.74078
423.19        14.82714
423.64        15.20395
424.08        15.44296
424.53        15.42644
424.98        15.40641
425.42        15.37739
425.87        15.07499
426.31        14.63161
426.76         14.5663
427.21        14.82217
427.65        14.83917
428.10        14.63776
428.54        14.62316
428.99        14.78858
429.44        15.05044
429.88        15.26164
430.33        15.00837
430.77        14.45548
431.22        14.26856
431.66        14.46614
432.11        14.63656
432.56        14.72281
433.00        14.84172
433.45         14.8433
433.89        14.60302
434.34        14.38814
434.78        13.72147
435.23        14.34571
435.67        14.86733
436.12        15.08561
436.57        15.16211
437.01        14.98508
437.46        14.84725
437.90        14.83634
438.35        14.86867
438.79        14.50371
439.24        14.37809
439.68        14.37975
440.13        14.45271
440.57        14.54338
441.02        14.69409
441.46        14.84388
441.91        14.67624
442.35        14.33204
442.80        14.46932
443.24        14.96266
443.69        14.95336
444.13        14.47769
444.58        14.28162
445.02        14.37249
445.47         14.3728
445.91        14.25666
446.36        14.18232
446.80        14.14792
447.24         14.1067
447.69        14.08616
448.13        14.16552
448.58        14.32596
449.02        14.47384
449.47        14.58014
449.91        14.66884
450.36        14.73028
450.80        14.72369
451.25        14.67488
451.69        14.65091
452.13        14.65752
452.58        14.66199
453.02         14.6416
453.47        14.56917
453.91         14.4416
454.36        14.30209
454.80        14.15755
455.24         14.0018
455.69        13.87964
456.13        13.80254
456.58         13.7932
457.02        13.93559
457.46        14.14059
457.91        14.15745
458.35        14.04662
458.79        13.99082
459.24        14.01609
459.68        13.99361
460.13         13.9499
460.57        13.90589
461.01        13.93055
461.46        14.02341
461.90        14.09184
462.34        14.14174
462.79        14.37689
463.23         14.4178
463.68        14.34259
464.12        14.24772
464.56        14.16284
465.01        14.12732
465.45         14.0924
465.89         13.9815
466.34        13.84555
466.78        13.75254
467.22        13.70348
467.67         13.9856
468.11        13.96854
468.55        14.00336
468.99        13.92124
469.44         13.8932
469.88        13.92095
470.32        13.89513
470.77        13.84083
471.21        13.84443
471.65        13.91603
472.10        14.03453
472.54        14.14702
472.98         14.1911
473.42        14.16036
473.87        14.03933
474.31        13.89549
474.75        13.96242
475.20        14.20646
475.64        14.32999
476.08        14.30256
476.52        14.35726
476.97         14.5015
477.41        14.46064
477.85        14.38383
478.29        14.48379
478.74        14.40256
479.18        14.30038
479.62        14.54286
480.06        14.60134
480.50        14.62756
480.95        14.62302
481.39        14.57456
481.83        14.77597
482.27        14.78501
482.72        14.71983
483.16        14.91496
483.60        14.98052
484.04        15.03863
484.48        15.14104
484.93        15.39114
485.37        15.42512
485.81        15.63804
486.25        15.98397
486.69         15.7595
487.14        15.18304
487.58        16.27884
488.02        16.19131
488.46        16.29764
488.90        16.31077
489.34        15.92496
489.79        15.79582
490.23        16.36491
490.67        16.70614
491.11        16.90263
491.55        16.89997
491.99        16.78008
492.43        16.83088
492.88        17.07115
493.32        17.28215
493.76        17.43033
494.20        17.62026
494.64        17.85903
495.08        18.06067
495.52        18.21916
495.96        18.48806
496.41        18.84719
496.85        18.80126
497.29        18.50258
497.73        18.69042
498.17         19.2927
498.61        19.65454
499.05        19.67035
499.49          19.668
499.93        19.70465
500.37        19.72366
500.82        19.74759
501.26        19.85915
501.70        20.07984
502.14        19.97963
502.58        20.25769
503.02        20.36231
503.46        20.41349
503.90        20.44446
504.34        20.46424
504.78        20.55164
505.22        20.70482
505.66        20.86386
506.10        21.00433
506.54        21.14626
506.98         21.2853
507.42        21.31391
507.86        21.40969
508.30        21.45767
508.74        21.51477
509.18        21.56919
509.62         21.6238
510.06        21.68077
510.50        21.73731
510.94        21.79498
511.38        21.84754
511.82        21.88372
512.26         21.9015
512.70        21.90644
513.14        21.90465
513.58        21.89737
514.02         21.8882
514.46        21.89392
514.90        21.92196
515.34          21.906
515.78        21.97167
516.22        22.01245
516.66        22.06246
517.10        22.11246
517.54        22.15827
517.98        22.19831
518.42        22.21968
518.86        22.20696
519.30        22.15935
519.74        22.08293
520.18        22.00017
520.62        21.94536
521.06        21.92763
521.50        21.94078
521.93        21.96605
522.37        21.96255
522.81        21.92365
523.25        21.85707
523.69         21.7852
524.13        21.74398
524.57         21.7376
525.01        21.75078
525.45        21.75296
525.89        21.69674
526.32         21.5717
526.76        21.40669
527.20        21.23027
527.64        21.09015
528.08        21.00143
528.52        20.94711
528.96        20.92162
529.40        20.91578
529.83        20.91821
530.27        20.93125
530.71        20.93002
531.15        20.87492
531.59        20.76313
532.03        20.61024
532.46        20.44805
532.90        20.34218
533.34        20.30608
533.78        20.32086
534.22        20.36844
534.66        20.42007
535.09        20.45936
535.53        20.49465
535.97        20.51394
536.41        20.50149
536.85        20.45702
537.28        20.38709
537.72        20.30704
538.16        20.24094
538.60        20.20189
539.04        20.19392
539.47         20.2139
539.91        20.26614
540.35        20.34297
540.79         20.4464
541.22        20.56713
541.66        20.69002
542.10        20.80801
542.54        20.92266
542.97        21.03103
543.41        21.14381
543.85        21.26063
544.29        21.37997
544.72        21.50285
545.16        21.64778
545.60        21.80986
546.04        21.98477
546.47        22.16526
546.91         22.3337
547.35         22.4838
547.79        22.63125
548.22        22.77245
548.66        22.89726
549.10        23.02291
549.53        23.23166
549.97        23.51037
550.41        23.75609
550.84        23.95526
551.28        24.16616
551.72         24.3806
552.15        24.55595
552.59        24.69734
553.03        24.80965
553.46        24.91108
553.90        25.05104
554.34        25.23245
554.77        25.44722
555.21        25.66647
555.65        25.84336
556.08        25.93893
556.52        26.02775
556.96        26.10653
557.39        26.20916
557.83         26.3227
558.27        26.33075
558.70        26.26971
559.14        26.29766
559.57        26.42265
560.01        26.59713
560.45        26.77053
560.88        26.86545
561.32        26.91612
561.75        26.97365
562.19         27.0725
562.63        27.28013
563.06        27.53607
563.50         27.6008
563.93        27.50008
564.37          27.532
564.80         27.7006
565.24        27.85428
565.68        27.98128
566.11        28.12303
566.55        28.28226
566.98        28.46732
567.42        28.66043
567.85         28.7518
568.29        28.78688
568.72        28.86835
569.16        29.04337
569.60        29.24026
570.03        29.45362
570.47        29.61632
570.90        30.10534
571.34        30.06967
571.77        30.48564
572.21        30.49565
572.64        30.72326
573.08        30.63289
573.51        30.99329
573.95        31.07473
574.38        31.08393
574.82        30.91536
