SpectraSmart Spectrum 2.9.0.0
--------- Device Information -----------
Spectrum Name :  反射率_0
Saving Time :  2024/04/27 22:27:55
Spectro-Module Model Name : SE2030-DUVN
Spectro-Module Serial Number : OS361AC55029948
Wavelength Start : 200
Wavelength End : 1025
Wavelength Unit : Wavelength(nm)
Spectrum Unit : Reflectance(%)
-----------Spectrum Setting ------------
Integration Time : 20ms
Average : 10
Boxcar : 0
Background removal :  enabled
linearity correction :  enabled
SC :  disabled
Intensity correction :  disabled
DWT denoise :  enabled
savitzky-golay :  disabled
FFT :  disabled
Running average :  disabled
Kalman :  disabled
High pass :  disabled
---------------BEGIN--------------------
Wavelength(nm)             Reflectance(%)
200.29               0
200.75       -65.96432
201.21       -18.01594
201.67        20.35586
202.13        32.15069
202.58        26.40173
203.04        12.19534
203.50      -0.5033973
203.96        1.390631
204.42        16.59535
204.88        36.66967
205.34        54.08543
205.80        63.28477
206.26        64.17773
206.72        57.28419
207.18        41.90873
207.64        28.16262
208.10         27.2935
208.55        34.65617
209.01        39.39208
209.47         36.5461
209.93        23.64607
210.39       -11.48802
210.85       -117.2293
211.31       -239.2441
211.77       -80.83334
212.23        18.84076
212.69        53.59135
213.14        65.02489
213.60        66.47064
214.06        61.92627
214.52        49.74908
214.98         36.2271
215.44        33.21692
215.90         35.7291
216.36        39.80484
216.81        44.02783
217.27        47.92186
217.73        52.57035
218.19        55.98146
218.65        54.03497
219.11        45.64477
219.57        31.29773
220.02        13.94487
220.48        3.857658
220.94        4.888443
221.40        13.06014
221.86        24.00782
222.32        33.23027
222.77        39.72359
223.23        44.57306
223.69        47.25765
224.15        46.89711
224.61        43.95121
225.06        38.64609
225.52        33.20385
225.98        31.73764
226.44        34.45722
226.90        38.71907
227.36        42.58152
227.81        44.70392
228.27        45.15974
228.73        44.60051
229.19        42.79576
229.65        39.41539
230.10        34.84523
230.56        29.83066
231.02        25.52872
231.48        23.51319
231.93         23.8278
232.39        25.86571
232.85        28.86967
233.31        31.75077
233.77        34.09834
234.22        36.24723
234.68        37.78941
235.14        38.37413
235.60        38.01371
236.05        36.49123
236.51         34.7424
236.97        34.77553
237.43        37.23668
237.88        41.81387
238.34         46.2576
238.80        48.13145
239.26        46.73679
239.71        41.28753
240.17        32.22309
240.63        27.91349
241.08        35.18566
241.54         47.6231
242.00        57.43592
242.46        61.75801
242.91        61.64862
243.37        56.87789
243.83        44.39204
244.28        26.41842
244.74        21.68622
245.20        32.59839
245.66        43.84484
246.11         47.5154
246.57        44.64676
247.03        36.97174
247.48        24.18277
247.94        14.37117
248.40        16.72424
248.85        25.58082
249.31        36.54099
249.77        46.80516
250.22        54.88171
250.68        61.10876
251.14        64.53603
251.59        63.98375
252.05        59.47675
252.51        49.95562
252.96        35.71819
253.42        25.63289
253.88        26.02156
254.33         33.6702
254.79        41.41471
255.25        44.33989
255.70        43.49869
256.16        41.46732
256.62        40.63178
257.07        43.30097
257.53        48.46621
257.99        53.79696
258.44        57.41019
258.90        58.13618
259.35        56.24971
259.81         53.2365
260.27        49.99057
260.72        47.53104
261.18        46.27381
261.63        45.58907
262.09        45.20015
262.55        44.50834
263.00        43.41141
263.46        42.22153
263.91        41.19247
264.37        40.92728
264.83        41.32534
265.28        42.06151
265.74        42.68202
266.19        42.46369
266.65        41.41801
267.11        39.77819
267.56        37.97655
268.02        36.77394
268.47        36.30905
268.93        36.36255
269.38         36.5942
269.84        36.49163
270.30        35.91378
270.75        35.03831
271.21        34.05944
271.66        33.22342
272.12        32.62015
272.57        32.10564
273.03        31.63226
273.48        31.07096
273.94        30.43672
274.39        29.76322
274.85        29.10133
275.31          28.439
275.76        27.77254
276.22        27.12228
276.67        26.50192
277.13        26.01431
277.58        25.62412
278.04        25.34631
278.49        25.05818
278.95        24.67284
279.40        24.14251
279.86        23.56525
280.31        23.01044
280.77        22.68383
281.22        22.57136
281.68        22.62172
282.13        22.71278
282.59        22.71283
283.04        22.57701
283.50        22.36061
283.95        22.09953
284.41        21.87638
284.86         21.7084
285.32        21.59312
285.77        21.50237
286.22        21.42405
286.68        21.36869
287.13        21.31437
287.59        21.31148
288.04        21.36345
288.50        21.49008
288.95        21.65555
289.41        21.82163
289.86        21.89465
290.32        21.87926
290.77        21.79708
291.22        21.72451
291.68        21.77289
292.13        21.95814
292.59        22.25981
293.04         22.6168
293.50        22.95285
293.95        23.24219
294.40        23.52772
294.86        23.84783
295.31        24.25352
295.77        24.76504
296.22        25.34093
296.68         25.9785
297.13        26.65138
297.58        27.34007
298.04        28.03886
298.49        28.69909
298.95        29.26463
299.40        29.73059
299.85        30.11671
300.31         30.5046
300.76        30.98485
301.21        31.58319
301.67        32.27113
302.12        32.95104
302.58        33.51652
303.03        33.92833
303.48        34.22996
303.94        34.51683
304.39        34.88539
304.84        35.36679
305.30        35.92301
305.75        36.44477
306.20        36.81057
306.66         37.0091
307.11        37.05845
307.57        37.06507
308.02        37.12433
308.47         37.2775
308.93        37.48841
309.38        37.67517
309.83        37.74379
310.29        37.68509
310.74          37.523
311.19        37.32211
311.65        37.17783
312.10        37.09594
312.55        37.04862
313.00        37.00253
313.46        36.90866
313.91        36.74653
314.36        36.54191
314.82         36.2913
315.27        35.98278
315.72        35.63103
316.18        35.25439
316.63        34.89206
317.08        34.62789
317.53        34.47515
317.99        34.40132
318.44        34.36628
318.89        34.28592
319.35        34.13222
319.80        33.92954
320.25        33.68269
320.70        33.40848
321.16        33.11229
321.61        32.79249
322.06        32.47426
322.51        32.20531
322.97        31.99035
323.42        31.83457
323.87        31.68587
324.32        31.46121
324.78         31.1397
325.23        30.75023
325.68        30.35226
326.13        30.05303
326.59        29.86559
327.04        29.77588
327.49        29.70459
327.94        29.53027
328.39        29.21914
328.85        28.80262
329.30        28.35021
329.75        27.97163
330.20        27.70896
330.66        27.52059
331.11        27.38486
331.56        27.21574
332.01        26.98677
332.46         26.7255
332.92        26.45156
333.37        26.22303
333.82        26.05103
334.27        25.91664
334.72        25.80874
335.17        25.71311
335.63        25.61385
336.08        25.52955
336.53        25.44194
336.98        25.33157
337.43        25.19693
337.88        25.04368
338.34        24.88805
338.79        24.76227
339.24        24.67508
339.69        24.61611
340.14        24.57314
340.59         24.5272
341.05        24.46744
341.50        24.39958
341.95        24.31119
342.40        24.19169
342.85        24.03905
343.30         23.8541
343.75        23.64886
344.20        23.44314
344.66        23.25347
345.11        23.08554
345.56        22.93612
346.01        22.79376
346.46        22.65883
346.91        22.52983
347.36        22.44232
347.81        22.44801
348.26        22.54566
348.72        22.71448
349.17        22.87038
349.62        22.88055
350.07        22.71905
350.52        22.42007
350.97        22.09478
351.42        21.92537
351.87        21.94809
352.32        22.10307
352.77        22.26962
353.22        22.26179
353.67        22.04136
354.13        21.68944
354.58        21.28354
355.03        20.99624
355.48        20.87931
355.93        20.88453
356.38        20.94949
356.83        20.97724
357.28        20.93742
357.73        20.86127
358.18        20.77978
358.63        20.73837
359.08        20.74226
359.53        20.76037
359.98        20.76227
360.43        20.70949
360.88        20.59109
361.33        20.41973
361.78        20.19995
362.23        19.97532
362.68        19.76928
363.13        19.51388
363.58        19.20681
364.03        19.21444
364.48        18.93928
364.93         18.8551
365.38        18.78305
365.83         18.7363
366.28        18.70061
366.73        18.67766
367.18        18.63482
367.63         18.5061
368.08        18.28714
368.53        18.00123
368.98        17.70819
369.43        17.50476
369.88         17.4183
370.33        17.42455
370.78        17.47761
371.23        17.50151
371.68        17.46461
372.13        17.37434
372.58        17.25749
373.03        17.15807
373.48        17.08862
373.93        17.04565
374.38        16.97415
374.83        16.79029
375.28        16.49157
375.72        16.10069
376.17        15.75945
376.62        15.64733
377.07        15.78513
377.52        16.09716
377.97        16.42503
378.42        16.52076
378.87        16.33297
379.32        15.95493
379.77        15.50318
380.22        15.15445
380.67        14.96167
381.11        14.86538
381.56        14.84647
382.01        14.87274
382.46        14.92021
382.91        15.00714
383.36        15.07853
383.81         15.0425
384.26        14.88689
384.71        14.62954
385.15         14.3498
385.60        14.20994
386.05        14.23141
386.50        14.37296
386.95         14.5432
387.40        14.59503
387.85        14.50374
388.29        14.31937
388.74        14.14007
389.19        14.07089
389.64        14.12622
390.09        14.24721
390.54        14.38837
390.98        14.47731
391.43        14.49331
391.88        14.47143
392.33        14.38781
392.78        14.22896
393.23        14.01901
393.67        13.70837
394.12        13.40655
394.57        13.42376
395.02         13.5364
395.47        13.67956
395.91        13.73831
396.36        13.79138
396.81        13.81816
397.26        13.74846
397.71        13.60946
398.15        13.49509
398.60        13.43737
399.05        13.35405
399.50        13.27459
399.95        13.32789
400.39        13.47225
400.84        13.50877
401.29        13.42204
401.74        13.31688
402.18        13.22819
402.63          13.184
403.08        13.19369
403.53        13.20073
403.97        13.20797
404.42        13.28093
404.87        13.38084
405.32        13.42001
405.76        13.38306
406.21        13.26053
406.66        13.11374
407.11         13.1007
407.55        13.20499
408.00          13.266
408.45        13.23694
408.90        13.08584
409.34        12.86579
409.79        12.77213
410.24        12.81208
410.68        12.82942
411.13        12.82258
411.58        12.90489
412.03        13.05474
412.47        13.16427
412.92        13.20401
413.37        13.21015
413.81        13.18654
414.26        13.14959
414.71        13.10395
415.15        13.04156
415.60        12.97797
416.05         12.9468
416.49        12.95736
416.94        13.00382
417.39        13.05564
417.83        13.06323
418.28        13.01213
418.73        12.91033
419.17        12.80338
419.62        12.76821
420.07        12.82472
420.51         12.9557
420.96        13.09203
421.41        13.14322
421.85        13.08993
422.30        12.90425
422.74        12.69576
423.19        12.78493
423.64        13.13233
424.08        13.36443
424.53        13.37353
424.98        13.37393
425.42        13.35863
425.87        13.09868
426.31        12.71354
426.76        12.66278
427.21          12.899
427.65        12.93763
428.10         12.7813
428.54        12.76276
428.99         12.8756
429.44        13.05272
429.88        13.19574
430.33        12.99391
430.77        12.58921
431.22        12.53988
431.66        12.83147
432.11        13.03999
432.56        13.09504
433.00         13.1165
433.45        13.00638
433.89        12.72344
434.34        12.52718
434.78        11.98177
435.23        12.58754
435.67         13.1009
436.12        13.33192
436.57        13.42908
437.01        13.30342
437.46        13.22801
437.90         13.2821
438.35        13.38298
438.79         13.1107
439.24         13.0069
439.68        12.96739
440.13         12.9562
440.57        12.95276
441.02        13.03918
441.46        13.17239
441.91        13.05363
442.35        12.79206
442.80        12.95458
443.24        13.42542
443.69        13.44395
444.13        13.02958
444.58         12.8357
445.02        12.86979
445.47        12.79812
445.91        12.62994
446.36        12.55813
446.80        12.58759
447.24        12.65809
447.69         12.7562
448.13        12.89579
448.58        13.04487
449.02        13.13708
449.47        13.16801
449.91        13.19465
450.36        13.22085
450.80        13.20038
451.25        13.15403
451.69        13.13904
452.13        13.15786
452.58        13.18406
453.02        13.19278
453.47        13.15064
453.91        13.05138
454.36        12.93335
454.80         12.8045
455.24        12.66371
455.69        12.55349
456.13        12.48455
456.58        12.47423
457.02        12.59374
457.46        12.76191
457.91        12.75188
458.35         12.6294
458.79        12.57396
459.24        12.60854
459.68        12.61108
460.13        12.58548
460.57        12.51917
461.01        12.47117
461.46        12.45381
461.90        12.40917
462.34        12.38123
462.79        12.56016
463.23        12.60624
463.68        12.57522
464.12        12.53038
464.56        12.48768
465.01        12.48527
465.45        12.48213
465.89        12.41485
466.34        12.32828
466.78        12.27886
467.22        12.25926
467.67         12.5142
468.11        12.47772
468.55        12.46886
468.99        12.35296
469.44         12.3061
469.88        12.33515
470.32        12.33777
470.77        12.32178
471.21        12.33871
471.65        12.39143
472.10        12.46918
472.54        12.53787
472.98        12.56148
473.42        12.53849
473.87        12.44769
474.31         12.3399
474.75        12.41016
475.20        12.62541
475.64        12.72709
476.08         12.6921
476.52        12.73239
476.97        12.85648
477.41        12.81817
477.85        12.75318
478.29        12.85533
478.74        12.80797
479.18        12.75316
479.62        13.00639
480.06        13.08086
480.50        13.10632
480.95        13.07998
481.39        13.01145
481.83        13.19793
482.27        13.25128
482.72        13.27202
483.16        13.51766
483.60        13.56358
484.04        13.49743
484.48        13.40573
484.93        13.48159
485.37        13.43472
485.81        13.76882
486.25         14.4792
486.69        13.89554
487.14        13.57525
487.58        14.67644
488.02        14.37685
488.46        14.35804
488.90        14.60012
489.34        14.05432
489.79        13.94572
490.23        14.39179
490.67        14.70515
491.11        14.94353
491.55        14.99957
491.99        14.94521
492.43        15.04761
492.88        15.31893
493.32        15.55163
493.76        15.70617
494.20        15.87022
494.64        16.05173
495.08        16.17629
495.52        16.26415
495.96        16.48927
496.41        16.84829
496.85        16.88202
497.29         16.6943
497.73        16.90117
498.17        17.42811
498.61        17.69837
499.05        17.64391
499.49        17.60251
499.93        17.63735
500.37        17.68393
500.82        17.75052
501.26         17.8918
501.70        18.11884
502.14        18.04797
502.58        18.31186
503.02        18.41306
503.46        18.46178
503.90        18.48928
504.34        18.50055
504.78        18.56327
505.22         18.6778
505.66        18.79137
506.10        18.89888
506.54        19.04486
506.98        19.22615
507.42        19.33361
507.86        19.49874
508.30        19.56926
508.74        19.58736
509.18        19.56206
509.62        19.51816
510.06         19.4946
510.50        19.50378
510.94         19.5351
511.38        19.59102
511.82        19.67335
512.26        19.77497
512.70        19.89656
513.14        20.00662
513.58        20.04523
514.02        20.00336
514.46        19.91243
514.90        19.82219
515.34        19.74527
515.78        19.81508
516.22        19.91662
516.66        20.04768
517.10        20.14588
517.54        20.19272
517.98         20.2037
518.42        20.19136
518.86        20.17971
519.30        20.17565
519.74        20.16756
520.18        20.15255
520.62        20.12792
521.06        20.09477
521.50         20.0622
521.93        20.02974
522.37        19.98551
522.81        19.93295
523.25        19.87043
523.69        19.81726
524.13        19.80429
524.57         19.8314
525.01        19.88601
525.45        19.92736
525.89        19.89088
526.32        19.76371
526.76        19.57762
527.20        19.37627
527.64        19.23338
528.08        19.16816
528.52        19.15363
528.96        19.16859
529.40        19.17858
529.83        19.16746
530.27        19.14907
530.71        19.10653
531.15        19.01244
531.59        18.86921
532.03         18.6859
532.46        18.50446
532.90        18.40655
533.34        18.40454
533.78        18.47522
534.22        18.57265
534.66        18.62414
535.09        18.60977
535.53        18.55502
535.97          18.484
536.41        18.43838
536.85        18.43103
537.28        18.44731
537.72        18.47819
538.16        18.50783
538.60        18.53252
539.04        18.56569
539.47        18.60203
539.91        18.64307
540.35        18.68437
540.79        18.72537
541.22        18.77411
541.66        18.84543
542.10        18.94005
542.54        19.05652
542.97        19.17184
543.41        19.26089
543.85        19.31925
544.29        19.35928
544.72        19.40985
545.16        19.53131
545.60        19.72691
546.04        19.97552
546.47        20.24353
546.91        20.47172
547.35        20.64055
547.79        20.77571
548.22        20.88679
548.66        20.98598
549.10        21.09596
549.53         21.2855
549.97        21.53851
550.41        21.75567
550.84        21.92396
551.28        22.10159
551.72        22.28521
552.15        22.44046
552.59        22.57271
553.03        22.68347
553.46        22.78617
553.90        22.92126
554.34        23.09045
554.77        23.28918
555.21        23.49017
555.65        23.64936
556.08        23.73202
556.52         23.8062
556.96        23.87619
557.39        23.98383
557.83        24.11799
558.27        24.16874
558.70        24.15451
559.14        24.19459
559.57        24.28977
560.01        24.40887
560.45        24.52274
560.88        24.56734
561.32        24.58582
561.75        24.66692
562.19        24.81368
562.63        24.97803
563.06         25.1165
563.50        25.13228
563.93        25.05563
564.37         25.0829
564.80        25.21946
565.24        25.37086
565.68        25.52246
566.11        25.68382
566.55        25.85288
566.98        26.04467
567.42        26.23847
567.85        26.32682
568.29        26.35497
568.72        26.41452
569.16         26.5394
569.60        26.72625
570.03        26.98662
570.47        27.10223
570.90        27.38888
571.34        27.70933
571.77        27.88128
572.21        27.86601
572.64        28.19262
573.08        28.03344
573.51        28.23912
573.95        28.38653
574.38        28.56845
574.82        28.73615
