SpectraSmart Spectrum 2.9.0.0
--------- Device Information -----------
Spectrum Name :  反射率_0
Saving Time :  2024/04/27 23:08:50
Spectro-Module Model Name : SE2030-DUVN
Spectro-Module Serial Number : OS361AC55029948
Wavelength Start : 200
Wavelength End : 1025
Wavelength Unit : Wavelength(nm)
Spectrum Unit : Reflectance(%)
-----------Spectrum Setting ------------
Integration Time : 20ms
Average : 10
Boxcar : 0
Background removal :  enabled
linearity correction :  enabled
SC :  disabled
Intensity correction :  disabled
DWT denoise :  enabled
savitzky-golay :  disabled
FFT :  disabled
Running average :  disabled
Kalman :  disabled
High pass :  disabled
---------------BEGIN--------------------
Wavelength(nm)             Reflectance(%)
200.29               0
200.75       -15.78961
201.21         10.8195
201.67        34.55145
202.13        44.54963
202.58        45.12139
203.04        41.48822
203.50        38.51694
203.96        41.83877
204.42        50.66459
204.88        61.46832
205.34        70.23983
205.80        73.83955
206.26        72.08807
206.72        64.23992
207.18        51.17821
207.64        45.56701
208.10        54.52742
208.55        68.68764
209.01        77.48061
209.47        78.23685
209.93         70.5357
210.39        46.05855
210.85       -32.53658
211.31       -137.5912
211.77       -29.90536
212.23        46.20712
212.69        74.00546
213.14        83.05444
213.60        83.54321
214.06        78.43562
214.52         67.3055
214.98        59.22372
215.44        63.23061
215.90        70.98384
216.36        76.31779
216.81        77.07973
217.27        74.35901
217.73        69.93939
218.19        64.62514
218.65         59.5449
219.11         55.4309
219.57        51.80622
220.02        49.59122
220.48        51.87743
220.94        58.24244
221.40         66.6869
221.86        74.47929
222.32        79.28951
222.77        81.26649
223.23        81.37624
223.69        80.62085
224.15        80.06007
224.61        79.91884
225.06        79.81428
225.52        79.83591
225.98        79.63834
226.44        79.28522
226.90        79.04825
227.36        78.97565
227.81        78.99448
228.27        79.23532
228.73        79.59491
229.19        80.11905
229.65        80.84498
230.10         81.5766
230.56        82.41958
231.02        83.06525
231.48        83.28867
231.93        82.97906
232.39        82.35388
232.85        81.54865
233.31        80.87656
233.77        80.42746
234.22        80.22327
234.68          79.993
235.14        79.32668
235.60        78.14616
236.05        76.44561
236.51        74.77016
236.97        74.45499
237.43        75.92414
237.88        78.91076
238.34        81.83584
238.80        83.19696
239.26        82.51548
239.71        79.50157
240.17        73.76668
240.63        69.50377
241.08         71.1854
241.54        76.21432
242.00        80.64072
242.46        82.45544
242.91        81.96616
243.37        78.83701
243.83         71.4593
244.28        62.01461
244.74        61.38599
245.20        69.47628
245.66        76.48724
246.11        78.25718
246.57        75.54935
247.03        68.76008
247.48        57.32611
247.94        47.32843
248.40        47.08295
248.85        53.39907
249.31        62.12617
249.77        69.83734
250.22        75.37223
250.68        79.31409
251.14        81.78956
251.59        82.94215
252.05        83.08112
252.51        81.83727
252.96        78.20632
253.42        72.62632
253.88        67.22817
254.33        63.93008
254.79        62.81486
255.25        62.42932
255.70         62.2806
256.16         62.8163
256.62        64.34933
257.07        67.17728
257.53        70.83414
257.99        74.16435
258.44        76.13762
258.90          76.394
259.35        74.96748
259.81        73.00738
260.27        70.90781
260.72        69.18544
261.18        68.30775
261.63        67.68614
262.09        67.47156
262.55        67.38486
263.00        67.24523
263.46        67.26485
263.91        67.18794
264.37        67.07854
264.83        66.83768
265.28        66.43472
265.74        66.01633
266.19         65.4932
266.65        64.97586
267.11        64.41385
267.56        63.81294
268.02        63.30667
268.47        62.85253
268.93        62.43683
269.38        61.99876
269.84        61.48925
270.30        60.86926
270.75        60.14469
271.21        59.29686
271.66        58.23243
272.12        57.00193
272.57        55.62461
273.03         54.2668
273.48        53.07501
273.94         52.1627
274.39        51.42382
274.85         50.8573
275.31        50.33117
275.76        49.76187
276.22        49.21426
276.67        48.59694
277.13        47.93262
277.58         47.1569
278.04        46.34662
278.49        45.46109
278.95        44.60585
279.40        43.74109
279.86        42.93557
280.31        42.17042
280.77        41.56977
281.22        41.08482
281.68        40.75344
282.13        40.45064
282.59        40.09135
283.04        39.61659
283.50         39.0701
283.95        38.51656
284.41        38.13001
284.86        37.90172
285.32        37.80182
285.77        37.66794
286.22        37.32406
286.68        36.76955
287.13        36.04661
287.59        35.33276
288.04        34.79977
288.50        34.53038
288.95        34.42691
289.41        34.42273
289.86        34.35566
290.32        34.20786
290.77        34.00747
291.22        33.80923
291.68        33.68359
292.13        33.63259
292.59        33.64436
293.04        33.67961
293.50        33.71857
293.95         33.7442
294.40        33.78324
294.86        33.86518
295.31        34.01822
295.77        34.26093
296.22        34.57244
296.68        34.94012
297.13        35.31811
297.58        35.69373
298.04        36.06672
298.49        36.44207
298.95        36.85266
299.40        37.29241
299.85        37.75331
300.31        38.21638
300.76        38.61113
301.21        38.93887
301.67        39.23144
302.12        39.50338
302.58        39.82843
303.03        40.19384
303.48        40.58038
303.94        40.99472
304.39        41.39247
304.84        41.77454
305.30        42.15559
305.75        42.46928
306.20        42.66463
306.66        42.75372
307.11        42.72575
307.57        42.68067
308.02        42.70193
308.47        42.82381
308.93        43.01573
309.38        43.18504
309.83        43.22391
310.29        43.12156
310.74        42.90672
311.19        42.64726
311.65        42.44434
312.10        42.31111
312.55        42.22283
313.00        42.16348
313.46        42.11028
313.91         42.0415
314.36        41.96884
314.82        41.86361
315.27        41.67383
315.72        41.39751
316.18        41.05934
316.63        40.69956
317.08        40.40828
317.53        40.20698
317.99        40.06638
318.44        39.96022
318.89        39.82622
319.35        39.64475
319.80        39.43864
320.25        39.21381
320.70        38.98452
321.16        38.75111
321.61        38.51229
322.06        38.27623
322.51        38.06411
322.97        37.87375
323.42        37.71669
323.87        37.56111
324.32        37.36102
324.78         37.1048
325.23        36.81554
325.68        36.53093
326.13        36.32239
326.59        36.19277
327.04        36.14073
327.49        36.10774
327.94        36.00954
328.39        35.81971
328.85        35.55153
329.30        35.25476
329.75        34.99306
330.20        34.79356
330.66        34.62798
331.11        34.49138
331.56         34.3187
332.01        34.09705
332.46        33.84939
332.92        33.60187
333.37        33.43644
333.82        33.35673
334.27        33.32883
334.72         33.3243
335.17        33.29746
335.63        33.22254
336.08        33.14317
336.53        33.01995
336.98        32.80343
337.43        32.50283
337.88        32.13366
338.34        31.81154
338.79        31.73444
339.24        31.93149
339.69        32.33631
340.14        32.78246
340.59        32.99501
341.05        32.90279
341.50         32.5959
341.95        32.18862
342.40        31.87787
342.85        31.72623
343.30        31.66655
343.75        31.67172
344.20        31.69859
344.66        31.72609
345.11        31.77998
345.56        31.81507
346.01        31.74715
346.46        31.56926
346.91        31.29826
347.36        31.03389
347.81        30.93465
348.26        31.02924
348.72        31.27391
349.17         31.5468
349.62        31.65215
350.07        31.54181
350.52        31.26515
350.97        30.95474
351.42        30.82379
351.87         30.9153
352.32        31.15957
352.77        31.40131
353.22        31.40534
353.67        31.12918
354.13        30.67038
354.58        30.16699
355.03        29.88896
355.48        29.90047
355.93        30.11407
356.38        30.38686
356.83        30.49716
357.28         30.3879
357.73        30.13595
358.18        29.83321
358.63        29.61895
359.08        29.53158
359.53        29.51658
359.98        29.52847
360.43        29.50411
360.88        29.42031
361.33        29.29706
361.78        29.13644
362.23        28.97139
362.68        28.81467
363.13        28.59436
363.58        28.29854
364.03        28.24258
364.48        27.89791
364.93        27.69874
365.38         27.4929
365.83         27.3004
366.28        27.12012
366.73        26.95718
367.18        26.81086
367.63        26.66508
368.08         26.5168
368.53        26.36634
368.98        26.21993
369.43        26.08747
369.88        25.97156
370.33        25.87169
370.78        25.77118
371.23        25.64598
371.68        25.48811
372.13        25.29432
372.58        25.09997
373.03        24.96223
373.48        24.89225
373.93        24.88431
374.38        24.86516
374.83        24.71696
375.28        24.42722
375.72        24.02591
376.17        23.65802
376.62        23.50872
377.07        23.60419
377.52        23.86424
377.97        24.14871
378.42        24.23919
378.87        24.08548
379.32         23.7713
379.77        23.38043
380.22        23.03767
380.67          22.788
381.11         22.5909
381.56        22.45831
382.01        22.41233
382.46        22.44327
382.91        22.54802
383.36        22.65481
383.81        22.64587
384.26        22.49718
384.71        22.23671
385.15        21.93204
385.60        21.72804
386.05        21.65069
386.50        21.67015
386.95        21.72673
387.40        21.72552
387.85        21.64826
388.29        21.51505
388.74        21.41031
389.19        21.40269
389.64        21.49532
390.09        21.64286
390.54        21.77944
390.98        21.80087
391.43        21.69611
391.88        21.50732
392.33        21.26924
392.78         21.0652
393.23        20.92795
393.67        20.74513
394.12        20.55325
394.57        20.64476
395.02        20.64632
395.47        20.51709
395.91        20.22094
396.36        20.10418
396.81         20.1923
397.26        20.30566
397.71        20.37557
398.15        20.38052
398.60        20.32914
399.05        20.15603
399.50        19.94706
399.95        19.95073
400.39        20.12062
400.84        20.13129
401.29        19.96597
401.74        19.79748
402.18        19.67768
402.63        19.65222
403.08        19.70174
403.53        19.68015
403.97        19.58338
404.42        19.52897
404.87        19.51484
405.32        19.49909
405.76        19.47689
406.21        19.40936
406.66        19.32673
407.11        19.36956
407.55         19.4892
408.00        19.46932
408.45        19.29807
408.90         19.0262
409.34        18.75252
409.79        18.72716
410.24        18.89892
410.68        18.94025
411.13        18.82719
411.58         18.7594
412.03        18.76631
412.47        18.79776
412.92        18.84414
413.37        18.92192
413.81        18.98011
414.26        18.95796
414.71        18.84212
415.15         18.6514
415.60        18.44064
416.05        18.31875
416.49        18.31785
416.94        18.40377
417.39        18.51524
417.83        18.55625
418.28        18.49528
418.73        18.35389
419.17        18.18497
419.62        18.07672
420.07        18.05955
420.51        18.11473
420.96        18.17945
421.41        18.17989
421.85        18.09815
422.30        17.88048
422.74        17.64179
423.19        17.77057
423.64        18.20026
424.08        18.42737
424.53        18.34226
424.98        18.29491
425.42        18.29045
425.87        17.99395
426.31        17.54364
426.76        17.52828
427.21        17.87134
427.65        17.90991
428.10        17.65799
428.54        17.59121
428.99        17.70628
429.44        17.90099
429.88        18.04363
430.33        17.72016
430.77        17.13194
431.22        17.03169
431.66        17.39491
432.11        17.67947
432.56        17.79531
433.00        17.81798
433.45        17.63186
433.89        17.39631
434.34         17.3693
434.78        16.55881
435.23        17.09043
435.67        17.61082
436.12        17.90105
436.57        17.95305
437.01        17.65207
437.46        17.46887
437.90        17.51036
438.35        17.64279
438.79        17.30515
439.24        17.19346
439.68        17.16286
440.13        17.16665
440.57        17.17761
441.02        17.30409
441.46        17.48812
441.91        17.33678
442.35        16.98638
442.80        17.17944
443.24        17.76337
443.69        17.73731
444.13        17.15623
444.58        16.92013
445.02        17.04268
445.47        17.06119
445.91         16.9563
446.36        16.93421
446.80        16.98801
447.24        17.05312
447.69        17.11542
448.13        17.19613
448.58        17.26517
449.02        17.23572
449.47        17.14246
449.91        17.11943
450.36        17.18021
450.80        17.24694
451.25        17.29874
451.69        17.32982
452.13         17.3266
452.58        17.28171
453.02        17.19969
453.47        17.09665
453.91        16.98225
454.36        16.88301
454.80        16.79865
455.24        16.71005
455.69        16.65895
456.13        16.66336
456.58        16.72853
457.02        16.92318
457.46        17.13679
457.91         17.0747
458.35        16.85057
458.79        16.74657
459.24        16.80062
459.68        16.83628
460.13        16.84647
460.57        16.79519
461.01         16.7544
461.46        16.75245
461.90        16.70167
462.34        16.64598
462.79        16.84217
463.23        16.83264
463.68        16.72932
464.12         16.6715
464.56        16.68632
465.01        16.80337
465.45        16.91694
465.89        16.86275
466.34        16.68997
466.78        16.50278
467.22        16.33904
467.67        16.60506
468.11        16.57325
468.55        16.64265
468.99        16.59494
469.44        16.60351
469.88        16.66152
470.32        16.65238
470.77        16.60497
471.21        16.61875
471.65        16.70669
472.10        16.83943
472.54        16.96681
472.98        17.03924
473.42        17.04899
473.87        16.96557
474.31        16.84538
474.75         16.9311
475.20        17.17567
475.64        17.23666
476.08        17.10133
476.52        17.08068
476.97        17.19139
477.41        17.09848
477.85        16.98448
478.29        17.10727
478.74        17.04168
479.18        16.97615
479.62        17.32102
480.06        17.40938
480.50        17.41476
480.95        17.34859
481.39        17.22745
481.83        17.44473
482.27        17.48629
482.72        17.48178
483.16        17.79596
483.60        17.88069
484.04         17.8517
484.48        17.87592
484.93        18.11897
485.37        17.91521
485.81        18.09615
486.25         18.7476
486.69        18.64795
487.14        18.14014
487.58        19.02624
488.02        18.58836
488.46        18.63304
488.90        18.99159
489.34        18.47301
489.79        18.34256
490.23        18.86673
490.67        19.16469
491.11        19.35435
491.55        19.32283
491.99        19.16753
492.43        19.19729
492.88         19.4358
493.32        19.67254
493.76        19.85072
494.20        20.02903
494.64        20.20875
495.08        20.31415
495.52        20.36768
495.96        20.58568
496.41        20.94798
496.85        20.89976
497.29        20.57999
497.73        20.76022
498.17        21.35024
498.61        21.65239
499.05         21.5733
499.49        21.49168
499.93        21.47981
500.37        21.47594
500.82        21.49579
501.26        21.61372
501.70        21.84546
502.14        21.72255
502.58        22.01213
503.02        22.12405
503.46        22.18828
503.90        22.23905
504.34        22.25893
504.78         22.2914
505.22        22.33091
505.66        22.32737
506.10        22.30927
506.54        22.38294
506.98        22.55991
507.42        22.70123
507.86        22.93349
508.30        23.03178
508.74        23.03099
509.18        22.94954
509.62         22.8449
510.06        22.80782
510.50        22.86173
510.94        22.98271
511.38        23.12565
511.82        23.21832
512.26        23.24114
512.70        23.21771
513.14        23.18537
513.58        23.19318
514.02        23.25318
514.46        23.36238
514.90        23.48935
515.34        23.50311
515.78        23.52595
516.22        23.46602
516.66        23.39989
517.10        23.37951
517.54        23.41883
517.98        23.49983
518.42        23.58455
518.86        23.61615
519.30        23.58146
519.74        23.49979
520.18        23.40997
520.62        23.37092
521.06        23.39656
521.50        23.46878
521.93        23.55284
522.37        23.58439
522.81        23.55074
523.25        23.46849
523.69        23.37229
524.13        23.31666
524.57        23.31163
525.01         23.3361
525.45        23.35435
525.89        23.31122
526.32        23.19282
526.76        23.03074
527.20         22.8543
527.64        22.71169
528.08        22.61926
528.52        22.56146
528.96        22.53215
529.40        22.52127
529.83        22.51917
530.27        22.53023
530.71        22.53672
531.15        22.51042
531.59         22.4484
532.03        22.35955
532.46        22.26398
532.90        22.20905
533.34        22.20215
533.78        22.22975
534.22        22.27737
534.66        22.32263
535.09        22.35387
535.53         22.3805
535.97        22.39777
536.41        22.40111
536.85        22.39282
537.28        22.37782
537.72         22.3632
538.16        22.35787
538.60        22.36882
539.04        22.40038
539.47        22.45273
539.91        22.53915
540.35        22.65072
540.79        22.78316
541.22        22.91751
541.66        23.02483
542.10         23.0967
542.54        23.14379
542.97        23.17151
543.41         23.2034
543.85        23.24568
544.29        23.29657
544.72        23.36373
545.16        23.47476
545.60        23.62476
546.04        23.80693
546.47        24.00106
546.91        24.16892
547.35        24.29691
547.79        24.40271
548.22        24.49365
548.66         24.5767
549.10         24.6736
549.53        24.86847
549.97        25.12913
550.41        25.31668
550.84        25.41518
551.28        25.49923
551.72        25.59174
552.15        25.69805
552.59        25.83161
553.03         25.9771
553.46        26.12141
553.90        26.26667
554.34        26.40351
554.77        26.54238
555.21        26.66514
555.65        26.74353
556.08        26.75075
556.52        26.75975
556.96        26.78204
557.39        26.87386
557.83        27.02168
558.27        27.09976
558.70        27.11555
559.14        27.18007
559.57        27.28531
560.01        27.39886
560.45        27.49512
560.88        27.50887
561.32        27.49203
561.75        27.56072
562.19        27.71051
562.63        27.83502
563.06        27.90385
563.50        27.90289
563.93         27.8595
564.37        27.89982
564.80        28.02436
565.24        28.18126
565.68          28.341
566.11        28.47061
566.55        28.56716
566.98        28.66059
567.42        28.75795
567.85        28.78874
568.29        28.81147
568.72        28.91203
569.16        29.09838
569.60        29.30892
570.03        29.54404
570.47        29.60518
570.90        29.86626
571.34        30.10619
571.77        30.37826
572.21        30.37243
572.64        30.69645
573.08        30.69427
573.51        30.80846
573.95        30.92988
574.38        31.05838
574.82        31.23888
