SpectraSmart Spectrum 2.9.0.0
--------- Device Information -----------
Spectrum Name :  反射率_0
Saving Time :  2024/04/27 22:41:46
Spectro-Module Model Name : SE2030-DUVN
Spectro-Module Serial Number : OS361AC55029948
Wavelength Start : 200
Wavelength End : 1025
Wavelength Unit : Wavelength(nm)
Spectrum Unit : Reflectance(%)
-----------Spectrum Setting ------------
Integration Time : 20ms
Average : 10
Boxcar : 0
Background removal :  enabled
linearity correction :  enabled
SC :  disabled
Intensity correction :  disabled
DWT denoise :  enabled
savitzky-golay :  disabled
FFT :  disabled
Running average :  disabled
Kalman :  disabled
High pass :  disabled
---------------BEGIN--------------------
Wavelength(nm)             Reflectance(%)
200.29               0
200.75        88.18253
201.21        111.3097
201.67        119.7527
202.13        115.4576
202.58        103.2911
203.04        86.57296
203.50        70.39251
203.96         63.1787
204.42        65.42284
204.88        72.58475
205.34         80.1256
205.80        84.37161
206.26        84.78389
206.72         81.3911
207.18        74.35719
207.64        69.41404
208.10        71.42725
208.55        77.51678
209.01        80.60677
209.47        77.51849
209.93        66.29232
210.39        35.40696
210.85       -54.54596
211.31       -138.6595
211.77        10.59055
212.23        93.01234
212.69        118.8912
213.14        124.6203
213.60        120.2795
214.06        106.4572
214.52        77.99694
214.98        46.70237
215.44        38.75589
215.90        45.58933
216.36        56.10481
216.81        65.44775
217.27        73.55526
217.73        82.62775
218.19        90.68192
218.65        93.16474
219.11        88.81475
219.57         78.1403
220.02        63.66118
220.48        54.47015
220.94          54.389
221.40        60.18991
221.86        68.78609
222.32        76.96685
222.77        83.49385
223.23        88.87333
223.69         92.2255
224.15        92.45637
224.61        89.76514
225.06        84.40849
225.52        77.77589
225.98        72.96062
226.44        71.24587
226.90        71.47854
227.36         72.3917
227.81        72.79137
228.27        72.63278
228.73        72.21812
229.19        71.65899
229.65        71.14368
230.10        70.71123
230.56        70.46743
231.02        70.29967
231.48        70.25182
231.93        70.22839
232.39        70.32798
232.85        70.55513
233.31        71.00507
233.77        71.63643
234.22        72.44012
234.68        73.10212
235.14        73.22374
235.60        72.76421
236.05        71.77016
236.51         70.6997
236.97        70.62955
237.43        71.91382
237.88        74.35181
238.34        76.79633
238.80        78.37431
239.26        78.89996
239.71        78.49591
240.17        76.98817
240.63        75.92889
241.08        76.82149
241.54        78.45769
242.00        79.73479
242.46        80.06661
242.91        79.50904
243.37        77.56448
243.83        73.27569
244.28        67.67464
244.74        66.62551
245.20        70.73375
245.66        74.01425
246.11        73.10096
246.57        67.91896
247.03        58.17852
247.48        43.19769
247.94         31.5639
248.40        33.88601
248.85        44.90405
249.31        59.23825
249.77        72.72185
250.22         83.4209
250.68        91.77017
251.14        97.14656
251.59        99.22202
252.05        98.51884
252.51        94.41669
252.96        86.70576
253.42         79.6526
253.88        76.78505
254.33        77.25632
254.79        78.09879
255.25        75.95414
255.70        71.37547
256.16        66.69609
256.62        63.48713
257.07        63.44301
257.53        66.01394
257.99        69.06906
258.44        71.27955
258.90        72.07365
259.35         71.2532
259.81        69.86153
260.27         67.9631
260.72        65.66693
261.18        63.58683
261.63         61.5112
262.09        59.87246
262.55        58.71494
263.00        57.90201
263.46        57.47435
263.91        57.21404
264.37        57.19387
264.83        57.25175
265.28        57.30443
265.74        57.28511
266.19        56.87063
266.65        56.14268
267.11        55.15316
267.56        54.06295
268.02         53.2442
268.47        52.73524
268.93        52.45243
269.38        52.27816
269.84        52.06019
270.30        51.71838
270.75        51.27991
271.21        50.72211
271.66        49.95649
272.12        49.01056
272.57        47.86724
273.03        46.65507
273.48         45.4878
273.94        44.47939
274.39        43.58176
274.85        42.81114
275.31        42.06659
275.76        41.31174
276.22        40.62302
276.67        39.98878
277.13        39.51448
277.58         39.1325
278.04        38.83762
278.49        38.50903
278.95        38.11636
279.40        37.58329
279.86        37.00489
280.31        36.35057
280.77        35.71888
281.22        35.09529
281.68        34.53027
282.13        34.01311
282.59        33.59687
283.04        33.24939
283.50        32.97063
283.95         32.7257
284.41        32.51244
284.86        32.29827
285.32         32.1116
285.77        31.89351
286.22        31.60806
286.68        31.27288
287.13        30.86558
287.59        30.48689
288.04         30.2087
288.50        30.07439
288.95        30.02129
289.41         29.9947
289.86        29.85516
290.32        29.60404
290.77        29.28139
291.22        28.96271
291.68        28.75149
292.13        28.66549
292.59        28.68606
293.04        28.78764
293.50        28.96033
293.95        29.17826
294.40        29.45535
294.86        29.76839
295.31        30.06813
295.77         30.3548
296.22        30.62459
296.68        30.91625
297.13        31.27221
297.58        31.70312
298.04         32.1849
298.49        32.67984
298.95        33.15056
299.40        33.57967
299.85        33.98132
300.31        34.38178
300.76        34.78106
301.21        35.19039
301.67        35.60991
302.12        36.00299
302.58        36.36345
303.03        36.66892
303.48        36.93113
303.94         37.1999
304.39        37.49894
304.84        37.84512
305.30        38.22958
305.75        38.56856
306.20        38.78024
306.66        38.86411
307.11        38.81982
307.57        38.74749
308.02        38.73365
308.47         38.8144
308.93        38.95842
309.38        39.07384
309.83        39.05073
310.29        38.87978
310.74        38.59163
311.19        38.26902
311.65        38.03692
312.10        37.91156
312.55        37.86082
313.00        37.84163
313.46        37.78782
313.91        37.67303
314.36        37.52611
314.82        37.34879
315.27        37.13791
315.72        36.90482
316.18        36.65689
316.63        36.41874
317.08        36.25468
317.53        36.17398
317.99        36.15246
318.44        36.15518
318.89        36.10747
319.35        35.98615
319.80         35.8103
320.25        35.59842
320.70        35.38924
321.16         35.1882
321.61        34.98877
322.06        34.78228
322.51        34.55951
322.97         34.3165
323.42        34.08047
323.87        33.84406
324.32         33.5996
324.78        33.34746
325.23        33.09473
325.68        32.87305
326.13        32.74138
326.59        32.69297
327.04          32.729
327.49        32.76725
327.94        32.68405
328.39        32.44798
328.85        32.08197
329.30        31.67809
329.75        31.38274
330.20        31.24523
330.66        31.21714
331.11        31.24299
331.56        31.17571
332.01         30.9778
332.46        30.69468
332.92        30.39008
333.37        30.20506
333.82        30.16872
334.27        30.23385
334.72        30.34302
335.17        30.40667
335.63        30.38299
336.08        30.31494
336.53        30.20514
336.98         30.0703
337.43        29.92908
337.88         29.7836
338.34        29.65277
338.79         29.5767
339.24        29.56312
339.69        29.59739
340.14         29.6747
340.59        29.78338
341.05        29.90461
341.50        30.03771
341.95        30.12343
342.40        30.08112
342.85        29.90163
343.30        29.60889
343.75         29.2857
344.20        29.06851
344.66        28.99807
345.11        29.04016
345.56        29.12597
346.01        29.13627
346.46        29.04239
346.91         28.8832
347.36        28.72498
347.81        28.66573
348.26        28.72594
348.72        28.86914
349.17        29.02721
349.62        29.09803
350.07        29.05119
350.52        28.90714
350.97        28.73689
351.42        28.65321
351.87        28.67877
352.32        28.78295
352.77        28.86535
353.22        28.77418
353.67        28.48926
354.13        28.07808
354.58        27.65343
355.03        27.44517
355.48        27.50056
355.93        27.74644
356.38        28.03457
356.83        28.13272
357.28        27.98755
357.73        27.67846
358.18        27.31846
358.63        27.08375
359.08        27.01795
359.53        27.05171
359.98        27.12237
360.43        27.13775
360.88        27.06501
361.33        26.93656
361.78        26.74968
362.23        26.52995
362.68        26.29857
363.13         25.9889
363.58        25.62106
364.03        25.57413
364.48        25.30581
364.93        25.24303
365.38        25.19388
365.83        25.12473
366.28        25.01449
366.73        24.88229
367.18         24.7261
367.63        24.52963
368.08        24.29972
368.53        24.04037
368.98        23.78835
369.43        23.60402
369.88        23.50107
370.33        23.46601
370.78        23.45576
371.23        23.39902
371.68        23.27079
372.13        23.07964
372.58        22.86618
373.03        22.69696
373.48        22.59294
373.93        22.55038
374.38         22.5056
374.83        22.35761
375.28        22.09674
375.72        21.74406
376.17        21.44587
376.62        21.38911
377.07        21.58961
377.52        21.95992
377.97        22.32439
378.42        22.41093
378.87        22.16623
379.32        21.69846
379.77        21.13757
380.22        20.67905
380.67        20.38544
381.11         20.1942
381.56        20.10089
382.01        20.09623
382.46         20.1577
382.91        20.29737
383.36        20.42723
383.81        20.40336
384.26         20.2019
384.71        19.85268
385.15        19.46964
385.60        19.27284
386.05        19.29776
386.50        19.48927
386.95        19.71924
387.40         19.7846
387.85        19.64915
388.29        19.37538
388.74         19.1127
389.19         19.0258
389.64        19.13558
390.09        19.36241
390.54        19.59886
390.98        19.67474
391.43          19.559
391.88        19.32178
392.33        19.01821
392.78        18.75468
393.23        18.57256
393.67        18.36035
394.12        18.15643
394.57         18.2271
395.02        18.24306
395.47        18.17173
395.91        17.96427
396.36        17.89647
396.81        17.98385
397.26        18.07089
397.71        18.12212
398.15        18.15816
398.60        18.18954
399.05        18.14155
399.50        18.05533
399.95        18.10621
400.39        18.24418
400.84        18.18826
401.29        17.96018
401.74        17.77846
402.18        17.70441
402.63          17.759
403.08        17.88843
403.53        17.89993
403.97         17.7758
404.42        17.64771
404.87        17.54174
405.32        17.46163
405.76        17.41759
406.21        17.36167
406.66         17.3159
407.11         17.3996
407.55        17.56415
408.00        17.61704
408.45        17.53551
408.90        17.34354
409.34        17.12342
409.79        17.10538
410.24          17.252
410.68        17.28154
411.13        17.17827
411.58        17.12202
412.03        17.13444
412.47        17.16064
412.92        17.18998
413.37        17.24142
413.81        17.27948
414.26        17.26327
414.71         17.1832
415.15        17.05401
415.60        16.90886
416.05        16.81676
416.49        16.80103
416.94        16.83923
417.39        16.90333
417.83        16.95017
418.28        16.95813
418.73        16.93049
419.17        16.88371
419.62        16.84674
420.07        16.83485
420.51        16.85068
420.96        16.85841
421.41        16.82422
421.85        16.74288
422.30        16.55243
422.74        16.35706
423.19        16.51585
423.64          16.965
424.08        17.23817
424.53        17.21662
424.98        17.20342
425.42        17.19807
425.87        16.89041
426.31        16.42705
426.76        16.38863
427.21        16.71049
427.65        16.76747
428.10        16.56039
428.54        16.51312
428.99        16.62135
429.44        16.80524
429.88        16.94715
430.33        16.66037
430.77        16.13325
431.22        16.07476
431.66         16.4707
432.11        16.79416
432.56        16.95148
433.00        17.07542
433.45        17.00639
433.89        16.67374
434.34        16.38651
434.78        15.52395
435.23        16.08477
435.67         16.5908
436.12        16.83389
436.57        16.94372
437.01        16.78918
437.46        16.70591
437.90        16.78317
438.35        16.92322
438.79          16.596
439.24        16.48401
439.68        16.45547
440.13        16.45716
440.57        16.46735
441.02        16.60089
441.46        16.80255
441.91        16.69041
442.35        16.38582
442.80        16.59401
443.24        17.16581
443.69        17.13505
444.13        16.55886
444.58        16.31241
445.02        16.41259
445.47        16.41838
445.91        16.30671
446.36        16.26883
446.80        16.29873
447.24        16.33403
447.69        16.38444
448.13        16.50658
448.58        16.67103
449.02        16.77814
449.47        16.81109
449.91        16.82304
450.36        16.81609
450.80        16.74472
451.25        16.64007
451.69        16.57793
452.13        16.56644
452.58        16.56996
453.02        16.57152
453.47        16.55203
453.91        16.50342
454.36        16.46329
454.80        16.41267
455.24        16.30134
455.69        16.17256
456.13        16.05635
456.58          15.999
457.02        16.13023
457.46        16.35682
457.91        16.37624
458.35        16.26371
458.79        16.23924
459.24        16.32764
459.68        16.37745
460.13        16.38671
460.57        16.32844
461.01        16.27863
461.46        16.25616
461.90        16.19695
462.34        16.17995
462.79        16.45796
463.23         16.5759
463.68        16.59353
464.12        16.57017
464.56        16.52242
465.01        16.50937
465.45        16.48157
465.89        16.35882
466.34        16.20499
466.78        16.09433
467.22        16.02961
467.67        16.35303
468.11        16.32877
468.55        16.36738
468.99        16.27043
469.44        16.23359
469.88        16.25801
470.32        16.21824
470.77        16.14113
471.21        16.12407
471.65        16.17922
472.10        16.28301
472.54        16.38234
472.98        16.41821
473.42        16.38448
473.87        16.25862
474.31        16.10698
474.75        16.18068
475.20        16.43768
475.64         16.5408
476.08         16.4681
476.52        16.50682
476.97        16.66833
477.41        16.62981
477.85        16.55791
478.29        16.68869
478.74         16.6069
479.18        16.50218
479.62        16.78991
480.06        16.85175
480.50        16.86105
480.95        16.81421
481.39        16.71894
481.83        16.94904
482.27        17.00261
482.72        17.00447
483.16         17.2989
483.60        17.37025
484.04         17.3314
484.48        17.27547
484.93        17.41232
485.37        17.31856
485.81        17.62144
486.25        18.33043
486.69        17.54176
487.14        17.00984
487.58        18.33391
488.02        18.10837
488.46        18.18838
488.90        18.42182
489.34        17.98358
489.79        17.93095
490.23        18.28252
490.67        18.57807
491.11        18.81542
491.55        18.78824
491.99        18.58275
492.43         18.5817
492.88        18.81076
493.32        19.00662
493.76        19.13276
494.20        19.30408
494.64        19.52567
495.08        19.70632
495.52        19.83845
495.96        20.08191
496.41        20.41171
496.85        20.31425
497.29        19.95105
497.73        20.10018
498.17        20.68054
498.61         20.9987
499.05        20.95805
499.49        20.92545
499.93        20.96486
500.37        21.01225
500.82        21.07231
501.26        21.20305
501.70         21.4183
502.14        21.26359
502.58        21.50647
503.02        21.59644
503.46        21.66778
503.90         21.7459
504.34        21.80587
504.78        21.87556
505.22        21.94326
505.66        21.96501
506.10        21.96482
506.54        22.04053
506.98          22.205
507.42        22.32361
507.86        22.53367
508.30        22.63592
508.74        22.66855
509.18        22.64152
509.62        22.59877
510.06        22.60858
510.50        22.68587
510.94        22.81191
511.38        22.94349
511.82        23.01221
512.26        23.00252
512.70        22.93849
513.14        22.86374
513.58        22.83824
514.02         22.8775
514.46        22.97713
514.90        23.10445
515.34        23.12534
515.78        23.15815
516.22        23.11535
516.66        23.06719
517.10        23.05711
517.54        23.09749
517.98        23.16953
518.42        23.24759
518.86         23.2959
519.30        23.30301
519.74        23.28058
520.18        23.24478
520.62        23.21923
521.06        23.21192
521.50        23.21712
521.93        23.22503
522.37        23.21222
522.81        23.17679
523.25        23.12219
523.69        23.06619
524.13        23.03575
524.57        23.03341
525.01         23.0499
525.45        23.05433
525.89        22.99812
526.32        22.87173
526.76        22.70225
527.20        22.52777
527.64         22.4119
528.08        22.37001
528.52        22.37928
528.96        22.41351
529.40        22.43102
529.83        22.41542
530.27        22.38121
530.71        22.32668
531.15        22.24955
531.59        22.15565
532.03        22.04725
532.46        21.94059
532.90        21.87616
533.34        21.85843
533.78        21.87733
534.22        21.91624
534.66        21.94837
535.09        21.96064
535.53        21.96084
535.97        21.94714
536.41        21.92094
536.85        21.88572
537.28        21.84559
537.72        21.80289
538.16        21.75871
538.60        21.72098
539.04         21.6998
539.47         21.7055
539.91        21.76485
540.35        21.87242
540.79        22.02003
541.22        22.18237
541.66        22.31972
542.10        22.41907
542.54        22.49192
542.97        22.54501
543.41        22.60483
543.85         22.6768
544.29        22.75477
544.72        22.84241
545.16        22.96249
545.60        23.10931
546.04        23.27935
546.47        23.45531
546.91        23.60236
547.35          23.712
547.79        23.80609
548.22        23.89565
548.66        23.99265
549.10        24.11892
549.53        24.35211
549.97        24.66387
550.41        24.92272
550.84        25.10751
551.28        25.28564
551.72        25.45776
552.15        25.59517
552.59        25.70727
553.03        25.79323
553.46        25.86734
553.90         25.9732
554.34        26.11355
554.77        26.28815
555.21        26.46851
555.65        26.60738
556.08        26.66828
556.52         26.7266
556.96        26.79087
557.39        26.91432
557.83        27.08154
558.27        27.16236
558.70        27.16613
559.14        27.21016
559.57        27.29228
560.01        27.38428
560.45        27.45744
560.88        27.45265
561.32        27.42565
561.75        27.45651
562.19        27.56142
562.63        27.74939
563.06        27.95171
563.50        27.95433
563.93        27.80243
564.37        27.81425
564.80         27.9978
565.24        28.19314
565.68        28.36441
566.11        28.51868
566.55        28.65073
566.98        28.77633
567.42         28.9051
567.85        28.96985
568.29         29.0226
568.72        29.15625
569.16        29.35098
569.60        29.54172
570.03        29.73502
570.47        29.78807
570.90        29.81043
571.34        30.29483
571.77        30.36265
572.21        30.37148
572.64        30.72083
573.08        30.70047
573.51        31.14402
573.95        31.19454
574.38        31.08214
574.82        31.00559
