SpectraSmart Spectrum 2.9.0.0
--------- Device Information -----------
Spectrum Name :  反射率_0
Saving Time :  2024/04/27 22:39:30
Spectro-Module Model Name : SE2030-DUVN
Spectro-Module Serial Number : OS361AC55029948
Wavelength Start : 200
Wavelength End : 1025
Wavelength Unit : Wavelength(nm)
Spectrum Unit : Reflectance(%)
-----------Spectrum Setting ------------
Integration Time : 20ms
Average : 10
Boxcar : 0
Background removal :  enabled
linearity correction :  enabled
SC :  disabled
Intensity correction :  disabled
DWT denoise :  enabled
savitzky-golay :  disabled
FFT :  disabled
Running average :  disabled
Kalman :  disabled
High pass :  disabled
---------------BEGIN--------------------
Wavelength(nm)             Reflectance(%)
200.29               0
200.75       -64.10172
201.21        -28.3766
201.67         3.94247
202.13         19.2915
202.58        23.36438
203.04        22.62809
203.50        21.76305
203.96         25.7186
204.42        33.93827
204.88        43.27076
205.34         50.9436
205.80        55.19405
206.26        56.12104
206.72        53.58235
207.18        47.84647
207.64        44.05752
208.10        46.12568
208.55        51.57647
209.01        54.03479
209.47        50.86581
209.93        40.02253
210.39        10.53874
210.85       -78.37653
211.31       -181.0695
211.77       -48.31945
212.23        35.70533
212.69        64.44305
213.14        72.25541
213.60        69.73366
214.06        58.77393
214.52        36.72338
214.98        16.72654
215.44        17.78267
215.90        28.63271
216.36        38.93214
216.81        45.04573
217.27        47.75713
217.73        49.31849
218.19        49.71608
218.65        48.13706
219.11        44.61434
219.57        39.28258
220.02        32.56912
220.48        27.95723
220.94        26.82434
221.40        28.03646
221.86        31.92451
222.32        38.67514
222.77        47.06911
223.23        55.96883
223.69        62.66719
224.15        64.20335
224.61          60.739
225.06        53.08753
225.52        44.45102
225.98        40.95125
226.44         43.3884
226.90        48.41473
227.36        52.65447
227.81        53.39577
228.27        50.78986
228.73        45.81184
229.19        39.72812
229.65        35.31184
230.10        33.75273
230.56        34.49427
231.02        36.15641
231.48        36.94832
231.93         36.4575
232.39        35.39517
232.85         34.6475
233.31         35.4064
233.77        37.69055
234.22        40.94262
234.68        43.98161
235.14        45.45315
235.60        45.13918
236.05        43.27993
236.51         41.0071
236.97        40.72803
237.43        43.30371
237.88        48.11309
238.34        52.99706
238.80        55.85683
239.26        56.18254
239.71        53.76244
240.17        48.70783
240.63         45.6348
241.08        48.72084
241.54        54.62001
242.00        59.05527
242.46        59.89399
242.91        57.08435
243.37        49.15115
243.83         31.8823
244.28        8.470771
244.74         4.16428
245.20        21.63207
245.66        38.58979
246.11        44.65578
246.57         41.9834
247.03        32.50559
247.48        16.84172
247.94        8.325074
248.40        18.75919
248.85        38.38973
249.31        57.53188
249.77        69.71232
250.22        75.18056
250.68        76.93414
251.14        76.46797
251.59        74.63346
252.05        71.52392
252.51          65.838
252.96        56.87377
253.42        48.55939
253.88        44.77895
254.33        45.43612
254.79        47.35787
255.25         47.2823
255.70        45.47318
256.16        43.57728
256.62        42.75865
257.07        44.22077
257.53        47.39215
257.99        50.66401
258.44        53.00237
258.90        53.90834
259.35        53.35075
259.81        52.21603
260.27        50.68952
260.72        48.99596
261.18         47.6004
261.63        46.27285
262.09        45.24141
262.55        44.44423
263.00        43.77271
263.46        43.29273
263.91        42.91149
264.37        42.78139
264.83        42.78793
265.28        42.84647
265.74        42.80897
266.19        42.31655
266.65        41.43256
267.11        40.25545
267.56        39.02572
268.02        38.22112
268.47        37.89204
268.93        37.88086
269.38        37.98959
269.84        37.92704
270.30        37.58455
270.75        37.05893
271.21        36.33426
271.66        35.34526
272.12        34.15548
272.57        32.76132
273.03        31.41657
273.48        30.44244
273.94        29.94263
274.39        29.78981
274.85        29.77339
275.31        29.50835
275.76           28.91
276.22        28.12646
276.67        27.31558
277.13        26.78533
277.58        26.53941
278.04        26.50498
278.49        26.46991
278.95        26.23655
279.40        25.72769
279.86        25.08624
280.31        24.43675
280.77        24.05986
281.22        23.95787
281.68        24.06301
282.13        24.19787
282.59        24.16068
283.04        23.90082
283.50         23.5008
283.95        23.07602
284.41        22.83101
284.86        22.79029
285.32        22.89771
285.77        23.01565
286.22        22.97793
286.68        22.77387
287.13        22.44182
287.59         22.1207
288.04        21.94754
288.50        21.97549
288.95        22.11745
289.41         22.2977
289.86        22.36567
290.32        22.30541
290.77         22.1651
291.22        22.00792
291.68          21.919
292.13        21.92172
292.59        22.00532
293.04        22.15944
293.50        22.39222
293.95        22.68976
294.40        23.06159
294.86        23.49457
295.31        23.95651
295.77        24.44252
296.22        24.93917
296.68        25.45549
297.13        25.98564
297.58        26.53019
298.04        27.08219
298.49        27.62479
298.95        28.14966
299.40        28.65375
299.85        29.13561
300.31        29.63805
300.76        30.18682
301.21        30.78654
301.67        31.42678
302.12         32.0167
302.58         32.4618
303.03         32.7359
303.48        32.88121
303.94        33.02237
304.39        33.30066
304.84        33.75434
305.30        34.33721
305.75        34.90169
306.20         35.2642
306.66        35.39835
307.11        35.33252
307.57        35.21619
308.02        35.21638
308.47         35.3819
308.93        35.65058
309.38        35.87663
309.83        35.86665
310.29        35.60195
310.74        35.15307
311.19        34.66369
311.65        34.35387
312.10        34.26422
312.55        34.32601
313.00        34.45735
313.46        34.53365
313.91        34.50374
314.36          34.408
314.82        34.24095
315.27        33.98866
315.72        33.66661
316.18        33.28677
316.63        32.89569
317.08        32.59431
317.53        32.40629
317.99        32.30589
318.44        32.25961
318.89        32.18866
319.35        32.06786
319.80        31.92082
320.25        31.75438
320.70        31.58693
321.16        31.41745
321.61        31.23545
322.06        31.04694
322.51        30.87113
322.97         30.7054
323.42        30.56207
323.87        30.40123
324.32         30.1623
324.78        29.83561
325.23        29.44657
325.68        29.06183
326.13        28.79765
326.59        28.66816
327.04        28.65912
327.49        28.67855
327.94        28.58128
328.39        28.32753
328.85        27.95427
329.30        27.54231
329.75        27.22328
330.20        27.04617
330.66         26.9639
331.11        26.94503
331.56         26.8897
332.01        26.76731
332.46        26.60705
332.92         26.4361
333.37        26.32561
333.82        26.28318
334.27        26.27657
334.72        26.27495
335.17        26.23477
335.63        26.13487
336.08        26.01073
336.53        25.85527
336.98        25.66668
337.43        25.46042
337.88        25.24579
338.34        25.06846
338.79        25.00542
339.24          25.068
339.69        25.22642
340.14        25.42433
340.59        25.56791
341.05        25.62347
341.50        25.61877
341.95        25.55397
342.40        25.44389
342.85        25.30243
343.30        25.12037
343.75        24.94117
344.20        24.83677
344.66        24.82408
345.11        24.88843
345.56        24.96201
346.01        24.92907
346.46        24.76585
346.91        24.50295
347.36        24.23265
347.81        24.09454
348.26        24.11952
348.72        24.27437
349.17        24.45024
349.62        24.47309
350.07        24.30684
350.52         23.9963
350.97        23.69123
351.42        23.63096
351.87         23.8506
352.32        24.25969
352.77        24.65756
353.22        24.74032
353.67        24.45054
354.13        23.91025
354.58        23.28189
355.03         22.8766
355.48         22.7828
355.93        22.90859
356.38        23.13396
356.83        23.27024
357.28         23.2584
357.73        23.16018
358.18        23.02645
358.63        22.93118
359.08        22.89196
359.53        22.86657
359.98        22.82731
360.43        22.74285
360.88         22.6063
361.33         22.4375
361.78        22.23808
362.23         22.0421
362.68        21.86827
363.13        21.64428
363.58        21.37728
364.03         21.4407
364.48        21.24933
364.93        21.25406
365.38        21.24412
365.83        21.17631
366.28        21.03066
366.73        20.83096
367.18        20.59603
367.63        20.34237
368.08        20.08821
368.53        19.83483
368.98        19.60519
369.43        19.43429
369.88        19.32847
370.33        19.27919
370.78        19.25957
371.23        19.22391
371.68        19.15091
372.13        19.04011
372.58        18.90141
373.03        18.75419
373.48        18.60958
373.93        18.47646
374.38        18.33413
374.83        18.14866
375.28        17.92516
375.72        17.66841
376.17        17.47488
376.62        17.45388
377.07        17.60747
377.52        17.87519
377.97        18.13841
378.42        18.21343
378.87        18.06147
379.32        17.75455
379.77        17.36646
380.22        17.00947
380.67        16.72698
381.11        16.48585
381.56        16.31369
382.01        16.25413
382.46         16.3016
382.91        16.44605
383.36        16.59621
383.81        16.60352
384.26        16.43942
384.71        16.14422
385.15        15.80575
385.60        15.59867
386.05        15.55581
386.50        15.63221
386.95        15.75758
387.40        15.82071
387.85        15.79404
388.29         15.7054
388.74        15.62302
389.19        15.60561
389.64        15.65915
390.09        15.74541
390.54        15.82117
390.98         15.8204
391.43        15.73712
391.88        15.60533
392.33        15.44195
392.78         15.2937
393.23         15.1831
393.67        15.03015
394.12        14.87767
394.57        14.95963
395.02        15.00626
395.47         14.9765
395.91        14.81739
396.36        14.73808
396.81        14.75065
397.26        14.74528
397.71        14.69603
398.15        14.62121
398.60        14.53764
399.05        14.38683
399.50        14.23625
399.95        14.27236
400.39        14.45955
400.84        14.56368
401.29        14.53842
401.74        14.45142
402.18        14.32747
402.63        14.21288
403.08        14.13766
403.53        14.07353
403.97        14.03631
404.42        14.08704
404.87          14.179
405.32        14.21006
405.76        14.16104
406.21        14.02843
406.66        13.87499
407.11        13.86293
407.55        13.97396
408.00        14.03541
408.45        14.00638
408.90         13.8684
409.34        13.67807
409.79        13.63742
410.24        13.73539
410.68        13.77446
411.13        13.74681
411.58        13.78133
412.03        13.87995
412.47        13.97229
412.92        14.03706
413.37        14.09773
413.81        14.12822
414.26        14.09977
414.71        14.01023
415.15        13.87108
415.60        13.72236
416.05        13.64183
416.49        13.65274
416.94         13.7297
417.39         13.8363
417.83        13.91464
418.28        13.93992
418.73        13.92232
419.17        13.87533
419.62        13.82455
420.07        13.78636
420.51        13.76168
420.96        13.73553
421.41        13.70345
421.85        13.66175
422.30         13.5509
422.74        13.43364
423.19        13.57188
423.64        13.90655
424.08        14.06678
424.53         13.9732
424.98        13.90372
425.42          13.868
425.87        13.60934
426.31          13.243
426.76        13.23521
427.21        13.52963
427.65        13.62208
428.10        13.49992
428.54        13.49164
428.99        13.59059
429.44        13.73427
429.88        13.83381
430.33        13.58971
430.77        13.15809
431.22        13.11175
431.66        13.43673
432.11        13.69182
432.56        13.80024
433.00        13.89106
433.45        13.83397
433.89        13.53738
434.34        13.26957
434.78        12.58668
435.23        13.10984
435.67        13.59363
436.12        13.85899
436.57        14.04453
437.01        14.00253
437.46        13.93361
437.90         13.9062
438.35        13.86006
438.79        13.42437
439.24        13.25747
439.68        13.27084
440.13        13.39246
440.57        13.54469
441.02        13.72241
441.46        13.85515
441.91        13.66234
442.35        13.29686
442.80        13.39229
443.24        13.83699
443.69         13.8337
444.13        13.39944
444.58        13.20029
445.02        13.23983
445.47        13.17672
445.91        13.02192
446.36        12.97311
446.80        13.03238
447.24        13.13497
447.69        13.25254
448.13        13.37921
448.58        13.48085
449.02        13.49635
449.47        13.44783
449.91        13.43422
450.36        13.46828
450.80        13.49227
451.25        13.50234
451.69         13.5164
452.13         13.5273
452.58        13.52006
453.02        13.49063
453.47        13.43881
453.91        13.36539
454.36        13.29623
454.80         13.2201
455.24        13.10565
455.69         12.9892
456.13        12.89397
456.58        12.85228
457.02        12.95745
457.46        13.13343
457.91        13.14273
458.35        13.04671
458.79        13.02231
459.24        13.09048
459.68          13.125
460.13        13.13521
460.57        13.11622
461.01        13.12791
461.46        13.17807
461.90        13.18745
462.34        13.17527
462.79        13.33881
463.23        13.32475
463.68          13.217
464.12        13.12053
464.56        13.06276
465.01        13.07434
465.45        13.09461
465.89        13.02917
466.34        12.91954
466.78        12.83421
467.22        12.77982
467.67        13.03509
468.11        13.01516
468.55        13.04099
468.99         12.9552
469.44        12.91741
469.88        12.92858
470.32        12.89085
470.77        12.82129
471.21        12.78789
471.65        12.80186
472.10        12.85041
472.54         12.9036
472.98        12.93171
473.42        12.93207
473.87        12.87875
474.31          12.814
474.75        12.92416
475.20         13.1693
475.64        13.28093
476.08        13.23695
476.52        13.26384
476.97        13.37201
477.41         13.3037
477.85        13.20087
478.29        13.26604
478.74        13.17424
479.18        13.07553
479.62        13.29711
480.06        13.34201
480.50         13.3478
480.95        13.31936
481.39        13.25735
481.83        13.45024
482.27        13.49408
482.72        13.48271
483.16        13.70777
483.60        13.76878
484.04        13.76413
484.48        13.81127
484.93        14.01341
485.37        13.86068
485.81         13.9591
486.25        14.29573
486.69        14.04887
487.14        13.63322
487.58        14.69824
488.02        14.41824
488.46        14.49234
488.90        14.64779
489.34        14.09039
489.79        13.99888
490.23        14.54305
490.67        14.77613
491.11        14.80204
491.55         14.8136
491.99        14.86083
492.43        14.95001
492.88        15.08222
493.32        15.19602
493.76        15.28308
494.20        15.41062
494.64        15.59083
495.08        15.75435
495.52        15.88707
495.96        16.10374
496.41        16.38963
496.85        16.31149
497.29        16.00933
497.73        16.12852
498.17        16.60738
498.61        16.88134
499.05         16.8619
499.49        16.83279
499.93        16.84367
500.37         16.8451
500.82        16.86235
501.26        16.97344
501.70        17.19584
502.14        17.15544
502.58        17.43548
503.02        17.53782
503.46        17.56021
503.90        17.53793
504.34        17.49431
504.78        17.52402
505.22        17.63393
505.66        17.76605
506.10        17.89044
506.54        18.00811
506.98        18.11158
507.42        18.11759
507.86        18.18161
508.30        18.21173
508.74        18.25901
509.18        18.30956
509.62        18.36934
510.06        18.44689
510.50        18.53821
510.94        18.64094
511.38        18.73663
511.82        18.79512
512.26        18.81031
512.70         18.7925
513.14        18.75966
513.58        18.73443
514.02        18.72601
514.46        18.74248
514.90        18.78233
515.34        18.77549
515.78        18.82581
516.22        18.84766
516.66        18.87371
517.10        18.90065
517.54        18.92717
517.98        18.94993
518.42        18.95918
518.86        18.94473
519.30         18.9053
519.74        18.84459
520.18        18.77901
520.62        18.73251
521.06        18.71282
521.50        18.71938
521.93        18.73585
522.37        18.72609
522.81        18.68615
523.25        18.62062
523.69        18.56089
524.13        18.55729
524.57        18.61277
525.01        18.70582
525.45        18.78286
525.89        18.76008
526.32        18.62103
526.76        18.40668
527.20        18.17057
527.64        18.00088
528.08        17.92343
528.52        17.90846
528.96        17.93606
529.40        17.97352
529.83        18.00248
530.27        18.03392
530.71        18.04446
531.15        17.99598
531.59        17.88704
532.03        17.72822
532.46        17.56041
532.90        17.46529
533.34        17.45674
533.78        17.51117
534.22        17.59069
534.66        17.63499
535.09        17.62612
535.53        17.58712
535.97         17.5319
536.41        17.48401
536.85        17.45468
537.28        17.43791
537.72        17.43698
538.16        17.45634
538.60        17.49603
539.04        17.55829
539.47        17.63381
539.91        17.71774
540.35        17.80131
540.79        17.88781
541.22         17.9685
541.66        18.03167
542.10        18.07652
542.54        18.10825
542.97        18.13979
543.41        18.20259
543.85        18.29986
544.29        18.42407
544.72        18.55882
545.16        18.69234
545.60          18.813
546.04        18.92547
546.47        19.03501
546.91        19.14502
547.35         19.2562
547.79        19.37498
548.22        19.49361
548.66        19.59826
549.10         19.7003
549.53        19.87241
549.97        20.10091
550.41          20.294
550.84        20.43982
551.28        20.58885
551.72        20.73763
552.15        20.85643
552.59        20.95193
553.03        21.02732
553.46        21.09663
553.90        21.19829
554.34        21.33458
554.77        21.50152
555.21        21.67569
555.65        21.81879
556.08        21.89894
556.52        21.97832
556.96        22.05606
557.39        22.16426
557.83        22.29077
558.27         22.3335
558.70        22.31625
559.14        22.36054
559.57         22.4693
560.01        22.61068
560.45        22.74378
560.88        22.79391
561.32         22.7992
561.75         22.8313
562.19        22.91319
562.63         23.0686
563.06        23.24439
563.50        23.25902
563.93        23.13738
564.37        23.12711
564.80        23.23359
565.24         23.3319
565.68        23.41484
566.11        23.52079
566.55        23.65136
566.98         23.8109
567.42        23.98257
567.85        24.07204
568.29        24.11943
568.72        24.20342
569.16        24.33354
569.60        24.51612
570.03        24.76732
570.47        24.81377
570.90        24.94735
571.34        25.41946
571.77        25.46829
572.21        25.51316
572.64        25.85692
573.08        25.76287
573.51         25.9882
573.95        26.10409
574.38        26.23741
574.82        26.23772
