SpectraSmart Spectrum 2.9.0.0
--------- Device Information -----------
Spectrum Name :  反射率_0
Saving Time :  2024/04/27 23:03:23
Spectro-Module Model Name : SE2030-DUVN
Spectro-Module Serial Number : OS361AC55029948
Wavelength Start : 200
Wavelength End : 1025
Wavelength Unit : Wavelength(nm)
Spectrum Unit : Reflectance(%)
-----------Spectrum Setting ------------
Integration Time : 20ms
Average : 10
Boxcar : 0
Background removal :  enabled
linearity correction :  enabled
SC :  disabled
Intensity correction :  disabled
DWT denoise :  enabled
savitzky-golay :  disabled
FFT :  disabled
Running average :  disabled
Kalman :  disabled
High pass :  disabled
---------------BEGIN--------------------
Wavelength(nm)             Reflectance(%)
200.29               0
200.75       -41.50371
201.21       -23.91644
201.67       -8.253183
202.13       -1.191961
202.58       0.3303368
203.04       -0.642391
203.50         1.04599
203.96        10.81058
204.42        26.37004
204.88         43.4207
205.34        57.08519
205.80        63.84458
206.26        63.71793
206.72         55.8072
207.18        39.38017
207.64        25.55339
208.10        25.75999
208.55         35.1706
209.01        40.69562
209.47        35.73584
209.93        16.47807
210.39       -36.27345
210.85        -196.025
211.31       -383.8268
211.77        -147.152
212.23        4.621125
212.69        57.13762
213.14        71.96639
213.60        69.53877
214.06         53.6478
214.52        21.85271
214.98       -2.695147
215.44        6.155597
215.90        27.20498
216.36        44.64013
216.81        53.79165
217.27         56.8267
217.73        57.47295
218.19         55.8107
218.65        50.88512
219.11        42.91309
219.57        31.73053
220.02        19.48031
220.48        13.94781
220.94        17.43191
221.40        26.51188
221.86         37.9194
222.32         48.4653
222.77        56.98425
223.23        63.78555
223.69        67.69768
224.15        67.25202
224.61        62.85857
225.06        55.07777
225.52        46.40367
225.98        41.93157
226.44        42.70899
226.90        46.01652
227.36        49.54775
227.81        51.53696
228.27        51.96733
228.73        51.53886
229.19        50.16994
229.65         47.7436
230.10        44.53189
230.56        40.97559
231.02        37.81806
231.48        36.18337
231.93        36.06213
232.39        37.06835
232.85        38.67225
233.31        40.11661
233.77        41.16067
234.22        42.14474
234.68        42.68699
235.14        42.39481
235.60        41.25454
236.05        39.05851
236.51        36.85551
236.97        36.92021
237.43        39.95113
237.88         45.4681
238.34        50.90067
238.80        53.49877
239.26        52.48098
239.71        47.03993
240.17        37.27902
240.63        31.34937
241.08        36.75111
241.54        47.92194
242.00        56.90936
242.46        60.08837
242.91        57.98503
243.37        49.48717
243.83         30.2667
244.28        5.903609
244.74        5.696331
245.20        28.86541
245.66        49.22246
246.11        56.68153
246.57        54.27371
247.03        43.73666
247.48        24.81872
247.94        10.10635
248.40        13.57325
248.85        27.57775
249.31        43.02935
249.77         52.9818
250.22        57.24399
250.68         58.8534
251.14        58.67522
251.59        56.83317
252.05        53.39341
252.51        47.07383
252.96        38.04249
253.42        32.58541
253.88          34.179
254.33        40.17263
254.79        45.54268
255.25        46.80344
255.70        44.88334
256.16        41.99239
256.62        39.95332
257.07        40.62647
257.53        43.48411
257.99        46.76246
258.44        49.13073
258.90        49.77641
259.35        48.77549
259.81        47.14517
260.27        45.34912
260.72        43.92919
261.18        43.20154
261.63        42.68137
262.09        42.31226
262.55         41.7598
263.00        40.93086
263.46        40.05661
263.91        39.15162
264.37        38.48951
264.83        38.03779
265.28        37.69516
265.74        37.37342
266.19        36.82402
266.65        36.07471
267.11        35.16835
267.56        34.23039
268.02        33.54329
268.47         33.1194
268.93        32.87951
269.38        32.67358
269.84        32.28416
270.30        31.66119
270.75        30.89492
271.21        30.06852
271.66        29.27158
272.12         28.5657
272.57        27.88324
273.03        27.30172
273.48        26.86929
273.94        26.61352
274.39        26.48393
274.85        26.37151
275.31        26.05736
275.76        25.50347
276.22        24.79862
276.67        24.07359
277.13        23.59241
277.58        23.34925
278.04        23.28822
278.49        23.20939
278.95        22.91307
279.40        22.33192
279.86        21.61233
280.31        20.87542
280.77        20.38859
281.22        20.16864
281.68        20.15412
282.13        20.21251
282.59        20.18853
283.04        20.03797
283.50        19.81788
283.95        19.59204
284.41        19.47944
284.86        19.48464
285.32         19.5631
285.77        19.62889
286.22        19.58768
286.68         19.4376
287.13        19.19646
287.59        18.94376
288.04        18.73141
288.50        18.60798
288.95        18.53773
289.41        18.51833
289.86        18.51125
290.32        18.51897
290.77        18.54483
291.22        18.60226
291.68        18.70699
292.13        18.84903
292.59        19.02212
293.04        19.20483
293.50        19.38562
293.95        19.55765
294.40        19.74799
294.86        19.95663
295.31        20.17663
295.77        20.42188
296.22        20.67702
296.68        21.00472
297.13        21.48053
297.58        22.10266
298.04        22.82629
298.49         23.5266
298.95        24.02499
299.40        24.29234
299.85        24.38585
300.31         24.4476
300.76         24.6689
301.21        25.10647
301.67        25.69886
302.12        26.31828
302.58        26.80298
303.03        27.10145
303.48        27.26843
303.94        27.41504
304.39         27.6666
304.84        28.05667
305.30         28.5386
305.75         28.9798
306.20        29.21591
306.66        29.23275
307.11        29.06817
307.57        28.87965
308.02        28.84982
308.47        29.02931
308.93         29.3484
309.38        29.65981
309.83          29.761
310.29        29.61909
310.74        29.29234
311.19        28.90434
311.65        28.64746
312.10        28.55639
312.55        28.57608
313.00        28.62361
313.46        28.57358
313.91        28.38996
314.36        28.12077
314.82        27.81063
315.27        27.52302
315.72        27.28315
316.18        27.07456
316.63        26.87814
317.08        26.68676
317.53        26.49536
317.99        26.30875
318.44        26.13015
318.89        25.94686
319.35        25.75551
319.80        25.55372
320.25         25.3474
320.70        25.15363
321.16        24.96781
321.61        24.79154
322.06        24.60159
322.51        24.36309
322.97           24.07
323.42        23.74652
323.87        23.41797
324.32        23.13347
324.78        22.90499
325.23        22.71826
325.68        22.56281
326.13        22.42206
326.59        22.27601
327.04        22.15291
327.49        22.01304
327.94        21.79848
328.39        21.50135
328.85        21.12746
329.30        20.75857
329.75        20.54052
330.20        20.50919
330.66        20.61835
331.11        20.76374
331.56        20.72915
332.01        20.46131
332.46        20.01758
332.92        19.52179
333.37        19.21121
333.82        19.15035
334.27        19.26488
334.72        19.44745
335.17        19.51958
335.63         19.4198
336.08        19.22384
336.53        18.96702
336.98        18.71481
337.43         18.5046
337.88        18.31311
338.34        18.17488
338.79        18.15145
339.24        18.24475
339.69        18.43361
340.14        18.64144
340.59        18.73917
341.05        18.68889
341.50        18.52546
341.95         18.2908
342.40        18.06598
342.85        17.88226
343.30        17.72157
343.75        17.58106
344.20        17.45414
344.66        17.34453
345.11        17.26344
345.56        17.21102
346.01         17.1783
346.46        17.15739
346.91         17.1349
347.36        17.12003
347.81        17.12839
348.26        17.16051
348.72        17.21923
349.17        17.25578
349.62        17.19245
350.07        17.01987
350.52         16.7513
350.97        16.50022
351.42        16.44784
351.87        16.61801
352.32        16.95277
352.77        17.27376
353.22        17.30662
353.67        17.00394
354.13         16.4698
354.58        15.87582
355.03        15.54941
355.48        15.57119
355.93        15.84121
356.38        16.19007
356.83         16.3525
357.28        16.26042
357.73         16.0032
358.18        15.69574
358.63        15.51291
359.08         15.4976
359.53        15.57901
359.98        15.68383
360.43        15.70662
360.88        15.61783
361.33        15.45782
361.78        15.25309
362.23        15.07988
362.68        14.96778
363.13         14.8223
363.58         14.6262
364.03        14.74884
364.48        14.54992
364.93        14.53507
365.38         14.5066
365.83        14.46422
366.28        14.39582
366.73        14.30958
367.18        14.19854
367.63        14.03735
368.08        13.83128
368.53        13.59333
368.98        13.36021
369.43        13.18902
369.88        13.09591
370.33        13.06868
370.78        13.07713
371.23        13.07047
371.68        13.02688
372.13        12.94863
372.58         12.8551
373.03        12.77868
373.48        12.72882
373.93        12.70518
374.38        12.66412
374.83        12.53858
375.28        12.32575
375.72        12.03957
376.17        11.79723
376.62        11.74323
377.07        11.89154
377.52        12.17783
377.97        12.46737
378.42        12.55016
378.87        12.38353
379.32        12.04791
379.77        11.64422
380.22        11.32472
380.67        11.13711
381.11        11.03376
381.56        11.00115
382.01        11.01509
382.46        11.05563
382.91        11.13511
383.36        11.20895
383.81        11.20187
384.26        11.10247
384.71        10.92674
385.15        10.72804
385.60        10.62436
386.05        10.63357
386.50        10.73057
386.95        10.86261
387.40        10.94409
387.85        10.95552
388.29         10.9161
388.74        10.88558
389.19        10.92469
389.64        11.03815
390.09        11.18985
390.54        11.32942
390.98        11.37808
391.43        11.32233
391.88        11.19921
392.33        11.03568
392.78        10.88671
393.23        10.77628
393.67        10.64293
394.12        10.51825
394.57        10.56475
395.02        10.59166
395.47        10.57391
395.91        10.47348
396.36        10.43436
396.81        10.46294
397.26        10.47755
397.71        10.46167
398.15        10.43306
398.60         10.4019
399.05        10.32347
399.50        10.23463
399.95        10.25351
400.39        10.35254
400.84        10.36861
401.29        10.28782
401.74        10.18881
402.18        10.09912
402.63         10.0492
403.08        10.04195
403.53        10.02585
403.97         10.0039
404.42        10.02453
404.87        10.08032
405.32         10.1391
405.76        10.19067
406.21        10.21551
406.66        10.21543
407.11        10.24297
407.55        10.27097
408.00         10.1924
408.45        10.02723
408.90         9.84834
409.34        9.718176
409.79        9.752643
410.24        9.906916
410.68        9.979328
411.13        9.946417
411.58        9.923678
412.03        9.926169
412.47        9.927563
412.92        9.924751
413.37        9.925407
413.81        9.918839
414.26        9.897529
414.71        9.858887
415.15        9.809097
415.60        9.756851
416.05        9.717447
416.49        9.698112
416.94        9.691107
417.39        9.695951
417.83        9.713467
418.28        9.734402
418.73        9.751836
419.17        9.756544
419.62        9.736087
420.07        9.694659
420.51        9.648849
420.96        9.594352
421.41        9.537251
421.85        9.480243
422.30        9.375953
422.74        9.282552
423.19         9.40472
423.64        9.702979
424.08        9.915447
424.53        9.943313
424.98        9.920512
425.42        9.839848
425.87        9.537356
426.31         9.14349
426.76        9.062216
427.21        9.271483
427.65        9.407003
428.10        9.413134
428.54        9.449659
428.99        9.496966
429.44        9.533765
429.88        9.529323
430.33        9.329556
430.77        9.050846
431.22        9.065119
431.66        9.342382
432.11        9.539528
432.56        9.592023
433.00        9.601576
433.45        9.499334
433.89        9.257979
434.34        9.077032
434.78         8.64019
435.23        9.045959
435.67        9.423643
436.12         9.63769
436.57        9.782133
437.01         9.76596
437.46        9.744289
437.90        9.765823
438.35        9.782587
438.79        9.497256
439.24         9.32385
439.68        9.195756
440.13        9.086987
440.57        9.001426
441.02        9.024301
441.46        9.129525
441.91        9.097549
442.35        8.978201
442.80        9.134796
443.24        9.480913
443.69        9.487766
444.13        9.175107
444.58        9.016775
445.02        9.021579
445.47        8.952456
445.91        8.820954
446.36        8.774203
446.80        8.815485
447.24         8.90095
447.69        9.008532
448.13        9.131505
448.58        9.241117
449.02        9.294801
449.47         9.29705
449.91        9.302667
450.36        9.317683
450.80        9.307174
451.25        9.277956
451.69         9.25914
452.13        9.251318
452.58        9.241714
453.02         9.22449
453.47        9.194151
453.91        9.148417
454.36        9.106616
454.80        9.061826
455.24        8.993738
455.69        8.927053
456.13        8.876252
456.58        8.857575
457.02        8.927193
457.46        9.030951
457.91        9.004317
458.35        8.904449
458.79        8.870975
459.24        8.921355
459.68        8.967178
460.13        8.993266
460.57         8.95992
461.01        8.906727
461.46        8.851926
461.90        8.780044
462.34        8.764116
462.79        8.945526
463.23        9.066898
463.68          9.1385
464.12        9.164346
464.56        9.143016
465.01        9.119259
465.45        9.070654
465.89         8.96395
466.34        8.840823
466.78        8.738923
467.22         8.66716
467.67        8.822251
468.11         8.81003
468.55        8.849871
468.99        8.826536
469.44        8.831727
469.88        8.861005
470.32        8.849375
470.77        8.812757
471.21        8.806196
471.65        8.838736
472.10        8.895534
472.54        8.951061
472.98        8.977759
473.42        8.971948
473.87        8.919127
474.31        8.851425
474.75        8.902879
475.20          9.0482
475.64        9.105065
476.08        9.058067
476.52        9.059696
476.97        9.117675
477.41        9.057073
477.85        8.982029
478.29        9.041776
478.74        9.014976
479.18        8.996602
479.62        9.198548
480.06        9.259689
480.50        9.267927
480.95         9.22766
481.39        9.152095
481.83        9.264009
482.27        9.294041
482.72        9.304626
483.16        9.479622
483.60        9.528174
484.04        9.506062
484.48        9.477286
484.93         9.57036
485.37        9.549067
485.81        9.719484
486.25        10.26443
486.69        9.578392
487.14        9.346126
487.58        10.29933
488.02        10.10858
488.46        10.12576
488.90        10.25322
489.34         9.86229
489.79        9.808671
490.23        10.17283
490.67        10.43869
491.11        10.62279
491.55        10.62139
491.99        10.50043
492.43        10.52279
492.88        10.70655
493.32        10.85754
493.76          10.956
494.20        11.09817
494.64        11.28862
495.08        11.46541
495.52        11.61536
495.96        11.80944
496.41        12.05305
496.85        12.01572
497.29        11.81091
497.73         11.9242
498.17        12.31423
498.61        12.56125
499.05        12.58928
499.49         12.5953
499.93        12.61343
500.37        12.61063
500.82        12.61361
501.26        12.69078
501.70        12.85931
502.14        12.83659
502.58        13.05388
503.02        13.12926
503.46        13.13651
503.90        13.11038
504.34         13.0741
504.78        13.10715
505.22        13.21664
505.66        13.35067
506.10        13.49213
506.54        13.65219
506.98         13.8204
507.42        13.92609
507.86         14.0558
508.30        14.08744
508.74        14.05355
509.18        13.96374
509.62         13.8658
510.06        13.83607
510.50        13.89352
510.94        14.01944
511.38        14.17628
511.82        14.30107
512.26        14.37306
512.70        14.40811
513.14        14.42455
513.58        14.44685
514.02         14.4826
514.46        14.53182
514.90        14.58263
515.34        14.56772
515.78        14.56843
516.22        14.52625
516.66        14.48905
517.10        14.48785
517.54        14.52916
517.98        14.60153
518.42        14.67532
518.86        14.70524
519.30        14.68017
519.74        14.61334
520.18        14.53368
520.62        14.48623
521.06        14.48274
521.50        14.51116
521.93        14.54757
522.37        14.54578
522.81        14.49802
523.25        14.41623
523.69         14.3289
524.13         14.2799
524.57        14.27666
525.01        14.30342
525.45        14.32593
525.89        14.29076
526.32        14.18573
526.76        14.03847
527.20        13.88321
527.64        13.77604
528.08        13.73161
528.52        13.72902
528.96        13.74925
529.40        13.76267
529.83        13.75675
530.27        13.74068
530.71        13.70819
531.15        13.64778
531.59        13.56273
532.03        13.45823
532.46        13.35427
532.90        13.29547
533.34         13.2878
533.78        13.31923
534.22        13.37185
534.66        13.41662
535.09        13.44253
535.53        13.45834
535.97        13.46334
536.41        13.45849
536.85         13.4463
537.28        13.42576
537.72        13.40546
538.16        13.39862
538.60        13.40993
539.04        13.44143
539.47         13.4814
539.91        13.51907
540.35        13.54782
540.79        13.57275
541.22        13.60229
541.66        13.64998
542.10        13.71803
542.54        13.80357
542.97        13.89124
543.41        13.96572
543.85        14.02357
544.29         14.0724
544.72        14.12876
545.16         14.2316
545.60         14.3808
546.04        14.56206
546.47        14.75394
546.91        14.91692
547.35        15.03887
547.79          15.138
548.22        15.21882
548.66        15.28866
549.10        15.36352
549.53         15.4961
549.97        15.67894
550.41        15.84419
550.84         15.9799
551.28         16.1416
551.72        16.32555
552.15        16.45832
552.59        16.53156
553.03        16.72947
553.46        16.75164
553.90        16.89176
554.34        17.05878
554.77        17.25491
555.21        17.44136
555.65        17.56252
556.08        17.59253
556.52         17.5876
556.96        17.57942
557.39        17.64086
557.83        17.77161
558.27        17.87897
558.70        17.94507
559.14         18.0073
559.57        18.05614
560.01        18.08568
560.45        18.10607
560.88        18.12304
561.32        18.17798
561.75        18.30448
562.19        18.47884
562.63        18.65729
563.06        18.78292
563.50        18.73228
563.93        18.56057
564.37        18.52111
564.80        18.63095
565.24        18.76997
565.68        18.91111
566.11        19.05406
566.55        19.18939
566.98        19.33116
567.42        19.47153
567.85        19.54165
568.29        19.57814
568.72        19.64071
569.16        19.73813
569.60        19.88322
570.03         20.0924
570.47        20.13713
570.90        20.25002
571.34        20.67439
571.77        20.71812
572.21        20.77424
572.64        21.07461
573.08        21.04749
573.51        21.30316
573.95        21.44608
574.38         21.5723
574.82        21.58744
