SpectraSmart Spectrum 2.9.0.0
--------- Device Information -----------
Spectrum Name :  反射率_0
Saving Time :  2024/04/27 22:12:25
Spectro-Module Model Name : SE2030-DUVN
Spectro-Module Serial Number : OS361AC55029948
Wavelength Start : 200
Wavelength End : 1025
Wavelength Unit : Wavelength(nm)
Spectrum Unit : Reflectance(%)
-----------Spectrum Setting ------------
Integration Time : 20ms
Average : 10
Boxcar : 0
Background removal :  enabled
linearity correction :  enabled
SC :  disabled
Intensity correction :  disabled
DWT denoise :  enabled
savitzky-golay :  disabled
FFT :  disabled
Running average :  disabled
Kalman :  disabled
High pass :  disabled
---------------BEGIN--------------------
Wavelength(nm)             Reflectance(%)
200.29               0
200.75       -35.23092
201.21       -7.150859
201.67        21.57107
202.13        36.19795
202.58        40.95532
203.04        42.17322
203.50        43.61232
203.96        48.82448
204.42        56.93938
204.88        65.16027
205.34        71.42677
205.80        74.52197
206.26        74.47888
206.72          71.036
207.18        63.41594
207.64        55.32196
208.10        52.63223
208.55         54.9939
209.01        56.28268
209.47        53.18113
209.93        43.44528
210.39        17.42593
210.85       -60.40398
211.31       -148.6593
211.77       -31.18276
212.23        42.46215
212.69        67.40399
213.14        73.90162
213.60        71.17567
214.06          60.805
214.52        41.40591
214.98        27.72858
215.44        35.04622
215.90        49.42031
216.36        61.05847
216.81        67.36994
217.27        69.93037
217.73        71.03469
218.19        70.59026
218.65        67.80035
219.11        62.73531
219.57        55.27369
220.02         47.1916
220.48        44.48756
220.94         48.6499
221.40        57.10058
221.86        66.54279
222.32        73.82961
222.77        78.55438
223.23        81.60133
223.69        83.44419
224.15        84.61336
224.61        85.44261
225.06        85.82041
225.52         85.9425
225.98        85.70135
226.44        85.28436
226.90        84.85957
227.36        84.72503
227.81        85.06104
228.27        85.96288
228.73        87.24736
229.19        88.54207
229.65         89.0359
230.10         88.3461
230.56         86.9873
231.02        85.32855
231.48        83.98734
231.93         83.0699
232.39        82.61038
232.85        82.43082
233.31        82.41832
233.77        82.48662
234.22        82.62569
234.68         82.8108
235.14        83.00498
235.60        83.17554
236.05        83.32945
236.51        83.25758
236.97        82.66039
237.43        81.50887
237.88        80.13319
238.34        78.60561
238.80        77.36096
239.26        76.32244
239.71        75.31176
240.17         74.0023
240.63        72.82839
241.08        72.59213
241.54        73.00259
242.00        73.23271
242.46        72.34772
242.91        69.93233
243.37        64.57198
243.83        53.42732
244.28         38.2409
244.74        34.67305
245.20        44.93764
245.66        55.62013
246.11        60.27732
246.57        60.34138
247.03        57.69827
247.48        52.13061
247.94        47.12881
248.40        47.15907
248.85         49.6778
249.31        54.53472
249.77        62.01832
250.22        70.21999
250.68        77.91813
251.14        83.46404
251.59        85.51424
252.05        84.46342
252.51        80.26813
252.96        73.05463
253.42        67.59703
253.88        67.20152
254.33        69.99476
254.79        73.10824
255.25        74.00921
255.70        72.89292
256.16        71.37604
256.62        70.29109
257.07        70.50857
257.53        72.01456
257.99        73.65451
258.44        74.49387
258.90        74.23252
259.35        72.76752
259.81        71.06464
260.27        69.41029
260.72        68.18684
261.18        67.78302
261.63        67.61855
262.09        67.76544
262.55        67.86668
263.00        67.76837
263.46          67.724
263.91        67.58293
264.37         67.5613
264.83         67.5522
265.28        67.43871
265.74        67.27583
266.19        66.85332
266.65        66.26879
267.11        65.52834
267.56        64.66783
268.02        63.86481
268.47        63.11409
268.93        62.40854
269.38        61.73984
269.84        61.13421
270.30        60.57019
270.75        60.04058
271.21        59.47006
271.66        58.67565
272.12        57.66569
272.57         56.4455
273.03        55.21053
273.48        54.15863
273.94        53.40503
274.39        52.83332
274.85        52.35159
275.31        51.69766
275.76        50.80793
276.22        49.82628
276.67        48.84256
277.13         48.1349
277.58        47.65572
278.04        47.36554
278.49        47.04119
278.95        46.52708
279.40        45.72423
279.86        44.79674
280.31        43.80799
280.77        43.01194
281.22        42.39881
281.68        41.95993
282.13         41.5782
282.59        41.18477
283.04        40.71643
283.50        40.23596
283.95        39.74777
284.41        39.32905
284.86        38.96181
285.32         38.6391
285.77        38.30751
286.22        37.95495
286.68        37.58939
287.13        37.18622
287.59        36.76854
288.04        36.27468
288.50        35.75136
288.95         35.1876
289.41        34.67395
289.86        34.28053
290.32        34.04674
290.77        33.93175
291.22         33.8787
291.68        33.79102
292.13        33.62695
292.59        33.42052
293.04         33.2205
293.50        33.14002
293.95        33.18487
294.40        33.33236
294.86        33.49481
295.31        33.52542
295.77         33.4124
296.22        33.19502
296.68        33.00662
297.13        33.03371
297.58        33.31399
298.04        33.76962
298.49        34.25983
298.95        34.59183
299.40        34.71131
299.85        34.68611
300.31         34.6085
300.76         34.5894
301.21        34.67692
301.67         34.8305
302.12        34.99853
302.58        35.15128
303.03        35.25079
303.48        35.32117
303.94        35.38115
304.39        35.40502
304.84        35.40968
305.30        35.40491
305.75        35.36427
306.20        35.29014
306.66        35.19978
307.11        35.07155
307.57        34.96042
308.02        34.88588
308.47        34.86474
308.93        34.88279
309.38        34.88004
309.83        34.78908
310.29        34.60601
310.74        34.34262
311.19        34.04576
311.65        33.78903
312.10        33.57836
312.55        33.39865
313.00        33.24353
313.46        33.10172
313.91         32.9604
314.36        32.83178
314.82         32.6838
315.27        32.45927
315.72         32.1574
316.18        31.80332
316.63        31.45746
317.08        31.23763
317.53        31.16619
317.99        31.20409
318.44        31.28339
318.89        31.27635
319.35        31.14933
319.80        30.94107
320.25         30.7045
320.70        30.53275
321.16        30.44247
321.61        30.40166
322.06        30.37281
322.51        30.30202
322.97        30.16757
323.42        30.00587
323.87        29.81038
324.32        29.57504
324.78        29.30774
325.23        29.01545
325.68        28.74769
326.13        28.59343
326.59        28.55601
327.04        28.63041
327.49        28.72758
327.94        28.70661
328.39        28.52871
328.85        28.22359
329.30        27.87281
329.75        27.61146
330.20        27.48773
330.66        27.45597
331.11        27.47591
331.56        27.43178
332.01        27.29368
332.46        27.09876
332.92         26.8966
333.37        26.79676
333.82        26.81633
334.27        26.91129
334.72        27.02931
335.17        27.09009
335.63        27.05938
336.08        26.98219
336.53        26.85552
336.98        26.68731
337.43        26.49745
337.88        26.28868
338.34        26.11742
338.79        26.07884
339.24        26.19023
339.69        26.42729
340.14        26.71057
340.59        26.90606
341.05        26.97306
341.50        26.94461
341.95        26.87018
342.40        26.84394
342.85        26.88881
343.30        26.96867
343.75        27.04252
344.20        27.04768
344.66        26.97427
345.11        26.85107
345.56          26.707
346.01        26.58088
346.46        26.48723
346.91        26.40878
347.36        26.35696
347.81         26.3475
348.26        26.37739
348.72        26.44892
349.17         26.5112
349.62        26.48035
350.07        26.34381
350.52           26.12
350.97        25.90009
351.42        25.83348
351.87        25.94235
352.32        26.17339
352.77        26.40569
353.22        26.45402
353.67        26.28254
354.13        25.97061
354.58        25.59972
355.03        25.35166
355.48        25.28005
355.93        25.33307
356.38        25.44718
356.83        25.52383
357.28        25.52759
357.73        25.48493
358.18        25.41836
358.63        25.36112
359.08        25.31704
359.53         25.2633
359.98        25.17508
360.43        25.02061
360.88        24.80059
361.33        24.53784
361.78        24.25307
362.23        24.01128
362.68        23.83831
363.13        23.65505
363.58        23.45445
364.03        23.57542
364.48         23.4371
364.93        23.48059
365.38        23.49799
365.83        23.44422
366.28        23.30123
366.73        23.09371
367.18        22.84431
367.63        22.57826
368.08        22.31769
368.53        22.06255
368.98        21.84279
369.43         21.7027
369.88        21.64829
370.33          21.669
370.78        21.71988
371.23          21.725
371.68         21.6578
372.13        21.52688
372.58        21.36503
373.03        21.23037
373.48        21.14238
373.93        21.09459
374.38        21.04626
374.83        20.93315
375.28        20.74874
375.72        20.50461
376.17        20.30249
376.62        20.25809
377.07        20.38049
377.52        20.61311
377.97        20.83898
378.42        20.87803
378.87        20.69454
379.32        20.35863
379.77        19.96067
380.22        19.63592
380.67        19.42753
381.11         19.2963
381.56        19.22774
382.01        19.19744
382.46        19.18718
382.91        19.20577
383.36        19.22151
383.81        19.17966
384.26        19.06997
384.71        18.90381
385.15        18.70624
385.60        18.55348
386.05        18.45726
386.50        18.40836
386.95        18.39392
387.40        18.39068
387.85        18.39161
388.29        18.39018
388.74        18.41554
389.19        18.46855
389.64        18.54102
390.09        18.61135
390.54        18.65843
390.98        18.64941
391.43        18.58689
391.88        18.48936
392.33        18.34974
392.78        18.18784
393.23        18.02529
393.67        17.78502
394.12        17.53901
394.57         17.5908
395.02         17.6326
395.47        17.61353
395.91        17.46064
396.36        17.40262
396.81        17.44666
397.26        17.46145
397.71        17.43301
398.15        17.40839
398.60        17.40436
399.05        17.33718
399.50        17.24549
399.95          17.296
400.39        17.43761
400.84        17.40596
401.29        17.20293
401.74        17.00442
402.18        16.86723
402.63        16.82319
403.08        16.85828
403.53          16.853
403.97        16.80104
404.42         16.8001
404.87        16.83775
405.32        16.85896
405.76        16.85516
406.21         16.7991
406.66         16.7195
407.11        16.74327
407.55         16.8327
408.00        16.79895
408.45        16.64601
408.90        16.44058
409.34        16.26792
409.79        16.33611
410.24        16.57768
410.68        16.66767
411.13        16.57627
411.58        16.49135
412.03        16.45739
412.47        16.46443
412.92        16.51471
413.37        16.61038
413.81        16.70015
414.26        16.72159
414.71        16.65854
415.15        16.53243
415.60        16.38219
416.05        16.28452
416.49        16.26555
416.94        16.30061
417.39        16.35631
417.83        16.38165
418.28        16.35583
418.73        16.28831
419.17        16.20734
419.62        16.15958
420.07        16.16304
420.51        16.21174
420.96        16.25964
421.41        16.25705
421.85        16.19196
422.30        16.00757
422.74        15.80591
423.19        15.93568
423.64        16.33635
424.08        16.55965
424.53        16.49528
424.98        16.43974
425.42         16.3959
425.87        16.07018
426.31        15.60994
426.76        15.57678
427.21        15.90935
427.65        16.00818
428.10        15.85817
428.54        15.84382
428.99        15.95549
429.44        16.12044
429.88        16.23175
430.33        15.93052
430.77        15.40266
431.22        15.32479
431.66        15.68026
432.11        15.95864
432.56        16.07087
433.00        16.16055
433.45         16.0874
433.89        15.76444
434.34        15.50199
434.78        14.77606
435.23        15.44958
435.67        16.00357
436.12        16.21762
436.57        16.27112
437.01         16.0663
437.46        15.94862
437.90        16.01405
438.35        16.16317
438.79        15.87053
439.24        15.75761
439.68        15.69174
440.13        15.63421
440.57        15.58497
441.02          15.679
441.46        15.86937
441.91        15.79919
442.35        15.56058
442.80        15.75874
443.24        16.26566
443.69        16.26041
444.13        15.78111
444.58          15.561
445.02        15.61321
445.47        15.56732
445.91        15.42536
446.36        15.38353
446.80         15.4411
447.24        15.53513
447.69        15.64399
448.13        15.77398
448.58        15.88935
449.02        15.91167
449.47         15.8605
449.91        15.84186
450.36        15.86905
450.80        15.87909
451.25         15.8725
451.69        15.87645
452.13        15.88621
452.58        15.88344
453.02        15.86512
453.47        15.83354
453.91        15.78883
454.36        15.75839
454.80        15.72536
455.24        15.64556
455.69        15.55721
456.13        15.48688
456.58        15.46842
457.02        15.60967
457.46        15.81804
457.91        15.80835
458.35        15.66275
458.79        15.60707
459.24        15.66992
459.68        15.70155
460.13        15.70433
460.57        15.65819
461.01        15.63435
461.46        15.64875
461.90        15.62612
462.34        15.61964
462.79        15.86847
463.23        15.93998
463.68        15.90707
464.12         15.8525
464.56        15.79825
465.01        15.79242
465.45        15.77948
465.89        15.67022
466.34        15.52301
466.78        15.41592
467.22        15.35064
467.67        15.65271
468.11        15.61822
468.55         15.6372
468.99        15.53318
469.44        15.51424
469.88        15.58429
470.32        15.61998
470.77        15.61752
471.21        15.62245
471.65        15.63769
472.10        15.65343
472.54        15.66206
472.98         15.6743
473.42        15.69494
473.87        15.67902
474.31           15.64
474.75        15.74515
475.20        15.93815
475.64        15.91909
476.08         15.7163
476.52        15.67305
476.97        15.81457
477.41        15.81326
477.85         15.7986
478.29        15.94936
478.74        15.85487
479.18         15.7136
479.62        15.93763
480.06        15.96298
480.50        15.96065
480.95        15.91543
481.39        15.82556
481.83        16.03265
482.27        16.05877
482.72        16.03034
483.16        16.27035
483.60         16.2937
484.04        16.21695
484.48        16.09663
484.93        16.13169
485.37         16.0422
485.81        16.43681
486.25        16.93826
486.69        16.38912
487.14        15.95245
487.58        16.80601
488.02        16.79176
488.46        16.69532
488.90        17.15884
489.34        16.53009
489.79        16.34514
490.23        16.74913
490.67        16.95524
491.11        17.07675
491.55        17.02373
491.99        16.88022
492.43         16.9025
492.88         17.1053
493.32        17.29614
493.76         17.4308
494.20        17.57798
494.64        17.73954
495.08        17.84097
495.52        17.89018
495.96        18.05761
496.41        18.33066
496.85        18.22325
497.29        17.87972
497.73        18.00188
498.17        18.51418
498.61        18.79359
499.05        18.74833
499.49        18.70157
499.93        18.70912
500.37        18.71077
500.82        18.72692
501.26        18.83544
501.70        19.05225
502.14        18.96551
502.58        19.22682
503.02         19.2947
503.46        19.27988
503.90        19.21977
504.34        19.13529
504.78        19.12189
505.22        19.18778
505.66        19.27592
506.10        19.36198
506.54        19.45892
506.98        19.55986
507.42        19.56728
507.86        19.64599
508.30        19.69191
508.74        19.75563
509.18        19.82411
509.62        19.88962
510.06        19.93902
510.50        19.96809
510.94        19.98309
511.38        19.99459
511.82        20.01908
512.26        20.05937
512.70        20.11048
513.14        20.16197
513.58        20.18836
514.02        20.18538
514.46        20.17821
514.90         20.1796
515.34        20.13831
515.78        20.17594
516.22        20.19189
516.66        20.22683
517.10        20.28685
517.54        20.36983
517.98        20.47181
518.42        20.56373
518.86        20.60242
519.30        20.57945
519.74        20.50542
520.18        20.41945
520.62        20.38397
521.06        20.41294
521.50         20.4903
521.93        20.57606
522.37        20.59565
522.81        20.53618
523.25        20.41957
523.69        20.29187
524.13        20.22455
524.57        20.23253
525.01        20.29134
525.45        20.35645
525.89        20.35805
526.32         20.2779
526.76        20.14929
527.20        20.00851
527.64        19.91545
528.08        19.88547
528.52        19.89399
528.96        19.92188
529.40        19.94033
529.83        19.93673
530.27        19.92407
530.71        19.89238
531.15        19.82518
531.59        19.72545
532.03        19.59843
532.46         19.4742
532.90        19.41452
533.34        19.42693
533.78        19.49453
534.22        19.57966
534.66        19.62331
535.09         19.6093
535.53        19.55807
535.97        19.49379
536.41        19.45807
536.85        19.46321
537.28        19.49802
537.72         19.5448
538.16        19.57288
538.60        19.57717
539.04        19.57397
539.47         19.5771
539.91        19.61866
540.35        19.69677
540.79        19.79989
541.22        19.90669
541.66        19.98531
542.10          20.027
542.54        20.04628
542.97        20.04922
543.41        20.05671
543.85        20.07518
544.29        20.10176
544.72        20.14624
545.16        20.23923
545.60        20.37541
546.04        20.54553
546.47        20.72456
546.91        20.86621
547.35         20.9576
547.79        21.02115
548.22        21.06865
548.66         21.1157
549.10        21.18439
549.53        21.34315
549.97        21.57034
550.41        21.75694
550.84         21.8877
551.28        22.02275
551.72        22.16174
552.15         22.2768
552.59        22.37434
553.03        22.45189
553.46        22.52228
553.90        22.62434
554.34        22.75896
554.77        22.92425
555.21        23.08747
555.65        23.19636
556.08        23.21792
556.52        23.22203
556.96        23.22927
557.39        23.30471
557.83        23.44009
558.27        23.52068
558.70        23.54145
559.14        23.58186
559.57        23.63614
560.01        23.68608
560.45        23.72647
560.88        23.73626
561.32        23.76545
561.75        23.86961
562.19        24.03522
562.63         24.2296
563.06        24.38366
563.50        24.32454
563.93        24.11526
564.37        24.06973
564.80        24.20466
565.24        24.37081
565.68        24.52624
566.11        24.65915
566.55         24.7609
566.98        24.85484
567.42        24.95292
567.85        25.00425
568.29        25.06062
568.72         25.1801
569.16        25.34688
569.60        25.56078
570.03         25.8396
570.47        25.85504
570.90        25.89773
571.34        26.50104
571.77        26.42513
572.21        26.41574
572.64        26.67426
573.08        26.63599
573.51        27.05249
573.95        27.14071
574.38        27.02629
574.82        27.22053
