SpectraSmart Spectrum 2.9.0.0
--------- Device Information -----------
Spectrum Name :  反射率_0
Saving Time :  2024/04/27 22:15:24
Spectro-Module Model Name : SE2030-DUVN
Spectro-Module Serial Number : OS361AC55029948
Wavelength Start : 200
Wavelength End : 1025
Wavelength Unit : Wavelength(nm)
Spectrum Unit : Reflectance(%)
-----------Spectrum Setting ------------
Integration Time : 20ms
Average : 10
Boxcar : 0
Background removal :  enabled
linearity correction :  enabled
SC :  disabled
Intensity correction :  disabled
DWT denoise :  enabled
savitzky-golay :  disabled
FFT :  disabled
Running average :  disabled
Kalman :  disabled
High pass :  disabled
---------------BEGIN--------------------
Wavelength(nm)             Reflectance(%)
200.29               0
200.75       -14.41181
201.21        25.37635
201.67        55.06775
202.13        65.37553
202.58        63.46422
203.04          55.083
203.50        47.61509
203.96        50.84421
204.42        63.56174
204.88        79.76184
205.34        93.52665
205.80        100.2391
206.26        99.76702
206.72        92.12208
207.18        76.73821
207.64         64.2129
208.10        64.94539
208.55        73.05267
209.01         78.3113
209.47          75.994
209.93        63.79796
210.39        30.16085
210.85       -75.40726
211.31       -220.0215
211.77        -79.5852
212.23        21.78964
212.69        59.20016
213.14        71.54845
213.60        72.71812
214.06        67.26876
214.52        53.48286
214.98        38.75834
215.44        36.16994
215.90        39.47414
216.36        43.89106
216.81        47.69682
217.27        50.65383
217.73        54.20562
218.19        56.63686
218.65        54.34717
219.11        46.43209
219.57        33.02456
220.02        17.43701
220.48        10.24801
220.94        14.70048
221.40        26.41355
221.86         39.2933
222.32        47.28211
222.77        50.20177
223.23        50.38305
223.69        49.39994
224.15        48.70764
224.61        48.70206
225.06        48.63015
225.52        48.86042
225.98        49.60201
226.44        50.49987
226.90        51.23935
227.36        51.49602
227.81         50.8849
228.27        49.40884
228.73        47.15895
229.19         44.0559
229.65        40.31297
230.10        36.37823
230.56        32.77139
231.02        29.98728
231.48        28.64135
231.93         28.6204
232.39        29.66687
232.85        31.30067
233.31         32.8554
233.77        34.10699
234.22        35.29072
234.68        36.11925
235.14        36.41058
235.60        36.18166
236.05        35.24271
236.51        34.36888
236.97        35.06967
237.43         37.7494
237.88        42.14225
238.34        46.29692
238.80        48.29224
239.26        47.62371
239.71        43.61623
240.17        36.65929
240.63         33.4607
241.08        39.38852
241.54        49.33127
242.00         56.9405
242.46        59.63848
242.91        58.03125
243.37        51.18964
243.83        35.53595
244.28        15.35216
244.74        14.49824
245.20        32.88098
245.66        49.59952
246.11        56.51289
246.57        56.18698
247.03        50.50782
247.48        39.39099
247.94        30.49874
248.40        32.28896
248.85        40.18676
249.31        49.00142
249.77        54.81098
250.22        57.53176
250.68        58.84831
251.14        59.29022
251.59        59.04749
252.05        58.22488
252.51        55.94026
252.96        52.05656
253.42        49.43769
253.88         49.4642
254.33        51.58415
254.79        52.99151
255.25        51.17721
255.70        47.02388
256.16        42.36102
256.62         39.4968
257.07        40.83324
257.53        45.24466
257.99        50.27626
258.44        53.82264
258.90        54.45068
259.35         52.4492
259.81         49.3577
260.27        46.10292
260.72        43.75222
261.18        42.68089
261.63        42.19623
262.09        42.03879
262.55        41.67014
263.00        40.96496
263.46        40.20446
263.91        39.50608
264.37        39.27106
264.83        39.41813
265.28        39.73037
265.74        39.94622
266.19        39.59804
266.65        38.71684
267.11        37.44885
267.56        36.06604
268.02        35.08043
268.47        34.56921
268.93        34.38008
269.38        34.31094
269.84        34.06228
270.30        33.53991
270.75        32.85818
271.21        32.06837
271.66         31.1986
272.12        30.31913
272.57        29.39706
273.03        28.56201
273.48        27.95182
273.94        27.61933
274.39         27.4686
274.85        27.41632
275.31        27.27452
275.76        26.97645
276.22        26.59496
276.67        26.12196
277.13        25.62698
277.58        25.10219
278.04        24.58284
278.49        24.05824
278.95         23.6085
279.40        23.20616
279.86        22.88916
280.31        22.62241
280.77        22.44847
281.22        22.32432
281.68        22.26458
282.13        22.20577
282.59        22.09512
283.04        21.91098
283.50        21.67432
283.95        21.42545
284.41         21.2562
284.86        21.17387
285.32        21.17284
285.77        21.18111
286.22        21.11871
286.68        20.99018
287.13        20.79649
287.59        20.64025
288.04        20.60812
288.50        20.73573
288.95        20.95864
289.41        21.19691
289.86        21.29476
290.32        21.24066
290.77        21.07935
291.22        20.90901
291.68        20.87138
292.13        20.99413
292.59        21.24788
293.04        21.56401
293.50        21.85668
293.95        22.09575
294.40        22.32323
294.86        22.58853
295.31        22.95792
295.77        23.45135
296.22        24.02422
296.68        24.63975
297.13        25.22054
297.58        25.74249
298.04        26.21639
298.49        26.65333
298.95        27.08276
299.40        27.51371
299.85        27.93859
300.31         28.3697
300.76        28.78966
301.21        29.20251
301.67        29.61479
302.12         30.0052
302.58        30.37439
303.03        30.70676
303.48        31.01079
303.94        31.31336
304.39        31.61227
304.84        31.92248
305.30         32.2449
305.75        32.53965
306.20         32.7831
306.66        32.97786
307.11        33.09882
307.57        33.19355
308.02        33.27519
308.47        33.35982
308.93        33.44009
309.38        33.45848
309.83        33.34903
310.29         33.1207
310.74        32.79816
311.19        32.45806
311.65        32.21884
312.10        32.09142
312.55        32.03815
313.00        32.02599
313.46        32.00146
313.91        31.93528
314.36        31.85224
314.82        31.70454
315.27        31.41202
315.72        30.98173
316.18        30.45091
316.63        29.93657
317.08        29.64589
317.53        29.61771
317.99        29.78537
318.44        30.02301
318.89        30.10566
319.35        29.96877
319.80        29.67486
320.25        29.30558
320.70        29.00379
321.16        28.80336
321.61        28.65585
322.06        28.51545
322.51        28.31619
322.97        28.03647
323.42        27.72719
323.87         27.3905
324.32        27.02891
324.78        26.65422
325.23        26.26556
325.68        25.91881
326.13        25.71262
326.59        25.64872
327.04        25.71966
327.49        25.80608
327.94         25.7167
328.39        25.40316
328.85        24.90697
329.30        24.35901
329.75        23.98829
330.20        23.86826
330.66        23.93057
331.11        24.06848
331.56        24.05881
332.01        23.83946
332.46        23.47126
332.92        23.06408
333.37        22.82935
333.82        22.81678
334.27        22.95284
334.72        23.12031
335.17        23.13241
335.63        22.93085
336.08        22.59587
336.53        22.19678
336.98        21.85732
337.43        21.62866
337.88        21.47557
338.34        21.39286
338.79        21.37264
339.24        21.40071
339.69        21.48287
340.14        21.57752
340.59        21.61191
341.05        21.56704
341.50        21.45766
341.95        21.31454
342.40        21.20396
342.85        21.14167
343.30        21.10381
343.75        21.06863
344.20        21.00074
344.66        20.89433
345.11        20.76601
345.56        20.62031
346.01        20.45907
346.46        20.29002
346.91        20.11172
347.36        19.95847
347.81        19.87902
348.26        19.88293
348.72        19.96617
349.17        20.06855
349.62        20.09114
350.07        20.01066
350.52        19.83711
350.97        19.67053
351.42        19.67467
351.87        19.86759
352.32        20.19203
352.77        20.47871
353.22        20.46997
353.67         20.1282
354.13        19.56211
354.58        18.94524
355.03        18.60526
355.48        18.62543
355.93        18.90621
356.38        19.28823
356.83        19.52123
357.28        19.53023
357.73        19.38774
358.18        19.17925
358.63         19.0367
359.08        18.99368
359.53        18.99688
359.98        18.98833
360.43        18.88693
360.88        18.68108
361.33        18.41403
361.78        18.13393
362.23        17.94781
362.68        17.88744
363.13        17.84722
363.58        17.78618
364.03        18.01861
364.48        17.91078
364.93        17.95582
365.38         17.9553
365.83        17.89963
366.28        17.78267
366.73        17.61747
367.18        17.42772
367.63        17.23917
368.08        17.06842
368.53        16.91473
368.98        16.78699
369.43        16.69466
369.88         16.6366
370.33        16.60992
370.78        16.59446
371.23        16.55727
371.68        16.48433
372.13        16.37486
372.58        16.24317
373.03        16.11484
373.48        16.00272
373.93        15.91475
374.38        15.82834
374.83        15.70561
375.28        15.54653
375.72        15.35171
376.17        15.20964
376.62        15.21982
377.07        15.38225
377.52        15.64099
377.97        15.88048
378.42         15.9224
378.87        15.73434
379.32        15.39159
379.77        14.97926
380.22         14.6249
380.67        14.37481
381.11        14.19273
381.56        14.09552
382.01        14.10622
382.46        14.21246
382.91        14.40817
383.36        14.60678
383.81        14.67017
384.26        14.56966
384.71        14.33433
385.15        14.04959
385.60        13.88798
386.05        13.87893
386.50        13.98064
386.95        14.10919
387.40        14.13058
387.85        14.02423
388.29        13.83855
388.74        13.67169
389.19        13.62694
389.64        13.71648
390.09        13.88237
390.54        14.06437
390.98        14.16816
391.43        14.16698
391.88        14.09648
392.33         13.9581
392.78        13.77524
393.23        13.57576
393.67        13.30426
394.12        13.03133
394.57        13.00302
395.02        12.99736
395.47        12.97489
395.91        12.88472
396.36        12.89439
396.81        13.00087
397.26        13.09744
397.71        13.15215
398.15        13.17247
398.60        13.16566
399.05        13.07739
399.50        12.94798
399.95        12.91809
400.39        12.95635
400.84        12.86616
401.29        12.65835
401.74        12.47639
402.18        12.36522
402.63        12.34579
403.08        12.40494
403.53        12.44678
403.97        12.46007
404.42        12.51643
404.87        12.59063
405.32        12.61944
405.76        12.59267
406.21        12.49159
406.66        12.36645
407.11        12.35646
407.55        12.44424
408.00        12.48491
408.45        12.43896
408.90        12.28283
409.34        12.06909
409.79        11.97695
410.24        12.01654
410.68        12.04752
411.13          12.066
411.58        12.17501
412.03        12.33831
412.47        12.42749
412.92        12.41016
413.37        12.33126
413.81        12.21538
414.26        12.10712
414.71        12.01895
415.15        11.93785
415.60        11.86963
416.05        11.82905
416.49        11.81997
416.94        11.84168
417.39        11.87535
417.83        11.88877
418.28         11.8692
418.73        11.81726
419.17        11.75736
419.62        11.73432
420.07        11.76113
420.51         11.8301
420.96        11.89711
421.41        11.90973
421.85        11.85565
422.30        11.69887
422.74        11.52345
423.19        11.59697
423.64        11.87879
424.08        12.04243
424.53        11.99842
424.98         11.9521
425.42        11.90153
425.87        11.63591
426.31        11.27475
426.76         11.2477
427.21        11.51309
427.65        11.63505
428.10        11.57146
428.54        11.56039
428.99        11.58988
429.44        11.61868
429.88        11.61006
430.33        11.37594
430.77        11.05344
431.22        11.09871
431.66        11.46051
432.11         11.6925
432.56        11.70767
433.00        11.63424
433.45        11.41053
433.89        11.05349
434.34        10.81553
434.78        10.30528
435.23         10.8095
435.67        11.25439
436.12         11.4703
436.57        11.58648
437.01        11.50928
437.46        11.44424
437.90        11.45516
438.35         11.4771
438.79        11.16746
439.24        11.02082
439.68        10.95664
440.13        10.93903
440.57         10.9459
441.02        11.03722
441.46        11.17148
441.91        11.09428
442.35        10.89701
442.80        11.06205
443.24        11.49168
443.69         11.5337
444.13        11.19334
444.58        11.01951
445.02        11.01706
445.47        10.90429
445.91        10.70588
446.36        10.61315
446.80        10.63509
447.24        10.71421
447.69        10.82104
448.13         10.9402
448.58          11.038
449.02        11.06846
449.47        11.04366
449.91        11.03644
450.36        11.05579
450.80        11.05503
451.25        11.04004
451.69        11.04211
452.13        11.05811
452.58        11.07115
453.02        11.06728
453.47        11.02905
453.91        10.95373
454.36        10.87008
454.80        10.77824
455.24        10.66792
455.69        10.57345
456.13        10.50758
456.58        10.49261
457.02         10.5993
457.46         10.7616
457.91        10.78332
458.35        10.71267
458.79        10.69061
459.24        10.73559
459.68        10.74875
460.13          10.737
460.57        10.69412
461.01        10.67277
461.46        10.68032
461.90        10.66992
462.34        10.68395
462.79        10.88447
463.23        10.97432
463.68        10.98823
464.12        10.96335
464.56        10.91044
465.01        10.87111
465.45        10.81951
465.89        10.71604
466.34        10.60572
466.78        10.53464
467.22        10.49755
467.67        10.70493
468.11        10.67247
468.55        10.67354
468.99        10.59015
469.44        10.56793
469.88        10.61012
470.32        10.62813
470.77        10.62637
471.21        10.64661
471.65         10.6913
472.10         10.7517
472.54        10.80203
472.98        10.81631
473.42        10.79552
473.87        10.72182
474.31        10.63742
474.75        10.70857
475.20        10.90565
475.64        11.00457
476.08         10.9868
476.52        11.03872
476.97        11.16763
477.41         11.1579
477.85        11.11893
478.29        11.20691
478.74        11.14425
479.18        11.06091
479.62        11.24252
480.06        11.28553
480.50        11.30779
480.95        11.30283
481.39        11.26966
481.83        11.45315
482.27        11.51244
482.72        11.53525
483.16        11.75385
483.60        11.81167
484.04        11.78276
484.48        11.74657
484.93        11.86405
485.37        11.82577
485.81           12.04
486.25        12.69244
486.69        12.05427
487.14        11.70129
487.58        12.81493
488.02        12.62219
488.46        12.76756
488.90        12.92685
489.34        12.48339
489.79        12.31489
490.23        12.64064
490.67        12.93035
491.11        13.22034
491.55        13.30406
491.99        13.23411
492.43        13.32848
492.88        13.59426
493.32        13.79046
493.76        13.88932
494.20         14.0114
494.64        14.16843
495.08        14.28234
495.52        14.36538
495.96        14.55933
496.41        14.86644
496.85        14.88084
497.29        14.70337
497.73         14.8849
498.17         15.3611
498.61        15.61953
499.05        15.59284
499.49        15.56902
499.93        15.60066
500.37        15.63402
500.82        15.67717
501.26         15.7786
501.70        15.95078
502.14        15.85719
502.58        16.06041
503.02        16.13257
503.46        16.17246
503.90         16.2055
504.34        16.23018
504.78        16.29543
505.22        16.39787
505.66        16.49329
506.10        16.58118
506.54         16.7068
506.98        16.87037
507.42        16.97628
507.86        17.13562
508.30        17.20859
508.74         17.2302
509.18        17.20658
509.62        17.17179
510.06        17.17905
510.50        17.24107
510.94        17.34505
511.38        17.46328
511.82        17.54993
512.26        17.59273
512.70        17.60703
513.14        17.61286
513.58        17.63527
514.02        17.68062
514.46        17.74883
514.90        17.82981
515.34        17.84597
515.78        17.89397
516.22        17.89872
516.66         17.8963
517.10          17.891
517.54         17.8876
517.98        17.88355
518.42         17.8791
518.86        17.87875
519.30        17.88107
519.74        17.88229
520.18         17.8824
520.62        17.87946
521.06         17.8738
521.50        17.87167
521.93        17.86226
522.37        17.82054
522.81        17.74858
523.25        17.64853
523.69        17.55939
524.13        17.54285
524.57        17.60362
525.01        17.71937
525.45        17.82405
525.89        17.81266
526.32        17.66382
526.76        17.42247
527.20        17.15635
527.64        16.97727
528.08        16.91484
528.52        16.93051
528.96        16.98647
529.40         17.0224
529.83        17.01527
530.27         16.9872
530.71         16.9326
531.15        16.84039
531.59        16.71688
532.03         16.5645
532.46        16.41538
532.90        16.33655
533.34        16.33645
533.78        16.39624
534.22        16.47925
534.66        16.52641
535.09         16.5211
535.53         16.4845
535.97         16.4312
536.41         16.3875
536.85         16.3637
537.28        16.35034
537.72        16.35125
538.16        16.37143
538.60         16.4105
539.04        16.47317
539.47        16.54102
539.91        16.59438
540.35        16.62538
540.79        16.64261
541.22        16.66262
541.66        16.71292
542.10        16.80015
542.54        16.91847
542.97         17.0471
543.41        17.16464
543.85        17.26203
544.29        17.34348
544.72        17.42736
545.16        17.55707
545.60        17.73147
546.04        17.93744
546.47        18.13772
546.91        18.26844
547.35        18.31909
547.79        18.32225
548.22        18.31939
548.66        18.37116
549.10        18.50414
549.53        18.76219
549.97        19.09646
550.41        19.36065
550.84        19.52605
551.28        19.66136
551.72        19.78276
552.15        19.89277
552.59        20.00678
553.03        20.11224
553.46        20.21968
553.90        20.36408
554.34        20.54451
554.77        20.76196
555.21         20.9787
555.65        21.13101
556.08        21.18605
556.52         21.2121
556.96        21.23843
557.39        21.34266
557.83        21.52031
558.27         21.6569
558.70        21.74092
559.14        21.83454
559.57        21.92766
560.01        22.00941
560.45        22.06638
560.88         22.0663
561.32        22.05828
561.75        22.09854
562.19         22.2012
562.63        22.37784
563.06         22.5713
563.50         22.6095
563.93        22.51349
564.37        22.51795
564.80         22.6282
565.24        22.72468
565.68        22.80324
566.11        22.90735
566.55        23.04082
566.98        23.20533
567.42        23.38914
567.85        23.50695
568.29        23.59628
568.72        23.72955
569.16        23.89869
569.60        24.09557
570.03        24.33601
570.47        24.33778
570.90        24.39992
571.34        24.89494
571.77        24.89742
572.21        24.96494
572.64        25.33252
573.08        25.24512
573.51        25.45047
573.95        25.60624
574.38        25.80708
574.82        25.80423
