SpectraSmart Spectrum 2.9.0.0
--------- Device Information -----------
Spectrum Name :  反射率_0
Saving Time :  2024/04/27 23:04:45
Spectro-Module Model Name : SE2030-DUVN
Spectro-Module Serial Number : OS361AC55029948
Wavelength Start : 200
Wavelength End : 1025
Wavelength Unit : Wavelength(nm)
Spectrum Unit : Reflectance(%)
-----------Spectrum Setting ------------
Integration Time : 20ms
Average : 10
Boxcar : 0
Background removal :  enabled
linearity correction :  enabled
SC :  disabled
Intensity correction :  disabled
DWT denoise :  enabled
savitzky-golay :  disabled
FFT :  disabled
Running average :  disabled
Kalman :  disabled
High pass :  disabled
---------------BEGIN--------------------
Wavelength(nm)             Reflectance(%)
200.29               0
200.75       -24.02844
201.21        3.995722
201.67        26.18497
202.13        34.79245
202.58        34.86128
203.04        30.34545
203.50        27.94488
203.96        35.91413
204.42        52.01999
204.88        70.54243
205.34        85.50665
205.80        92.18234
206.26        90.47436
206.72        80.03243
207.18        59.65263
207.64        42.13887
208.10        41.60325
208.55        51.52667
209.01          59.114
209.47        59.03663
209.93        49.81144
210.39        22.32736
210.85       -62.87315
211.31       -166.7382
211.77       -42.85872
212.23        38.12588
212.69        66.22087
213.14        74.12327
213.60        72.15588
214.06        62.40012
214.52        43.46308
214.98        29.24053
215.44         35.0395
215.90        48.15861
216.36        58.56134
216.81        63.08152
217.27        63.25658
217.73        61.49293
218.19        58.64602
218.65        55.64285
219.11        53.12492
219.57        50.77803
220.02        48.95949
220.48        49.81326
220.94        53.17157
221.40        57.81936
221.86        62.81815
222.32        67.47362
222.77        71.39662
223.23        74.42741
223.69        76.12754
224.15        75.94803
224.61        74.06766
225.06        70.76827
225.52        66.98006
225.98        64.38254
226.44        63.65015
226.90        63.97892
227.36        64.79676
227.81        65.63759
228.27        66.46345
228.73        67.36848
229.19        67.98431
229.65        67.54571
230.10        65.84258
230.56        63.44427
231.02        60.96388
231.48        59.34686
231.93        58.71165
232.39        58.89419
232.85        59.58041
233.31        60.40379
233.77        61.19667
234.22          62.063
234.68        62.83739
235.14        63.37957
235.60        63.67757
236.05        63.67475
236.51        63.55459
236.97        63.71631
237.43        64.26727
237.88        65.26865
238.34         66.0414
238.80        66.18391
239.26        65.52087
239.71        63.81791
240.17        61.04959
240.63        59.59417
241.08        61.56929
241.54         65.0409
242.00        67.74106
242.46        68.65587
242.91        67.88564
243.37        64.61308
243.83         56.7156
244.28        44.57489
244.74        39.13076
245.20        44.40338
245.66        49.99519
246.11        48.69696
246.57        39.98854
247.03        23.12275
247.48       -1.466629
247.94       -14.63121
248.40       0.7984695
248.85        31.48861
249.31        60.44614
249.77        75.31765
250.22        78.07367
250.68          75.096
251.14        70.47556
251.59        67.22512
252.05        65.64697
252.51        64.07899
252.96        62.32846
253.42        62.07063
253.88        63.32069
254.33         65.7766
254.79        67.34698
255.25        65.90799
255.70        62.31691
256.16        58.36807
256.62        55.83559
257.07        56.66113
257.53        60.11741
257.99        64.04805
258.44         66.9184
258.90        67.89937
259.35         66.9654
259.81        65.35392
260.27        63.34879
260.72        61.29949
261.18        59.75706
261.63        58.34659
262.09        57.39674
262.55        56.88713
263.00        56.65122
263.46        56.74905
263.91        56.88237
264.37        56.99859
264.83        56.95498
265.28        56.73905
265.74        56.42337
266.19        55.87016
266.65        55.17793
267.11        54.33248
267.56        53.40212
268.02        52.61194
268.47        51.96638
268.93        51.44088
269.38        50.97212
269.84        50.48573
270.30        49.93909
270.75        49.34823
271.21        48.69493
271.66        47.89722
272.12        46.98146
272.57        45.93452
273.03        44.88039
273.48        43.91994
273.94         43.1487
274.39        42.50417
274.85        41.97077
275.31        41.41695
275.76        40.79453
276.22        40.17492
276.67        39.57252
277.13        39.12999
277.58        38.79033
278.04        38.55123
278.49        38.25129
278.95        37.79912
279.40        37.12225
279.86        36.34112
280.31        35.51851
280.77        34.88265
281.22        34.42804
281.68        34.15226
282.13         33.9215
282.59        33.61834
283.04        33.18858
283.50        32.68783
283.95        32.19971
284.41        31.90366
284.86        31.79656
285.32        31.83538
285.77        31.84543
286.22        31.62557
286.68         31.1674
287.13        30.51648
287.59        29.86582
288.04        29.42258
288.50        29.26524
288.95        29.28671
289.41        29.37871
289.86        29.32489
290.32        29.10252
290.77        28.77481
291.22        28.44329
291.68        28.24838
292.13        28.21265
292.59        28.29709
293.04        28.44443
293.50        28.60024
293.95        28.73195
294.40        28.87251
294.86        29.03367
295.31         29.2192
295.77        29.44279
296.22        29.68488
296.68        29.96186
297.13        30.27923
297.58        30.63826
298.04        31.02996
298.49        31.42574
298.95        31.79903
299.40        32.13524
299.85        32.43734
300.31        32.73722
300.76        33.04802
301.21        33.38043
301.67        33.73223
302.12        34.04447
302.58        34.27228
303.03         34.3939
303.48        34.43744
303.94        34.48874
304.39        34.62872
304.84         34.8833
305.30         35.2231
305.75        35.53774
306.20        35.69939
306.66        35.69707
307.11        35.55079
307.57        35.37188
308.02        35.26851
308.47        35.28297
308.93         35.3706
309.38        35.44818
309.83        35.41638
310.29        35.26096
310.74        35.00904
311.19        34.71218
311.65        34.44598
312.10        34.22072
312.55        34.02214
313.00        33.84753
313.46        33.69258
313.91        33.54798
314.36        33.42581
314.82        33.29806
315.27        33.11351
315.72        32.86624
316.18        32.57065
316.63        32.27413
317.08        32.07574
317.53        31.99103
317.99        31.98718
318.44        31.99019
318.89        31.86489
319.35        31.58366
319.80        31.19104
320.25        30.77427
320.70         30.4798
321.16        30.33542
321.61        30.29837
322.06        30.29111
322.51         30.1896
322.97        29.95746
323.42        29.65517
323.87        29.31531
324.32        28.99854
324.78        28.72956
325.23        28.48607
325.68        28.29598
326.13         28.2133
326.59        28.22366
327.04        28.33452
327.49         28.4354
327.94        28.35027
328.39        28.03905
328.85        27.53693
329.30        26.98245
329.75        26.61489
330.20        26.50928
330.66        26.59555
331.11        26.76061
331.56        26.76467
332.01        26.54281
332.46        26.16432
332.92        25.74036
333.37        25.48898
333.82        25.46479
334.27        25.59373
334.72        25.77652
335.17         25.8552
335.63        25.77339
336.08        25.60251
336.53        25.37846
336.98        25.16966
337.43        25.01107
337.88        24.87971
338.34        24.79441
338.79        24.79347
339.24        24.87412
339.69        25.02453
340.14        25.18994
340.59        25.27629
341.05         25.2581
341.50        25.16475
341.95        25.02361
342.40        24.89233
342.85        24.79297
343.30        24.70691
343.75        24.64256
344.20        24.61374
344.66        24.61998
345.11        24.65712
345.56        24.69166
346.01        24.66257
346.46        24.56087
346.91        24.40716
347.36         24.2477
347.81        24.15359
348.26        24.14381
348.72        24.19884
349.17        24.28492
349.62        24.34715
350.07        24.36401
350.52         24.3396
350.97        24.30315
351.42        24.30231
351.87        24.34134
352.32        24.40335
352.77          24.425
353.22        24.31429
353.67        24.06381
354.13        23.72368
354.58        23.36791
355.03        23.16278
355.48        23.14867
355.93        23.28424
356.38        23.46929
356.83        23.54412
357.28        23.46908
357.73        23.28885
358.18        23.08768
358.63        22.99941
359.08         23.0455
359.53        23.16658
359.98        23.27842
360.43        23.25498
360.88        23.06838
361.33        22.76855
361.78        22.40486
362.23        22.08968
362.68        21.86921
363.13        21.65261
363.58        21.42757
364.03        21.53516
364.48        21.37926
364.93        21.41982
365.38        21.45629
365.83        21.45877
366.28        21.40551
366.73        21.30761
367.18        21.16045
367.63         20.9483
368.08        20.68238
368.53        20.37454
368.98        20.07214
369.43        19.84912
369.88        19.72575
370.33        19.68864
370.78        19.69678
371.23        19.67834
371.68        19.60703
372.13        19.49231
372.58        19.36263
373.03        19.26637
373.48        19.21582
373.93        19.20062
374.38        19.17388
374.83        19.06419
375.28        18.86522
375.72          18.594
376.17        18.35549
376.62        18.27217
377.07        18.35842
377.52        18.55719
377.97        18.76556
378.42        18.82341
378.87        18.69507
379.32        18.44349
379.77        18.13122
380.22         17.8514
380.67        17.63925
381.11         17.4664
381.56        17.34714
382.01        17.30562
382.46        17.33464
382.91        17.42665
383.36        17.52168
383.81        17.52143
384.26        17.40587
384.71         17.2023
385.15         16.9578
385.60        16.78122
386.05        16.69399
386.50         16.6756
386.95        16.69981
387.40        16.72392
387.85        16.73339
388.29        16.72663
388.74        16.73848
389.19        16.78075
389.64        16.84678
390.09        16.91265
390.54        16.94458
390.98        16.89203
391.43         16.7574
391.88        16.56927
392.33        16.34751
392.78        16.14506
393.23        15.98705
393.67        15.79503
394.12        15.60881
394.57        15.66205
395.02        15.67275
395.47        15.60429
395.91        15.41802
396.36        15.35859
396.81        15.43978
397.26        15.52868
397.71        15.57828
398.15        15.58223
398.60        15.54819
399.05        15.41948
399.50        15.26168
399.95        15.26509
400.39        15.39414
400.84        15.40428
401.29        15.27308
401.74        15.11609
402.18        14.97252
402.63         14.8823
403.08        14.85844
403.53        14.83634
403.97        14.81963
404.42        14.88044
404.87        14.97614
405.32        15.01058
405.76        14.96567
406.21        14.83021
406.66        14.66559
407.11        14.63773
407.55        14.72622
408.00        14.75363
408.45        14.68101
408.90        14.49528
409.34        14.25958
409.79        14.18309
410.24        14.25809
410.68        14.28506
411.13        14.25627
411.58        14.30579
412.03        14.42305
412.47        14.51299
412.92        14.55045
413.37        14.56605
413.81        14.55477
414.26        14.52023
414.71         14.4648
415.15        14.38895
415.60        14.30856
416.05        14.25986
416.49        14.25386
416.94        14.27784
417.39        14.31581
417.83        14.34196
418.28        14.34067
418.73        14.31205
419.17         14.2608
419.62        14.19838
420.07        14.13747
420.51        14.08699
420.96        14.03489
421.41        13.97949
421.85        13.91964
422.30        13.79376
422.74        13.66766
423.19        13.81184
423.64         14.1656
424.08        14.34762
424.53         14.2737
424.98        14.22243
425.42         14.2006
425.87          13.946
426.31        13.56912
426.76        13.53617
427.21        13.78854
427.65         13.8165
428.10        13.62816
428.54        13.58364
428.99        13.67893
429.44        13.84047
429.88        13.96456
430.33        13.72497
430.77        13.27409
431.22        13.20043
431.66        13.48817
432.11        13.69243
432.56        13.73874
433.00        13.75221
433.45        13.62465
433.89        13.30527
434.34        13.06555
434.78         12.4563
435.23         13.0433
435.67        13.53987
436.12        13.75259
436.57        13.83285
437.01        13.68474
437.46        13.58191
437.90        13.60439
438.35        13.67179
438.79        13.35869
439.24        13.22257
439.68        13.15918
440.13         13.1296
440.57        13.11952
441.02        13.22256
441.46        13.39278
441.91        13.31874
442.35        13.09284
442.80        13.27344
443.24        13.74043
443.69        13.72305
444.13        13.25653
444.58         13.0289
445.02        13.05202
445.47        12.97808
445.91        12.81635
446.36        12.76119
446.80        12.81398
447.24        12.91567
447.69         13.0349
448.13        13.15829
448.58        13.25019
449.02        13.24969
449.47        13.18557
449.91        13.16684
450.36         13.2072
450.80        13.24693
451.25        13.26743
451.69        13.26363
452.13        13.22554
452.58        13.14605
453.02        13.04431
453.47        12.95589
453.91        12.88954
454.36        12.86137
454.80        12.83615
455.24        12.74288
455.69        12.60943
456.13        12.47311
456.58        12.39007
457.02         12.4885
457.46        12.70053
457.91        12.77606
458.35        12.75257
458.79        12.77326
459.24        12.85136
459.68        12.87694
460.13        12.85701
460.57        12.78231
461.01        12.71847
461.46        12.67626
461.90         12.6091
462.34        12.58407
462.79        12.79725
463.23        12.89495
463.68        12.91679
464.12        12.89903
464.56        12.85133
465.01        12.82421
465.45        12.78089
465.89        12.66392
466.34        12.52538
466.78        12.42125
467.22        12.35726
467.67        12.60268
468.11        12.59173
468.55        12.63956
468.99         12.5875
469.44        12.57823
469.88         12.6091
470.32        12.58266
470.77        12.52326
471.21        12.51219
471.65        12.56091
472.10        12.65089
472.54        12.73349
472.98        12.75086
473.42        12.69799
473.87        12.56194
474.31        12.41132
474.75        12.46732
475.20        12.70013
475.64        12.83907
476.08        12.83987
476.52        12.88742
476.97        12.98408
477.41         12.8906
477.85        12.75866
478.29        12.80636
478.74        12.72621
479.18        12.65259
479.62        12.89369
480.06        12.95821
480.50        12.97309
480.95        12.94354
481.39         12.8738
481.83        13.04773
482.27         13.0798
482.72        13.06909
483.16         13.2875
483.60        13.34165
484.04        13.32425
484.48        13.31479
484.93          13.455
485.37        13.40018
485.81        13.67717
486.25         14.1706
486.69        13.66837
487.14        13.33607
487.58        14.19865
488.02        13.83813
488.46        14.12427
488.90        13.96946
489.34        13.44078
489.79        13.26661
490.23        13.84145
490.67        14.21653
491.11        14.40577
491.55        14.31962
491.99        14.06429
492.43        14.04668
492.88         14.2991
493.32        14.53342
493.76        14.68963
494.20        14.85462
494.64        15.02347
495.08        15.12574
495.52        15.17385
495.96         15.3177
496.41        15.55925
496.85        15.47582
497.29         15.1936
497.73        15.31036
498.17        15.76356
498.61         16.0255
499.05        16.01314
499.49        15.99444
499.93        16.01606
500.37        16.02765
500.82        16.05411
501.26        16.17282
501.70        16.39951
502.14        16.37505
502.58        16.65016
503.02        16.74023
503.46        16.73825
503.90        16.68349
504.34        16.60498
504.78        16.60405
505.22        16.69151
505.66        16.80821
506.10        16.92795
506.54        17.05441
506.98        17.17767
507.42        17.21687
507.86        17.30455
508.30        17.32934
508.74        17.33568
509.18         17.3176
509.62        17.30045
510.06         17.3249
510.50        17.39682
510.94        17.50658
511.38        17.62234
511.82        17.69144
512.26        17.70133
512.70          17.669
513.14        17.62268
513.58        17.60145
514.02        17.61761
514.46        17.67149
514.90        17.74915
515.34        17.76518
515.78         17.8139
516.22        17.82165
516.66        17.83103
517.10        17.85755
517.54        17.90381
517.98        17.95795
518.42        18.00391
518.86        18.02114
519.30        18.00383
519.74        17.96045
520.18         17.9013
520.62        17.84073
521.06         17.7875
521.50        17.74351
521.93        17.71216
522.37        17.68964
522.81        17.67828
523.25         17.6745
523.69        17.68349
524.13        17.71347
524.57        17.75826
525.01        17.80832
525.45        17.83692
525.89        17.80291
526.32        17.69937
526.76        17.55321
527.20         17.3912
527.64        17.25969
528.08        17.17443
528.52        17.11864
528.96        17.09719
529.40        17.11586
529.83        17.16444
530.27        17.24007
530.71        17.29664
531.15        17.26066
531.59        17.12407
532.03        16.91312
532.46        16.68839
532.90        16.56166
533.34        16.55592
533.78        16.63628
534.22        16.75799
534.66        16.85086
535.09        16.89118
535.53        16.90428
535.97        16.89515
536.41        16.87313
536.85        16.84636
537.28         16.8093
537.72        16.77908
538.16        16.78434
538.60        16.83063
539.04        16.91546
539.47        17.01177
539.91        17.08606
540.35        17.12613
540.79        17.14582
541.22        17.16134
541.66        17.20016
542.10        17.26892
542.54         17.3582
542.97        17.45415
543.41        17.54697
543.85        17.62937
544.29        17.70605
544.72        17.77939
545.16        17.86668
545.60        17.96517
546.04        18.07127
546.47        18.17861
546.91        18.27279
547.35        18.35084
547.79        18.42596
548.22        18.50354
548.66        18.58858
549.10        18.69502
549.53        18.88642
549.97         19.1348
550.41        19.32891
550.84        19.45305
551.28        19.56352
551.72        19.67489
552.15         19.7877
552.59        19.91258
553.03        20.03852
553.46        20.16159
553.90        20.29341
554.34        20.42868
554.77         20.5722
555.21        20.70411
555.65        20.79254
556.08        20.81315
556.52        20.82576
556.96        20.84127
557.39        20.90684
557.83        21.01398
558.27        21.06396
558.70        21.06547
559.14        21.10985
559.57        21.19317
560.01        21.28958
560.45         21.3754
560.88        21.40221
561.32        21.41019
561.75        21.46472
562.19        21.56669
562.63        21.70055
563.06        21.81524
563.50        21.76587
563.93        21.60527
564.37        21.59575
564.80        21.74833
565.24        21.93903
565.68        22.12228
566.11        22.27124
566.55        22.37504
566.98        22.45701
567.42        22.53808
567.85        22.58779
568.29        22.65627
568.72        22.79672
569.16        22.98833
569.60        23.18746
570.03         23.4004
570.47        23.39891
570.90        23.48115
571.34        23.87013
571.77        23.92283
572.21        23.97159
572.64        24.31956
573.08        24.25285
573.51        24.44973
573.95        24.67066
574.38        24.80581
574.82        24.81401
