SpectraSmart Spectrum 2.9.0.0
--------- Device Information -----------
Spectrum Name :  反射率_0
Saving Time :  2024/04/27 22:37:05
Spectro-Module Model Name : SE2030-DUVN
Spectro-Module Serial Number : OS361AC55029948
Wavelength Start : 200
Wavelength End : 1025
Wavelength Unit : Wavelength(nm)
Spectrum Unit : Reflectance(%)
-----------Spectrum Setting ------------
Integration Time : 20ms
Average : 10
Boxcar : 0
Background removal :  enabled
linearity correction :  enabled
SC :  disabled
Intensity correction :  disabled
DWT denoise :  enabled
savitzky-golay :  disabled
FFT :  disabled
Running average :  disabled
Kalman :  disabled
High pass :  disabled
---------------BEGIN--------------------
Wavelength(nm)             Reflectance(%)
200.29               0
200.75       -52.12329
201.21       -8.748914
201.67        31.29785
202.13        50.33518
202.58        55.15076
203.04        54.05787
203.50        51.28624
203.96        51.53201
204.42         55.2629
204.88        59.90159
205.34        63.99086
205.80        66.95901
206.26        68.86456
206.72         69.8259
207.18        70.19579
207.64          70.326
208.10        70.36878
208.55        71.18719
209.01        69.84016
209.47        64.18586
209.93        51.08103
210.39        16.98918
210.85       -85.76166
211.31       -209.9112
211.77       -61.04667
212.23        37.55781
212.69        71.37081
213.14        78.84387
213.60        72.54654
214.06        53.42841
214.52        19.57386
214.98       -1.464094
215.44        15.63419
215.90        44.29502
216.36        65.93472
216.81         75.6552
217.27        77.08797
217.73        74.54479
218.19        69.32821
218.65        62.81615
219.11        55.93337
219.57        47.74611
220.02        39.94912
220.48        38.41384
220.94        43.97215
221.40        53.82655
221.86        63.91258
222.32        70.26573
222.77        72.73257
223.23        72.78042
223.69        71.21528
224.15        68.69569
224.61        65.49146
225.06        61.21483
225.52        57.02975
225.98        55.06317
226.44        55.65182
226.90        57.63868
227.36        59.60677
227.81        60.38455
228.27        60.02654
228.73        58.79441
229.19        57.08062
229.65         55.7326
230.10        55.03863
230.56         55.0372
231.02        55.05126
231.48        54.29648
231.93        52.66843
232.39        50.58109
232.85        48.89384
233.31        48.81936
233.77        50.36755
234.22        53.09126
234.68        55.65716
235.14        56.35961
235.60        54.90215
236.05         51.5117
236.51        47.58543
236.97        46.38157
237.43        49.07684
237.88        54.77029
238.34        60.66653
238.80        63.74533
239.26        63.15458
239.71        58.61341
240.17        49.70017
240.63         42.4459
241.08        43.94787
241.54        50.64819
242.00        57.01274
242.46        60.34259
242.91         61.1537
243.37        59.99832
243.83        56.00927
244.28         49.9043
244.74        47.89405
245.20         50.5094
245.66        52.58854
246.11        50.78754
246.57        44.57633
247.03        33.79414
247.48        18.20197
247.94        8.257038
248.40        14.88039
248.85         30.9991
249.31        49.13871
249.77        64.00135
250.22        74.37059
250.68        81.36815
251.14        85.34805
251.59        86.82478
252.05        86.20214
252.51        82.46225
252.96        74.89446
253.42        66.51686
253.88        61.01305
254.33        59.42362
254.79        58.66889
255.25        54.96204
255.70        48.98047
256.16        42.88284
256.62        39.38482
257.07        41.29727
257.53         47.0302
257.99        53.47183
258.44        58.06186
258.90         59.0603
259.35         56.8536
259.81        53.30125
260.27        49.45464
260.72        46.52785
261.18        44.98038
261.63        44.05979
262.09        43.62498
262.55        43.25599
263.00        42.78735
263.46        42.45422
263.91        42.16379
264.37        42.03765
264.83        41.99122
265.28        41.92707
265.74        41.82581
266.19        41.52578
266.65        41.08145
267.11        40.51217
267.56        39.87461
268.02        39.35123
268.47         38.9409
268.93        38.60483
269.38        38.30579
269.84        38.00533
270.30        37.67229
270.75         37.3223
271.21        36.89606
271.66        36.25842
272.12        35.43383
272.57        34.44441
273.03        33.48073
273.48        32.75738
273.94        32.36364
274.39        32.18452
274.85        32.10896
275.31        31.90225
275.76        31.49345
276.22         30.9777
276.67        30.40608
277.13        29.94292
277.58        29.57018
278.04         29.2837
278.49         28.9615
278.95        28.53756
279.40        27.96543
279.86         27.3561
280.31         26.7733
280.77        26.41703
281.22        26.26887
281.68        26.28815
282.13        26.34999
282.59        26.33087
283.04        26.17921
283.50        25.94533
283.95        25.65843
284.41         25.4033
284.86        25.18616
285.32         24.9995
285.77        24.80404
286.22        24.57658
286.68        24.33302
287.13        24.07007
287.59         23.8404
288.04        23.64535
288.50        23.51898
288.95        23.42579
289.41        23.38161
289.86        23.36919
290.32        23.39216
290.77        23.43592
291.22        23.48094
291.68        23.49372
292.13         23.4628
292.59        23.41476
293.04        23.37461
293.50        23.40647
293.95        23.52076
294.40        23.71666
294.86        23.97831
295.31        24.26958
295.77        24.58752
296.22        24.92699
296.68        25.31288
297.13        25.75981
297.58        26.26398
298.04        26.80052
298.49        27.31915
298.95        27.76172
299.40         28.1157
299.85        28.39999
300.31        28.67464
300.76        28.99792
301.21         29.3922
301.67        29.83799
302.12        30.27015
302.58        30.62613
303.03        30.87848
303.48        31.05975
303.94        31.23595
304.39        31.46193
304.84        31.76201
305.30        32.11348
305.75        32.44268
306.20        32.67592
306.66        32.80685
307.11        32.83345
307.57        32.82709
308.02        32.83602
308.47        32.88949
308.93        32.96946
309.38         33.0161
309.83         32.9608
310.29        32.80583
310.74        32.57273
311.19        32.32845
311.65        32.17302
312.10        32.11346
312.55        32.12086
313.00         32.1584
313.46        32.17045
313.91        32.13101
314.36        32.05998
314.82        31.94328
315.27        31.75381
315.72        31.50215
316.18        31.21039
316.63        30.92348
317.08        30.73596
317.53        30.66627
317.99        30.67889
318.44        30.74168
318.89        30.78212
319.35        30.77288
319.80        30.73729
320.25        30.65989
320.70         30.5241
321.16        30.32908
321.61        30.08006
322.06        29.83317
322.51        29.68638
322.97        29.65747
323.42        29.74007
323.87        29.84201
324.32        29.81389
324.78        29.61604
325.23        29.28769
325.68        28.94026
326.13        28.76715
326.59         28.8001
327.04        29.00246
327.49         29.2179
327.94        29.19912
328.39        28.88615
328.85        28.34721
329.30        27.75495
329.75        27.39738
330.20        27.36369
330.66        27.55964
331.11        27.85208
331.56        27.97182
332.01         27.8439
332.46        27.55304
332.92        27.20175
333.37        26.99454
333.82        26.98709
334.27        27.10312
334.72        27.28753
335.17         27.4578
335.63        27.56812
336.08        27.66877
336.53        27.71855
336.98        27.65654
337.43        27.48541
337.88        27.21857
338.34        26.95522
338.79        26.86962
339.24        26.99997
339.69        27.30049
340.14        27.65691
340.59        27.87505
341.05        27.90224
341.50        27.80119
341.95        27.64726
342.40        27.57302
342.85        27.61298
343.30         27.7108
343.75        27.83004
344.20        27.91618
344.66        27.95252
345.11        27.96897
345.56        27.94752
346.01        27.85115
346.46        27.68751
346.91        27.46441
347.36        27.27099
347.81        27.24536
348.26        27.40585
348.72        27.71169
349.17        28.03403
349.62        28.16438
350.07        28.05389
350.52        27.75749
350.97         27.4147
351.42        27.25181
351.87        27.32039
352.32        27.55104
352.77        27.80098
353.22        27.85226
353.67        27.66249
354.13        27.32215
354.58        26.94589
355.03        26.76526
355.48        26.83168
355.93        27.06276
356.38        27.33165
356.83        27.44488
357.28        27.35268
357.73        27.12424
358.18        26.83562
358.63        26.60278
359.08        26.46111
359.53         26.3665
359.98        26.30006
360.43        26.23606
360.88        26.16415
361.33        26.10384
361.78         26.0268
362.23        25.91658
362.68        25.77756
363.13        25.54503
363.58        25.26094
364.03        25.34064
364.48        25.23886
364.93        25.36644
365.38        25.47368
365.83        25.44252
366.28        25.24046
366.73        24.91528
367.18        24.54629
367.63        24.24696
368.08        24.05523
368.53        23.94033
368.98        23.86102
369.43        23.74792
369.88        23.58323
370.33        23.39659
370.78        23.21392
371.23        23.07424
371.68        22.98361
372.13        22.91297
372.58        22.85041
373.03        22.78165
373.48         22.6971
373.93        22.60956
374.38        22.48886
374.83        22.28468
375.28        22.00213
375.72        21.65475
376.17        21.34511
376.62        21.19301
377.07        21.21446
377.52         21.3546
377.97        21.52815
378.42        21.59922
378.87        21.53107
379.32        21.37495
379.77        21.15425
380.22         20.9055
380.67        20.65127
381.11        20.37443
381.56        20.13217
382.01        20.02089
382.46        20.05261
382.91        20.20479
383.36        20.36428
383.81        20.34961
384.26        20.12643
384.71        19.74734
385.15        19.33213
385.60        19.10367
386.05        19.10032
386.50         19.2594
386.95        19.46386
387.40        19.53068
387.85        19.42342
388.29        19.19888
388.74        18.97864
389.19        18.88754
389.64        18.94312
390.09        19.07946
390.54        19.22562
390.98        19.27094
391.43        19.19481
391.88        19.04419
392.33        18.83644
392.78        18.62363
393.23        18.43636
393.67        18.18282
394.12        17.92429
394.57        17.95592
395.02        17.96007
395.47        17.89214
395.91        17.69309
396.36        17.61759
396.81        17.67637
397.26         17.7263
397.71         17.7366
398.15        17.73081
398.60        17.72247
399.05        17.63797
399.50        17.52383
399.95         17.5597
400.39        17.69721
400.84        17.66131
401.29        17.46385
401.74        17.29979
402.18         17.2259
402.63        17.27055
403.08        17.38874
403.53        17.40603
403.97        17.30794
404.42        17.21243
404.87        17.14785
405.32        17.12416
405.76        17.14539
406.21        17.15905
406.66        17.16164
407.11        17.23121
407.55        17.31484
408.00        17.23957
408.45        17.01723
408.90        16.73121
409.34        16.48112
409.79        16.46954
410.24        16.65337
410.68        16.74839
411.13        16.72696
411.58        16.76818
412.03        16.86273
412.47        16.90168
412.92        16.86798
413.37        16.79994
413.81        16.71579
414.26         16.6564
414.71        16.62944
415.15        16.62541
415.60          16.641
416.05        16.67701
416.49        16.72967
416.94        16.79416
417.39        16.85497
417.83        16.88996
418.28        16.88792
418.73        16.84498
419.17        16.78164
419.62        16.73653
420.07        16.72763
420.51        16.75815
420.96         16.7919
421.41        16.79074
421.85        16.74588
422.30        16.59465
422.74         16.4339
423.19         16.6147
423.64         17.0734
424.08        17.34437
424.53        17.31791
424.98        17.31625
425.42        17.34333
425.87        17.07968
426.31        16.66613
426.76        16.68158
427.21        17.05805
427.65        17.16056
428.10        16.98058
428.54        16.94239
428.99          17.043
429.44        17.20321
429.88        17.31874
430.33        17.02027
430.77        16.50389
431.22        16.48739
431.66        16.94291
432.11        17.30311
432.56        17.46382
433.00        17.57153
433.45         17.4789
433.89        17.13963
434.34         16.8798
434.78        16.05416
435.23        16.71127
435.67        17.29272
436.12        17.57212
436.57        17.69765
437.01        17.53937
437.46        17.45765
437.90        17.54842
438.35         17.7028
438.79        17.36707
439.24        17.25665
439.68        17.23373
440.13        17.24726
440.57        17.26194
441.02        17.37705
441.46        17.53617
441.91          17.352
442.35         16.9845
442.80        17.20586
443.24        17.86704
443.69        17.95051
444.13        17.47132
444.58        17.29007
445.02        17.41382
445.47         17.3898
445.91        17.22096
446.36        17.15378
446.80        17.19414
447.24        17.26284
447.69        17.35202
448.13        17.49361
448.58         17.6516
449.02        17.73278
449.47         17.7374
449.91        17.74695
450.36        17.76849
450.80        17.74224
451.25        17.68599
451.69        17.65757
452.13        17.65851
452.58        17.65768
453.02        17.64284
453.47        17.60239
453.91        17.53314
454.36         17.4745
454.80        17.40792
455.24        17.28328
455.69        17.14637
456.13        17.02636
456.58        16.97481
457.02        17.13258
457.46        17.39855
457.91        17.44907
458.35        17.34648
458.79        17.30186
459.24        17.33957
459.68        17.30584
460.13        17.22533
460.57        17.11039
461.01         17.0499
461.46        17.05584
461.90        17.03338
462.34        17.01927
462.79        17.27033
463.23         17.3223
463.68        17.27556
464.12        17.24974
464.56        17.26848
465.01        17.36596
465.45        17.45063
465.89         17.3808
466.34        17.21269
466.78        17.04727
467.22        16.90695
467.67        17.18378
468.11        17.11823
468.55          17.133
468.99        17.02504
469.44        17.00657
469.88        17.07619
470.32        17.10162
470.77        17.09069
471.21        17.11007
471.65        17.16497
472.10        17.24126
472.54        17.30131
472.98        17.31434
473.42        17.28179
473.87        17.16721
474.31         17.0358
474.75        17.14562
475.20        17.44718
475.64        17.58611
476.08         17.5256
476.52        17.55117
476.97        17.67381
477.41        17.55706
477.85        17.40178
478.29        17.49634
478.74        17.41449
479.18        17.34188
479.62        17.69379
480.06        17.78453
480.50        17.78755
480.95         17.7138
481.39        17.58025
481.83        17.78954
482.27        17.81908
482.72        17.79914
483.16        18.09625
483.60        18.16997
484.04        18.14535
484.48        18.12878
484.93        18.28876
485.37        18.18476
485.81        18.57952
486.25        19.15803
486.69        18.49649
487.14        18.28813
487.58        19.18425
488.02        18.74251
488.46        19.28552
488.90         18.8784
489.34        18.86815
489.79        18.56108
490.23         18.9855
490.67        19.31224
491.11        19.64518
491.55        19.70324
491.99        19.53748
492.43        19.56975
492.88        19.81383
493.32        19.98884
493.76        20.06347
494.20        20.17703
494.64        20.34231
495.08        20.45872
495.52        20.53381
495.96        20.75719
496.41        21.09908
496.85        21.02876
497.29        20.68921
497.73        20.82494
498.17        21.36367
498.61        21.67486
499.05        21.65644
499.49         21.6244
499.93        21.63334
500.37        21.61588
500.82        21.60473
501.26        21.72295
501.70        21.99187
502.14        21.91338
502.58        22.23327
503.02        22.32757
503.46        22.32253
503.90        22.25982
504.34        22.16962
504.78        22.17378
505.22        22.28253
505.66         22.4236
506.10        22.56112
506.54        22.69863
506.98        22.82547
507.42        22.83363
507.86        22.91613
508.30        22.95271
508.74        23.00552
509.18        23.05856
509.62         23.1151
510.06        23.17975
510.50        23.24885
510.94        23.32251
511.38        23.39093
511.82        23.43707
512.26        23.45703
512.70        23.45747
513.14        23.44629
513.58        23.42734
514.02        23.40602
514.46        23.40093
514.90        23.42037
515.34         23.3935
515.78        23.45573
516.22        23.49492
516.66        23.54979
517.10        23.61386
517.54        23.68199
517.98        23.74874
518.42        23.79769
518.86        23.80844
519.30        23.77748
519.74        23.71232
520.18        23.63192
520.62        23.56542
521.06        23.52395
521.50         23.5054
521.93         23.5032
522.37        23.49556
522.81        23.48043
523.25        23.46012
523.69        23.44699
524.13        23.46004
524.57        23.49814
525.01        23.55054
525.45        23.58858
525.89        23.56882
526.32        23.48158
526.76        23.35131
527.20        23.20846
527.64        23.10569
528.08         23.0566
528.52        23.04186
528.96         23.0468
529.40        23.04729
529.83        23.03144
530.27         23.0111
530.71        22.97215
531.15         22.8922
531.59        22.77398
532.03        22.62677
532.46        22.48489
532.90        22.41702
533.34        22.43298
533.78        22.51321
534.22        22.61985
534.66        22.69418
535.09        22.71658
535.53        22.70482
535.97        22.67555
536.41        22.66045
536.85        22.66796
537.28        22.68818
537.72        22.70586
538.16        22.69481
538.60        22.65511
539.04        22.60843
539.47        22.57157
539.91        22.58018
540.35        22.63614
540.79        22.73206
541.22        22.85309
541.66        22.97674
542.10        23.09151
542.54        23.20126
542.97        23.30184
543.41        23.40173
543.85        23.49927
544.29        23.59335
544.72        23.68147
545.16         23.7788
545.60        23.88107
546.04        23.98558
546.47        24.09639
546.91        24.21414
547.35        24.33537
547.79        24.47126
548.22        24.60274
548.66        24.69388
549.10        24.75795
549.53        24.89084
549.97        25.09029
550.41        25.26657
550.84        25.41248
551.28        25.58431
551.72        25.76629
552.15        25.90277
552.59         25.9957
553.03        26.05381
553.46        26.10182
553.90        26.19796
554.34        26.34721
554.77        26.54131
555.21         26.7417
555.65        26.88715
556.08        26.93671
556.52        26.97105
556.96        27.00588
557.39        27.10461
557.83        27.25545
558.27        27.32728
558.70        27.32574
559.14        27.36221
559.57        27.43472
560.01          27.518
560.45        27.59283
560.88        27.61406
561.32        27.63662
561.75        27.73162
562.19        27.90066
562.63        28.13089
563.06        28.34674
563.50        28.33816
563.93        28.15712
564.37        28.13658
564.80        28.29002
565.24        28.45354
565.68        28.59812
566.11        28.74127
566.55         28.8788
566.98         29.0259
567.42        29.18066
567.85         29.2556
568.29        29.30662
568.72        29.42439
569.16        29.60314
569.60        29.81206
570.03        30.05949
570.47        30.04937
570.90        30.16757
571.34        30.63073
571.77        30.67037
572.21        30.78684
572.64        31.22193
573.08        31.00303
573.51        31.06487
573.95        31.19523
574.38        31.47257
574.82        31.68886
