SpectraSmart Spectrum 2.9.0.0
--------- Device Information -----------
Spectrum Name :  反射率_0
Saving Time :  2024/04/27 23:02:21
Spectro-Module Model Name : SE2030-DUVN
Spectro-Module Serial Number : OS361AC55029948
Wavelength Start : 200
Wavelength End : 1025
Wavelength Unit : Wavelength(nm)
Spectrum Unit : Reflectance(%)
-----------Spectrum Setting ------------
Integration Time : 20ms
Average : 10
Boxcar : 0
Background removal :  enabled
linearity correction :  enabled
SC :  disabled
Intensity correction :  disabled
DWT denoise :  enabled
savitzky-golay :  disabled
FFT :  disabled
Running average :  disabled
Kalman :  disabled
High pass :  disabled
---------------BEGIN--------------------
Wavelength(nm)             Reflectance(%)
200.29               0
200.75        90.88189
201.21        100.6584
201.67        106.5152
202.13        106.1834
202.58        101.6908
203.04        95.48331
203.50        90.25492
203.96        90.20959
204.42        94.92033
204.88        101.4522
205.34        107.7966
205.80        112.8844
206.26        117.0872
206.72        121.6703
207.18        126.0615
207.64        125.3104
208.10        118.7193
208.55        111.6546
209.01        106.5147
209.47        102.7914
209.93        98.79886
210.39        91.11488
210.85        73.66221
211.31        73.70557
211.77        114.2023
212.23         128.545
212.69        131.0515
213.14        130.1624
213.60        126.5774
214.06        119.1765
214.52        105.6981
214.98         92.8755
215.44        92.00923
215.90        97.45387
216.36        103.6578
216.81        108.4371
217.27        112.3989
217.73        116.7274
218.19        120.2302
218.65        120.4269
219.11        116.6823
219.57        108.9986
220.02        100.2144
220.48        98.20992
220.94        105.0837
221.40        117.5748
221.86        129.8509
222.32        136.4052
222.77        137.5088
223.23        135.6679
223.69        134.2759
224.15        137.3155
224.61        145.1119
225.06         156.497
225.52        167.7583
225.98        170.8236
226.44          165.39
226.90        156.5256
227.36        149.0978
227.81        146.5216
228.27        148.8623
228.73        154.5338
229.19        161.8769
229.65        167.2951
230.10        169.0467
230.56        168.3798
231.02        166.7545
231.48        166.3354
231.93        167.4106
232.39        169.4536
232.85        171.2119
233.31        171.3657
233.77        169.8005
234.22        167.0376
234.68        164.4215
235.14        163.3865
235.60        164.1982
236.05        166.7861
236.51        169.5119
236.97        169.3113
237.43        165.1172
237.88        157.9821
238.34        150.4825
238.80        146.1675
239.26         145.679
239.71        149.7705
240.17        156.4744
240.63        156.5003
241.08        144.6523
241.54         129.072
242.00        117.7378
242.46        112.1562
242.91        110.5771
243.37        111.8985
243.83        117.8093
244.28        128.5025
244.74        134.1536
245.20        131.9721
245.66        127.1984
246.11        123.6718
246.57        120.9779
247.03        116.3907
247.48        110.2929
247.94         108.345
248.40        114.6419
248.85        125.8769
249.31        134.2958
249.77        132.9568
250.22        124.8593
250.68        115.1285
251.14        107.2555
251.59          103.98
252.05        105.4781
252.51        111.0488
252.96        120.9959
253.42        132.0052
253.88        138.3773
254.33        139.6581
254.79        138.7582
255.25         137.073
255.70        134.9066
256.16        133.2092
256.62         131.833
257.07        130.8704
257.53         131.096
257.99         131.681
258.44         132.208
258.90        133.3253
259.35        134.1567
259.81        135.3311
260.27        136.1303
260.72        135.8539
261.18        135.2559
261.63        133.9854
262.09        132.9714
262.55        132.3019
263.00        131.7663
263.46        131.5659
263.91        131.1408
264.37        130.5575
264.83        129.6507
265.28        128.4474
265.74        127.3178
266.19        126.1028
266.65        125.0181
267.11        123.9252
267.56        122.8203
268.02        121.9023
268.47        121.0982
268.93        120.4246
269.38        119.7391
269.84        118.9152
270.30        117.8924
270.75        116.6902
271.21        115.4001
271.66        114.0509
272.12        112.7154
272.57        111.2964
273.03        109.8708
273.48        108.3829
273.94        106.9557
274.39        105.5146
274.85        104.1602
275.31        102.7622
275.76        101.2663
276.22        99.83651
276.67        98.41623
277.13        97.24202
277.58        96.17402
278.04        95.24849
278.49        94.26328
278.95        93.23367
279.40        92.00507
279.86        90.74358
280.31         89.3213
280.77        87.85117
281.22         86.2714
281.68        84.74426
282.13        83.25751
282.59        82.01903
283.04        80.93539
283.50        80.00826
283.95        79.12039
284.41        78.25452
284.86        77.32981
285.32        76.44632
285.77        75.48772
286.22        74.41724
286.68        73.27307
287.13         72.0117
287.59        70.82883
288.04        69.87035
288.50        69.22425
288.95        68.76558
289.41        68.39363
289.86        67.83153
290.32        67.07664
290.77        66.16919
291.22        65.24595
291.68        64.49075
292.13        63.91543
292.59        63.49115
293.04        63.12818
293.50        62.75554
293.95        62.32687
294.40        61.88778
294.86        61.48626
295.31        61.16697
295.77        60.95453
296.22        60.81215
296.68        60.71056
297.13        60.57631
297.58        60.40362
298.04        60.22664
298.49        60.06461
298.95        59.99433
299.40        60.00037
299.85        60.05911
300.31        60.15115
300.76        60.20408
301.21        60.21075
301.67        60.20638
302.12        60.14897
302.58        60.06241
303.03        59.91711
303.48        59.73533
303.94        59.58919
304.39        59.50787
304.84        59.52308
305.30        59.62972
305.75        59.72511
306.20        59.72631
306.66        59.63187
307.11        59.43139
307.57        59.22795
308.02         59.0877
308.47        59.05093
308.93        59.09703
309.38        59.12862
309.83        59.05414
310.29         58.8667
310.74         58.5802
311.19        58.27784
311.65        58.08315
312.10        57.99936
312.55        57.98724
313.00        57.98465
313.46        57.89803
313.91        57.69361
314.36        57.41698
314.82        57.08672
315.27        56.72883
315.72        56.36928
316.18        56.01228
316.63        55.69161
317.08        55.48829
317.53        55.40806
317.99        55.41859
318.44        55.45705
318.89        55.39906
319.35        55.21132
319.80        54.93272
320.25        54.60424
320.70        54.30329
321.16        54.05048
321.61        53.83212
322.06        53.64553
322.51        53.49297
322.97        53.35937
323.42        53.26638
323.87        53.17426
324.32         53.0246
324.78         52.7995
325.23        52.52895
325.68        52.24734
326.13        52.02945
326.59        51.87996
327.04        51.80431
327.49         51.7573
327.94        51.68122
328.39        51.55386
328.85        51.37597
329.30        51.18855
329.75        51.00626
330.20        50.84766
330.66        50.70204
331.11        50.58787
331.56        50.46582
332.01        50.33376
332.46        50.19321
332.92        50.08475
333.37        50.13989
333.82        50.34694
334.27         50.6605
334.72        50.95829
335.17        51.04128
335.63        50.85559
336.08         50.5008
336.53        50.06973
336.98        49.74556
337.43        49.59808
337.88         49.5721
338.34        49.66813
338.79        49.89713
339.24        50.22242
339.69        50.64107
340.14         51.0256
340.59        51.16487
341.05        51.02441
341.50        50.67311
341.95          50.262
342.40        50.05291
342.85        50.11411
343.30        50.36344
343.75        50.70861
344.20        50.99403
344.66        51.16378
345.11        51.26233
345.56        51.28777
346.01        51.23227
346.46        51.11015
346.91        50.91718
347.36        50.71719
347.81        50.61479
348.26        50.63232
348.72        50.75227
349.17        50.90343
349.62        50.96928
350.07        50.91831
350.52        50.77669
350.97        50.61955
351.42        50.56678
351.87        50.64191
352.32        50.80642
352.77        50.95642
353.22        50.93994
353.67        50.72548
354.13        50.36437
354.58         49.9584
355.03        49.72428
355.48        49.70627
355.93        49.84795
356.38        49.98257
356.83        49.84843
357.28        49.40514
357.73        48.75115
358.18        48.08589
358.63        47.71552
359.08        47.69972
359.53        47.92427
359.98         48.2126
360.43        48.29066
360.88        48.07982
361.33        47.66329
361.78        47.13264
362.23        46.66066
362.68        46.31098
363.13        45.98981
363.58        45.65892
364.03        45.51241
364.48        45.13438
364.93         44.8758
365.38        44.63491
365.83        44.44156
366.28        44.28853
366.73        44.15578
367.18         44.0149
367.63        43.81604
368.08        43.54957
368.53        43.23663
368.98        42.89117
369.43        42.53591
369.88        42.18898
370.33        41.84945
370.78        41.54889
371.23        41.33702
371.68        41.21455
372.13        41.15886
372.58        41.11844
373.03        41.00618
373.48        40.79897
373.93        40.52798
374.38        40.21274
374.83        39.88639
375.28        39.57066
375.72        39.24562
376.17        38.97596
376.62        38.81491
377.07        38.76018
377.52        38.78102
377.97        38.80714
378.42        38.72591
378.87         38.5131
379.32        38.21269
379.77        37.86211
380.22        37.51791
380.67          37.206
381.11        36.91238
381.56         36.6667
382.01        36.52084
382.46        36.47723
382.91        36.51906
383.36        36.57711
383.81        36.53916
384.26        36.37885
384.71         36.1262
385.15        35.82535
385.60        35.58978
386.05        35.43601
386.50        35.33694
386.95         35.2677
387.40        35.18967
387.85        35.09419
388.29        34.97968
388.74        34.89104
389.19        34.80943
389.64        34.72737
390.09        34.62225
390.54        34.50839
390.98        34.40755
391.43        34.34258
391.88        34.31018
392.33        34.23997
392.78        34.08584
393.23        33.86609
393.67         33.4599
394.12        33.01629
394.57        33.14022
395.02        33.26226
395.47         33.2719
395.91        33.02886
396.36        32.96758
396.81        33.09788
397.26        33.17308
397.71        33.15622
398.15        33.11874
398.60        33.09529
399.05         32.9376
399.50        32.73388
399.95        32.82227
400.39        33.10991
400.84        33.08495
401.29        32.74884
401.74        32.43243
402.18        32.23708
402.63         32.2212
403.08        32.33412
403.53        32.30585
403.97        32.12284
404.42        31.99325
404.87         31.9349
405.32        31.90969
405.76        31.91614
406.21        31.88047
406.66        31.83225
407.11        31.97355
407.55        32.21872
408.00        32.22009
408.45        31.97063
408.90        31.57648
409.34        31.20181
409.79         31.2427
410.24        31.60964
410.68        31.74905
411.13        31.61482
411.58        31.54969
412.03        31.57907
412.47        31.57545
412.92        31.52898
413.37        31.48953
413.81        31.43649
414.26        31.36165
414.71        31.25912
415.15        31.13555
415.60         31.0211
416.05          30.992
416.49        31.06397
416.94        31.20655
417.39        31.35652
417.83        31.41726
418.28        31.35932
418.73         31.1994
419.17        31.00455
419.62        30.88991
420.07        30.89593
420.51        30.99739
420.96        31.11593
421.41        31.16463
421.85        31.11605
422.30         30.8633
422.74        30.55012
423.19        30.77068
423.64        31.40038
424.08        31.58984
424.53        31.24563
424.98        31.10365
425.42        31.20531
425.87        30.93369
426.31        30.43568
426.76        30.58091
427.21         31.2092
427.65        31.20493
428.10        30.65553
428.54        30.49123
428.99        30.73513
429.44        31.13814
429.88        31.46399
430.33        31.04865
430.77        30.18629
431.22        30.04971
431.66        30.61869
432.11        31.11837
432.56        31.40246
433.00        31.46901
433.45         31.1125
433.89        30.73082
434.34        30.75084
434.78        29.30466
435.23        30.14754
435.67        30.94737
436.12        31.33893
436.57        31.28081
437.01        30.63399
437.46        30.32837
437.90         30.5596
438.35        31.07292
438.79        30.78716
439.24        30.77148
439.68        30.73572
440.13        30.63308
440.57        30.49294
441.02        30.62087
441.46        30.94338
441.91        30.78698
442.35        30.31075
442.80        30.61948
443.24         31.4828
443.69        31.43625
444.13        30.57474
444.58          30.233
445.02        30.43546
445.47        30.49983
445.91        30.38093
446.36         30.3505
446.80        30.39244
447.24        30.41487
447.69         30.4209
448.13         30.4805
448.58        30.55402
449.02        30.47772
449.47        30.29617
449.91        30.21327
450.36        30.25382
450.80        30.29812
451.25        30.33922
451.69        30.40841
452.13        30.48885
452.58        30.54288
453.02        30.55925
453.47        30.53859
453.91        30.47919
454.36        30.42685
454.80        30.35763
455.24        30.19883
455.69        30.02746
456.13        29.89928
456.58        29.86262
457.02        30.09965
457.46        30.43085
457.91        30.32199
458.35        29.96758
458.79        29.85847
459.24        30.05002
459.68        30.22903
460.13        30.35366
460.57        30.32013
461.01        30.24781
461.46        30.19426
461.90        30.03028
462.34        29.88866
462.79        30.24692
463.23        30.26983
463.68        30.12971
464.12        30.02048
464.56        29.98746
465.01        30.10328
465.45        30.22371
465.89        30.11131
466.34        29.86177
466.78        29.64301
467.22        29.48154
467.67        30.04532
468.11        29.99806
468.55        30.07792
468.99        29.92734
469.44        29.91983
469.88        30.05662
470.32        30.10412
470.77        30.07777
471.21        30.10247
471.65        30.18699
472.10        30.30252
472.54        30.38688
472.98        30.39327
473.42        30.32427
473.87        30.11775
474.31        29.86757
474.75        29.98861
475.20        30.39309
475.64        30.47574
476.08        30.22634
476.52        30.21098
476.97        30.45683
477.41        30.36352
477.85        30.22096
478.29        30.43606
478.74        30.24231
479.18        29.99464
479.62        30.46712
480.06        30.53296
480.50        30.50902
480.95        30.44962
481.39        30.35331
481.83        30.58784
482.27        30.67618
482.72        30.50218
483.16        30.87817
483.60        30.93497
484.04        30.91111
484.48        30.98985
484.93        31.37329
485.37        31.06534
485.81        31.43065
486.25        31.97801
486.69         31.6668
487.14        30.85639
487.58         31.7726
488.02        31.95752
488.46        31.74681
488.90        31.69386
489.34        31.39865
489.79        30.99707
490.23        31.69367
490.67        32.01843
491.11        32.24504
491.55        32.17978
491.99        31.92909
492.43        31.91042
492.88        32.14559
493.32        32.36058
493.76        32.49394
494.20        32.64328
494.64        32.80827
495.08        32.90203
495.52          32.959
495.96        33.17968
496.41        33.53816
496.85         33.5979
497.29        33.42767
497.73        33.55766
498.17        33.92909
498.61        34.21446
499.05        34.31535
499.49        34.33757
499.93        34.33784
500.37        34.33641
500.82        34.35052
501.26        34.52278
501.70        34.87142
502.14        34.57804
502.58        34.88097
503.02        34.92802
503.46        34.94242
503.90        34.94673
504.34        34.92523
504.78        34.97173
505.22        35.07372
505.66         35.1427
506.10        35.18764
506.54        35.31583
506.98        35.53264
507.42        35.64003
507.86        35.86319
508.30        35.89378
508.74        35.80538
509.18        35.61512
509.62        35.42041
510.06        35.37477
510.50        35.50828
510.94         35.7765
511.38        36.07807
511.82        36.24786
512.26        36.24495
512.70        36.12477
513.14        35.96547
513.58        35.88052
514.02        35.90372
514.46        36.01651
514.90        36.18712
515.34        36.23852
515.78         36.3565
516.22        36.39549
516.66        36.41775
517.10        36.41337
517.54        36.38839
517.98        36.33833
518.42        36.28152
518.86        36.25781
519.30        36.27458
519.74        36.32263
520.18         36.3805
520.62        36.41067
521.06        36.40515
521.50        36.37807
521.93        36.34433
522.37        36.31844
522.81         36.3092
523.25        36.30296
523.69        36.30102
524.13        36.30789
524.57        36.31787
525.01        36.32897
525.45        36.31649
525.89         36.2394
526.32        36.09295
526.76         35.9077
527.20        35.71843
527.64        35.58572
528.08        35.52562
528.52        35.51476
528.96        35.54343
529.40        35.59418
529.83        35.64951
530.27        35.71885
530.71        35.76151
531.15        35.71746
531.59        35.58263
532.03        35.37565
532.46        35.16044
532.90         35.0582
533.34        35.08923
533.78        35.21732
534.22        35.37625
534.66        35.46263
535.09         35.4472
535.53        35.37233
535.97        35.27259
536.41        35.20943
536.85        35.20249
537.28        35.23169
537.72        35.28187
538.16        35.32617
538.60        35.35684
539.04        35.39186
539.47        35.42628
539.91        35.47073
540.35        35.51788
540.79        35.57055
541.22        35.62164
541.66        35.66515
542.10        35.70044
542.54        35.73367
542.97        35.77185
543.41        35.84502
543.85        35.95266
544.29        36.09026
544.72        36.23962
545.16        36.39497
545.60        36.54023
546.04        36.67168
546.47        36.79863
546.91        36.93375
547.35        37.07343
547.79        37.23193
548.22        37.37373
548.66        37.43032
549.10        37.42403
549.53        37.50569
549.97        37.69128
550.41        37.87496
550.84        38.05226
551.28        38.29751
551.72        38.56574
552.15        38.73974
552.59        38.81267
553.03        38.80841
553.46        38.77813
553.90        38.82988
554.34        38.97783
554.77        39.20527
555.21        39.44965
555.65        39.61182
556.08        39.63181
556.52        39.63319
556.96        39.64867
557.39        39.78483
557.83        40.02225
558.27        40.15783
558.70        40.18418
559.14        40.24189
559.57        40.32189
560.01        40.39584
560.45        40.43891
560.88        40.39054
561.32        40.33797
561.75        40.38376
562.19        40.54826
562.63        40.83764
563.06        41.14396
563.50        41.15247
563.93        40.91335
564.37        40.86652
564.80        41.02404
565.24         41.1622
565.68         41.2587
566.11        41.37541
566.55        41.51761
566.98        41.67732
567.42        41.84602
567.85        41.93393
568.29        41.99073
568.72        42.05813
569.16        42.16711
569.60        42.34659
570.03        42.61359
570.47        42.60621
570.90        42.84862
571.34        43.15829
571.77        43.40683
572.21        43.27963
572.64        43.60415
573.08        43.58963
573.51        43.77218
573.95        43.91539
574.38        43.97519
574.82         44.2668
