SpectraSmart Spectrum 2.9.0.0
--------- Device Information -----------
Spectrum Name :  反射率_0
Saving Time :  2024/04/27 22:49:16
Spectro-Module Model Name : SE2030-DUVN
Spectro-Module Serial Number : OS361AC55029948
Wavelength Start : 200
Wavelength End : 1025
Wavelength Unit : Wavelength(nm)
Spectrum Unit : Reflectance(%)
-----------Spectrum Setting ------------
Integration Time : 20ms
Average : 10
Boxcar : 0
Background removal :  enabled
linearity correction :  enabled
SC :  disabled
Intensity correction :  disabled
DWT denoise :  enabled
savitzky-golay :  disabled
FFT :  disabled
Running average :  disabled
Kalman :  disabled
High pass :  disabled
---------------BEGIN--------------------
Wavelength(nm)             Reflectance(%)
200.29               0
200.75        52.97512
201.21        40.21572
201.67        28.28823
202.13        21.20252
202.58        17.03009
203.04        14.80978
203.50        15.31574
203.96        19.04369
204.42        24.92396
204.88        31.83507
205.34        38.03902
205.80        42.64545
206.26        46.00214
206.72        48.10152
207.18        49.45065
207.64        50.82117
208.10        51.78014
208.55        52.81893
209.01        51.33674
209.47        45.69037
209.93        32.85807
210.39      -0.1251761
210.85       -100.0629
211.31       -225.4681
211.77       -84.45583
212.23        11.64454
212.69        45.34174
213.14        53.72699
213.60        49.18578
214.06        33.84281
214.52         6.14239
214.98       -11.41233
215.44        2.233473
215.90        25.02652
216.36        42.94018
216.81        52.93304
217.27        57.47736
217.73        59.90088
218.19        59.78368
218.65        55.50259
219.11        46.89041
219.57        33.53253
220.02        18.48777
220.48        11.75845
220.94        16.16443
221.40        27.55416
221.86         39.9667
222.32        47.33028
222.77        49.49922
223.23        48.93059
223.69        46.86963
224.15        44.29724
224.61        41.62816
225.06        38.20243
225.52        35.55882
225.98        36.17421
226.44        39.58535
226.90        43.92639
227.36        47.36211
227.81        48.52536
228.27        47.61526
228.73        45.14726
229.19        41.60867
229.65        38.21501
230.10        35.64502
230.56         33.9869
231.02        32.96806
231.48        32.23727
231.93         31.6181
232.39         31.2943
232.85        31.48805
233.31        32.47166
233.77        34.14392
234.22        36.37902
234.68        38.36336
235.14        39.21043
235.60        38.80033
236.05        37.14417
236.51        35.34168
236.97        35.68318
237.43        38.86104
237.88        44.26646
238.34        49.52367
238.80        52.22229
239.26        51.73773
239.71        47.57415
240.17        39.74073
240.63        34.55367
241.08        38.17194
241.54        46.27419
242.00        53.02906
242.46        55.77792
242.91        54.95539
243.37        50.23991
243.83        38.63903
244.28        21.16083
244.74        14.77519
245.20          23.266
245.66        33.16879
246.11        36.82997
246.57        35.06714
247.03         29.8149
247.48        21.88225
247.94        19.67079
248.40        29.20406
248.85        43.42871
249.31          56.501
249.77        65.16013
250.22        69.68861
250.68        71.58257
251.14         71.8935
251.59        71.36943
252.05        70.23259
252.51        67.82424
252.96        63.60511
253.42        59.35709
253.88        56.97731
254.33        56.99825
254.79        57.94027
255.25        57.84262
255.70         56.7729
256.16        55.72245
256.62        55.69528
257.07        57.73094
257.53        61.24137
257.99        64.71846
258.44        66.84407
258.90        66.93653
259.35        65.10262
259.81        62.56625
260.27        59.89706
260.72        57.79574
261.18         56.6805
261.63        55.94942
262.09        55.56485
262.55        55.11737
263.00        54.46112
263.46        53.84742
263.91        53.22297
264.37        52.85118
264.83        52.64743
265.28        52.47423
265.74        52.26474
266.19        51.72903
266.65         50.9256
267.11        49.90383
267.56        48.78764
268.02        47.87493
268.47        47.19078
268.93        46.67268
269.38        46.21678
269.84        45.69071
270.30        45.03886
270.75        44.30043
271.21        43.49553
271.66        42.59834
272.12        41.65166
272.57        40.63963
273.03         39.6433
273.48          38.706
273.94        37.90619
274.39        37.19224
274.85        36.60884
275.31        36.12641
275.76        35.69177
276.22        35.31787
276.67        34.90947
277.13        34.43803
277.58        33.84888
278.04        33.22421
278.49        32.53201
278.95        31.84746
279.40        31.14936
279.86        30.49266
280.31        29.90437
280.77        29.54382
281.22        29.37048
281.68        29.37406
282.13        29.40222
282.59        29.29421
283.04        29.00556
283.50        28.61131
283.95        28.20056
284.41        27.96044
284.86        27.90111
285.32        27.96072
285.77        28.04066
286.22        28.04122
286.68         27.9511
287.13        27.78886
287.59        27.59051
288.04        27.32545
288.50        27.04939
288.95        26.75096
289.41        26.52693
289.86        26.47752
290.32        26.62899
290.77        26.92255
291.22        27.28533
291.68        27.59604
292.13        27.81449
292.59        28.00265
293.04         28.1779
293.50        28.39622
293.95        28.67728
294.40        29.01763
294.86        29.46196
295.31        30.07435
295.77         30.8607
296.22        31.77507
296.68        32.74844
297.13        33.63842
297.58        34.40154
298.04        35.06697
298.49        35.65075
298.95        36.21004
299.40        36.76916
299.85        37.32326
300.31        37.92132
300.76        38.59589
301.21        39.35197
301.67        40.17795
302.12        40.98906
302.58        41.71058
303.03        42.29826
303.48        42.78363
303.94        43.23241
304.39        43.69018
304.84        44.18795
305.30        44.71021
305.75        45.18695
306.20        45.56666
306.66        45.85372
307.11        46.04225
307.57        46.20186
308.02        46.35832
308.47        46.54085
308.93        46.73899
309.38        46.90285
309.83        46.99748
310.29        47.02789
310.74        46.99722
311.19        46.94108
311.65        46.90693
312.10         46.8862
312.55         46.8664
313.00        46.84195
313.46        46.80691
313.91        46.74683
314.36        46.67188
314.82        46.54992
315.27        46.32552
315.72        46.00142
316.18        45.61061
316.63        45.21519
317.08        44.93653
317.53        44.80072
317.99        44.76902
318.44        44.78533
318.89        44.73743
319.35        44.59263
319.80         44.3863
320.25        44.14957
320.70        43.94074
321.16         43.7685
321.61        43.61255
322.06        43.45937
322.51         43.2975
322.97        43.11179
323.42        42.92627
323.87        42.71161
324.32        42.42648
324.78        42.06635
325.23        41.65916
325.68        41.25704
326.13        40.95614
326.59        40.76695
327.04        40.68812
327.49        40.65247
327.94        40.55854
328.39        40.37288
328.85        40.11015
329.30        39.82288
329.75        39.57232
330.20        39.38483
330.66        39.22709
331.11        39.09645
331.56        38.93138
332.01        38.71708
332.46         38.4704
332.92        38.21429
333.37        38.03082
333.82        37.92368
334.27        37.87104
334.72        37.83055
335.17         37.7344
335.63        37.55355
336.08        37.32874
336.53        37.07912
336.98        36.85321
337.43        36.67367
337.88        36.53458
338.34        36.42611
338.79        36.34076
339.24        36.27112
339.69        36.21711
340.14        36.18834
340.59        36.19996
341.05        36.24485
341.50        36.31301
341.95        36.35386
342.40        36.30106
342.85        36.14397
343.30        35.90404
343.75        35.63733
344.20        35.43458
344.66        35.32838
345.11        35.29776
345.56        35.30394
346.01        35.27847
346.46         35.2022
346.91        35.09085
347.36        34.98682
347.81        34.95372
348.26        34.99645
348.72        35.08635
349.17        35.15462
349.62        35.09723
350.07        34.89587
350.52        34.58923
350.97        34.25953
351.42        34.03749
351.87        33.95647
352.32        33.97613
352.77        34.03326
353.22         34.0299
353.67        33.93866
354.13          33.804
354.58        33.63121
355.03        33.48095
355.48        33.37015
355.93         33.2769
356.38        33.18489
356.83        33.07296
357.28        32.93372
357.73         32.7788
358.18        32.61197
358.63        32.43607
359.08        32.25368
359.53         32.0619
359.98        31.86893
360.43        31.68911
360.88        31.52632
361.33        31.37771
361.78        31.22133
362.23        31.05383
362.68        30.87856
363.13        30.63942
363.58        30.34738
364.03        30.34177
364.48        30.10742
364.93        30.03918
365.38        29.95196
365.83         29.8124
366.28        29.60332
366.73        29.34545
367.18        29.05247
367.63        28.73342
368.08        28.40286
368.53        28.06413
368.98        27.74139
369.43         27.4696
369.88         27.2606
370.33        27.11534
370.78        27.00821
371.23        26.89467
371.68        26.75656
372.13        26.58847
372.58        26.42445
373.03        26.32286
373.48        26.29051
373.93        26.31543
374.38        26.31254
374.83        26.14829
375.28        25.81232
375.72        25.34662
376.17        24.91492
376.62          24.731
377.07        24.82698
377.52        25.10775
377.97        25.42959
378.42        25.56834
378.87        25.46276
379.32        25.19479
379.77        24.81841
380.22        24.41296
380.67        24.02191
381.11         23.6247
381.56        23.28051
382.01        23.09081
382.46        23.07104
382.91        23.19895
383.36        23.37522
383.81        23.43459
384.26        23.33591
384.71        23.11914
385.15        22.85287
385.60        22.68523
386.05        22.64037
386.50        22.67642
386.95        22.73597
387.40        22.73239
387.85        22.64913
388.29        22.50946
388.74        22.38582
389.19        22.32498
389.64        22.33093
390.09        22.36643
390.54        22.39989
390.98        22.38194
391.43        22.30972
391.88        22.20426
392.33        22.05492
392.78        21.88044
393.23        21.70421
393.67        21.43479
394.12        21.14534
394.57        21.18676
395.02         21.1865
395.47        21.08485
395.91        20.82709
396.36        20.73984
396.81        20.84055
397.26        20.95843
397.71        21.02431
398.15        21.01736
398.60        20.94952
399.05        20.74801
399.50        20.51716
399.95        20.53842
400.39        20.76493
400.84        20.85353
401.29        20.75155
401.74        20.57898
402.18        20.37848
402.63        20.21796
403.08          20.118
403.53         19.9969
403.97        19.87281
404.42        19.84755
404.87        19.89569
405.32        19.93683
405.76        19.95194
406.21        19.91019
406.66        19.84941
407.11        19.92441
407.55        20.08792
408.00        20.11048
408.45        19.96601
408.90         19.6894
409.34        19.37919
409.79        19.29809
410.24        19.41464
410.68        19.42409
411.13        19.31125
411.58        19.28029
412.03        19.33039
412.47        19.35509
412.92        19.33707
413.37        19.31107
413.81        19.28405
414.26        19.28193
414.71        19.30278
415.15        19.33652
415.60        19.36465
416.05          19.368
416.49        19.34335
416.94        19.29705
417.39        19.23809
417.83        19.18173
418.28        19.12775
418.73         19.0625
419.17        19.00327
419.62        18.98029
420.07        19.00316
420.51        19.07466
420.96         19.1381
421.41        19.12695
421.85        19.02876
422.30        18.78028
422.74        18.50754
423.19        18.62838
423.64        19.07528
424.08        19.32185
424.53        19.24821
424.98        19.20996
425.42         19.2094
425.87        18.89553
426.31        18.42229
426.76        18.42082
427.21        18.81407
427.65        18.90223
428.10        18.68114
428.54         18.6249
428.99         18.7305
429.44        18.90601
429.88        19.03574
430.33         18.7115
430.77        18.14799
431.22        18.13502
431.66        18.63506
432.11        19.02136
432.56        19.17759
433.00        19.23871
433.45        19.05606
433.89        18.66857
434.34        18.40917
434.78        17.44335
435.23        18.01145
435.67        18.53532
436.12        18.78481
436.57        18.85337
437.01        18.60758
437.46        18.47032
437.90        18.54437
438.35        18.70285
438.79        18.35946
439.24        18.26694
439.68        18.27524
440.13        18.32795
440.57        18.37755
441.02        18.51449
441.46        18.67447
441.91        18.44925
442.35        18.01915
442.80        18.21478
443.24        18.87893
443.69        18.93577
444.13        18.40072
444.58        18.17606
445.02        18.26673
445.47        18.19587
445.91        17.97908
446.36        17.89091
446.80        17.93781
447.24        18.03212
447.69        18.14057
448.13        18.25676
448.58        18.33981
449.02        18.30983
449.47        18.20406
449.91        18.16269
450.36        18.20491
450.80         18.2487
451.25        18.28597
451.69        18.33504
452.13         18.3817
452.58        18.40282
453.02        18.38672
453.47        18.32463
453.91        18.21619
454.36        18.09841
454.80        17.96103
455.24        17.76915
455.69        17.57716
456.13        17.41809
456.58        17.33656
457.02        17.46075
457.46        17.68486
457.91        17.68407
458.35        17.54091
458.79        17.49479
459.24        17.57128
459.68        17.60479
460.13        17.59005
460.57         17.4945
461.01        17.40033
461.46        17.33181
461.90        17.22594
462.34        17.17521
462.79        17.45146
463.23        17.56985
463.68         17.5949
464.12        17.58967
464.56        17.56722
465.01         17.5847
465.45         17.5826
465.89        17.46503
466.34        17.29862
466.78        17.16866
467.22        17.07605
467.67        17.38261
468.11        17.30883
468.55        17.29243
468.99        17.14536
469.44        17.10698
469.88        17.18268
470.32        17.23215
470.77        17.24691
471.21        17.26907
471.65        17.29838
472.10        17.32817
472.54        17.34247
472.98        17.34308
473.42        17.33596
473.87        17.27262
474.31        17.19026
474.75        17.30663
475.20        17.56393
475.64        17.62078
476.08        17.47226
476.52        17.44722
476.97        17.56562
477.41        17.48068
477.85        17.37189
478.29         17.4938
478.74        17.41055
479.18        17.31909
479.62        17.64895
480.06        17.73723
480.50        17.76262
480.95        17.72783
481.39         17.6363
481.83        17.87388
482.27        17.91043
482.72        17.87938
483.16        18.15968
483.60        18.23403
484.04        18.25727
484.48          18.272
484.93          18.416
485.37        18.36788
485.81        18.93693
486.25        18.97532
486.69        18.83822
487.14        18.39953
487.58         19.3979
488.02        19.33176
488.46        18.99912
488.90        19.44167
489.34        18.85367
489.79        18.74753
490.23         19.2862
490.67        19.53721
491.11        19.66595
491.55        19.73388
491.99        19.79391
492.43        19.90609
492.88        20.07093
493.32        20.19951
493.76         20.2897
494.20        20.44342
494.64        20.67887
495.08        20.89701
495.52        21.08117
495.96        21.39256
496.41        21.78936
496.85        21.72516
497.29          21.352
497.73        21.47141
498.17        22.00307
498.61        22.24554
499.05        22.13466
499.49        22.08511
499.93        22.17263
500.37        22.33167
500.82        22.52658
501.26        22.74121
501.70        22.97121
502.14        22.75432
502.58        22.93825
503.02        22.97503
503.46        23.02272
503.90        23.09343
504.34        23.15974
504.78        23.25045
505.22        23.34997
505.66        23.41671
506.10        23.45999
506.54        23.55598
506.98        23.71339
507.42        23.79235
507.86        23.96661
508.30        24.06993
508.74        24.15182
509.18        24.20985
509.62        24.25301
510.06          24.293
510.50          24.332
510.94        24.36787
511.38        24.39738
511.82        24.41576
512.26        24.42255
512.70        24.42365
513.14        24.42348
513.58        24.41745
514.02        24.40731
514.46        24.41331
514.90        24.44248
515.34         24.4188
515.78        24.48324
516.22        24.51851
516.66        24.56601
517.10        24.62175
517.54        24.68141
517.98        24.73844
518.42        24.77799
518.86        24.78197
519.30         24.7469
519.74        24.68044
520.18        24.59643
520.62        24.51555
521.06        24.44815
521.50          24.395
521.93        24.35787
522.37        24.32873
522.81        24.30803
523.25        24.29217
523.69        24.28474
524.13         24.2916
524.57        24.30659
525.01        24.32175
525.45        24.31179
525.89         24.2381
526.32        24.09533
526.76         23.9115
527.20        23.71652
527.64        23.56206
528.08        23.46396
528.52         23.4033
528.96        23.37916
529.40        23.38774
529.83        23.41613
530.27         23.4662
530.71        23.49381
531.15        23.43064
531.59         23.2695
532.03         23.0322
532.46         22.7822
532.90        22.63731
533.34        22.62042
533.78        22.69769
534.22         22.8105
534.66        22.86671
535.09        22.84062
535.53        22.76673
535.97        22.67534
536.41        22.61772
536.85        22.60922
537.28         22.6305
537.72        22.66791
538.16        22.69899
538.60        22.71799
539.04        22.74158
539.47        22.76644
539.91        22.79838
540.35        22.83451
540.79        22.87675
541.22        22.93007
541.66        23.00527
542.10        23.10198
542.54         23.2171
542.97         23.3377
543.41        23.45686
543.85        23.56873
544.29         23.6785
544.72        23.78765
545.16        23.91667
545.60         24.0612
546.04        24.21249
546.47         24.3707
546.91        24.53174
547.35        24.68952
547.79        24.85729
548.22        25.01315
548.66        25.11664
549.10        25.18348
549.53        25.31426
549.97        25.51693
550.41        25.71676
550.84        25.90865
551.28        26.14304
551.72        26.39398
552.15        26.58765
552.59        26.72082
553.03        26.80892
553.46        26.87714
553.90        26.98574
554.34        27.14332
554.77        27.34095
555.21        27.55276
555.65        27.73801
556.08        27.85534
556.52        27.97847
556.96        28.10133
557.39        28.25624
557.83        28.42425
558.27        28.47915
558.70        28.44279
559.14        28.45843
559.57        28.53156
560.01        28.62556
560.45        28.71509
560.88        28.74487
561.32         28.7689
561.75        28.86752
562.19         29.0373
562.63        29.25445
563.06         29.4424
563.50        29.38837
563.93         29.1643
564.37        29.14291
564.80        29.34089
565.24        29.57489
565.68        29.79857
566.11        30.00491
566.55        30.18187
566.98        30.35416
567.42        30.51422
567.85        30.56639
568.29        30.57136
568.72        30.61833
569.16        30.73218
569.60        30.93837
570.03        31.25895
570.47        31.35189
570.90        31.55157
571.34        32.12212
571.77         32.1657
572.21        32.08914
572.64        32.32061
573.08        32.30249
573.51         32.6737
573.95        32.74439
574.38        32.64193
574.82        32.77431
