SpectraSmart Spectrum 2.9.0.0
--------- Device Information -----------
Spectrum Name :  反射率_0
Saving Time :  2024/04/27 23:01:38
Spectro-Module Model Name : SE2030-DUVN
Spectro-Module Serial Number : OS361AC55029948
Wavelength Start : 200
Wavelength End : 1025
Wavelength Unit : Wavelength(nm)
Spectrum Unit : Reflectance(%)
-----------Spectrum Setting ------------
Integration Time : 20ms
Average : 10
Boxcar : 0
Background removal :  enabled
linearity correction :  enabled
SC :  disabled
Intensity correction :  disabled
DWT denoise :  enabled
savitzky-golay :  disabled
FFT :  disabled
Running average :  disabled
Kalman :  disabled
High pass :  disabled
---------------BEGIN--------------------
Wavelength(nm)             Reflectance(%)
200.29               0
200.75        80.17517
201.21        97.26078
201.67        103.5852
202.13        98.15584
202.58        85.37175
203.04        68.70502
203.50        55.44301
203.96        56.37142
204.42        69.99184
204.88        89.01395
205.34        106.7768
205.80        118.7005
206.26        125.4986
206.72        129.4377
207.18         130.325
207.64        127.6302
208.10        122.9411
208.55        117.8703
209.01        113.4286
209.47        108.3162
209.93        99.88434
210.39        81.80137
210.85        26.86854
211.31       -59.25377
211.77        4.640219
212.23        58.50325
212.69        80.56184
213.14        90.76635
213.60         97.1041
214.06        104.3985
214.52         113.621
214.98        117.9234
215.44        111.8595
215.90        102.3308
216.36         95.3203
216.81         92.5406
217.27        92.82728
217.73        95.15887
218.19        98.59064
218.65        101.4489
219.11        103.3779
219.57        105.2073
220.02        107.6222
220.48        112.1457
220.94        118.1229
221.40        123.8873
221.86        128.5445
222.32        131.9381
222.77        134.1158
223.23        135.4908
223.69        136.4508
224.15         137.543
224.61        138.9659
225.06         140.799
225.52        142.6118
225.98        142.9307
226.44        141.9261
226.90         140.541
227.36        139.9231
227.81        140.9719
228.27         144.034
228.73        148.5884
229.19        153.9906
229.65        158.5136
230.10        161.0176
230.56          161.97
231.02        161.7521
231.48        161.1836
231.93        160.4251
232.39        159.5989
232.85        158.4203
233.31        156.7791
233.77        154.7714
234.22        152.5557
234.68        150.6191
235.14        149.2609
235.60        148.5117
236.05        148.4439
236.51        148.4257
236.97         147.651
237.43        145.8323
237.88         143.237
238.34        140.5316
238.80        138.9655
239.26        138.6289
239.71        140.0717
240.17        141.2396
240.63         136.979
241.08        126.4666
241.54        115.3661
242.00        108.0044
242.46        104.1155
242.91        102.1565
243.37         101.353
243.83        101.5243
244.28        101.1944
244.74        97.97692
245.20        94.02036
245.66        91.77667
246.11        91.18228
246.57        91.48317
247.03         92.7219
247.48        94.19032
247.94        92.49563
248.40        86.79123
248.85        80.32614
249.31        76.73921
249.77        78.31007
250.22        83.35315
250.68         89.4815
251.14        95.78804
251.59        102.4934
252.05        110.6771
252.51        121.9133
252.96        135.4216
253.42        143.3409
253.88        140.3156
254.33        130.7408
254.79        122.2206
255.25        117.9152
255.70        116.6865
256.16        117.6084
256.62        119.5397
257.07        121.4139
257.53        123.5028
257.99        125.3573
258.44        126.3473
258.90        126.8503
259.35        126.3743
259.81         125.866
260.27        125.2344
260.72        124.5102
261.18        124.3353
261.63        124.0234
262.09        124.0297
262.55        124.0127
263.00        123.7432
263.46        123.5692
263.91        123.1479
264.37        122.7752
264.83        122.3009
265.28        121.6295
265.74        120.9496
266.19        119.9198
266.65        118.7418
267.11         117.383
267.56        115.9854
268.02        114.9569
268.47        114.2785
268.93        113.8872
269.38        113.5491
269.84          112.99
270.30        112.1022
270.75        110.9509
271.21        109.6546
271.66         108.288
272.12         106.941
272.57         105.504
273.03        104.0542
273.48        102.5504
273.94        101.1165
274.39        99.68944
274.85        98.36767
275.31        97.02749
275.76        95.61227
276.22        94.27127
276.67        92.94624
277.13        91.85013
277.58        90.85531
278.04        90.01291
278.49         89.1197
278.95        88.17754
279.40        87.03605
279.86        85.83535
280.31         84.5087
280.77        83.24545
281.22        81.97571
281.68        80.81901
282.13        79.63284
282.59        78.42915
283.04        77.11856
283.50        75.78803
283.95        74.49885
284.41        73.49766
284.86        72.75497
285.32        72.25951
285.77        71.76548
286.22        71.04198
286.68        70.07413
287.13        68.88531
287.59        67.70123
288.04        66.71645
288.50        66.04401
288.95        65.54549
289.41        65.14747
289.86        64.62656
290.32        63.98432
290.77        63.25314
291.22        62.53475
291.68         61.9535
292.13        61.50934
292.59        61.19124
293.04        60.92651
293.50        60.66965
293.95        60.38287
294.40        60.09625
294.86        59.85514
295.31        59.70774
295.77        59.66606
296.22        59.67751
296.68        59.69519
297.13        59.61689
297.58        59.43385
298.04        59.20606
298.49        58.94469
298.95         58.7109
299.40        58.50696
299.85        58.32191
300.31        58.22631
300.76        58.28711
301.21        58.50863
301.67        58.86879
302.12        59.19145
302.58        59.29839
303.03        59.12071
303.48        58.74473
303.94        58.34591
304.39        58.11325
304.84        58.11885
305.30        58.30749
305.75        58.51898
306.20        58.58258
306.66        58.47681
307.11        58.22795
307.57        57.97618
308.02        57.84166
308.47        57.87119
308.93        58.01045
309.38        58.13244
309.83        58.10576
310.29          57.911
310.74        57.57978
311.19        57.19694
311.65         56.8868
312.10        56.66747
312.55        56.51059
313.00        56.38573
313.46          56.247
313.91        56.06795
314.36        55.87418
314.82        55.66164
315.27        55.41724
315.72        55.14576
316.18        54.85623
316.63        54.56294
317.08        54.31915
317.53        54.13375
317.99        53.98752
318.44        53.86005
318.89        53.69751
319.35        53.48714
319.80        53.25068
320.25        53.00347
320.70        52.77785
321.16        52.57343
321.61        52.38116
322.06        52.19759
322.51        52.02466
322.97        51.84941
323.42        51.69465
323.87        51.51505
324.32        51.24659
324.78        50.87971
325.23        50.45224
325.68        50.03988
326.13        49.78086
326.59        49.69028
327.04        49.75303
327.49        49.86825
327.94        49.88198
328.39        49.74677
328.85        49.49225
329.30        49.19463
329.75        48.94085
330.20        48.77148
330.66        48.64076
331.11        48.56745
331.56        48.51544
332.01         48.4738
332.46        48.45979
332.92        48.44455
333.37         48.4325
333.82        48.39874
334.27        48.33439
334.72         48.2677
335.17        48.25261
335.63        48.28652
336.08        48.38445
336.53        48.47163
336.98        48.44275
337.43        48.28427
337.88        48.03645
338.34        47.79465
338.79         47.7317
339.24        47.87941
339.69        48.17656
340.14        48.52876
340.59        48.78184
341.05        48.88442
341.50           48.89
341.95        48.81622
342.40         48.7034
342.85        48.57938
343.30        48.42885
343.75        48.30258
344.20         48.2852
344.66         48.3933
345.11        48.60701
345.56        48.84382
346.01        48.96184
346.46        48.92678
346.91        48.77113
347.36         48.5857
347.81        48.51389
348.26        48.58449
348.72        48.75416
349.17        48.92212
349.62        48.93344
350.07        48.75748
350.52        48.44978
350.97        48.12656
351.42        47.96948
351.87        48.01756
352.32        48.20621
352.77        48.42263
353.22        48.49744
353.67        48.38622
354.13        48.15247
354.58        47.84713
355.03        47.60636
355.48        47.46803
355.93        47.39369
356.38        47.32459
356.83        47.17122
357.28        46.91725
357.73         46.6039
358.18        46.29028
358.63        46.06136
359.08        45.93439
359.53        45.87358
359.98        45.83253
360.43        45.74243
360.88        45.58037
361.33        45.36303
361.78        45.10114
362.23        44.83906
362.68        44.59587
363.13        44.31562
363.58        43.98816
364.03        43.85793
364.48        43.50853
364.93        43.27501
365.38        43.04247
365.83        42.83267
366.28        42.64021
366.73        42.46471
367.18        42.27712
367.63        42.02127
368.08        41.69146
368.53        41.30532
368.98        40.91446
369.43        40.60164
369.88        40.38816
370.33        40.25377
370.78        40.14758
371.23        39.98632
371.68        39.74369
372.13        39.43589
372.58        39.11436
373.03        38.86174
373.48         38.7018
373.93        38.62213
374.38        38.55016
374.83        38.37115
375.28        38.06941
375.72        37.66795
376.17        37.31076
376.62        37.17598
377.07        37.28071
377.52        37.53872
377.97        37.79266
378.42         37.7995
378.87        37.51144
379.32        37.03103
379.77        36.46367
380.22         35.9649
380.67        35.59129
381.11        35.29424
381.56         35.0968
382.01        35.03893
382.46        35.10615
382.91         35.2867
383.36        35.46537
383.81        35.45644
384.26          35.224
384.71        34.81654
385.15        34.34415
385.60         34.0282
386.05        33.91031
386.50         33.9326
386.95        34.00936
387.40        34.00545
387.85        33.88863
388.29        33.68864
388.74        33.50008
389.19        33.37471
389.64         33.3188
390.09        33.28902
390.54        33.25206
390.98        33.15657
391.43        33.01398
391.88         32.8512
392.33        32.66241
392.78        32.48826
393.23        32.35644
393.67        32.11806
394.12        31.85225
394.57        32.05522
395.02        32.15675
395.47        32.07067
395.91        31.71655
396.36        31.60351
396.81        31.76243
397.26        31.92897
397.71        32.00394
398.15        31.96499
398.60        31.83543
399.05        31.51048
399.50        31.14594
399.95        31.16024
400.39        31.48428
400.84        31.60546
401.29        31.45742
401.74        31.24291
402.18        31.02887
402.63         30.9021
403.08        30.88056
403.53        30.81812
403.97          30.723
404.42        30.74652
404.87        30.83635
405.32        30.85031
405.76        30.76458
406.21        30.55446
406.66        30.29405
407.11        30.24015
407.55        30.33624
408.00        30.23657
408.45        29.94935
408.90        29.59567
409.34        29.32136
409.79         29.4896
410.24        29.97515
410.68         30.1837
411.13        30.05478
411.58        29.93301
412.03        29.87027
412.47        29.80161
412.92        29.73787
413.37        29.70534
413.81        29.68462
414.26        29.66871
414.71        29.64501
415.15        29.62326
415.60        29.59716
416.05        29.57475
416.49        29.56055
416.94        29.54632
417.39        29.52725
417.83         29.4999
418.28        29.45643
418.73        29.38578
419.17         29.3113
419.62        29.27404
420.07        29.29136
420.51        29.36375
420.96        29.43109
421.41        29.43212
421.85        29.35154
422.30        29.07958
422.74        28.76203
423.19         28.9766
423.64        29.60584
424.08        29.84374
424.53        29.57752
424.98        29.46397
425.42        29.53107
425.87        29.20499
426.31        28.64288
426.76        28.69277
427.21        29.21462
427.65        29.15921
428.10        28.61021
428.54        28.45342
428.99        28.71111
429.44        29.08893
429.88        29.36871
430.33        29.07326
430.77        28.39492
431.22        28.13911
431.66        28.35776
432.11         28.6811
432.56        29.00596
433.00        29.21148
433.45        29.05827
433.89        28.68421
434.34        28.46867
434.78        27.42706
435.23        28.06075
435.67        28.91333
436.12        29.34464
436.57        29.38773
437.01        28.86615
437.46        28.58308
437.90        28.72172
438.35        29.04836
438.79        28.60575
439.24        28.47739
439.68        28.41561
440.13        28.36007
440.57        28.29448
441.02        28.44889
441.46         28.7415
441.91        28.51071
442.35        27.96834
442.80        28.32678
443.24         29.3307
443.69        29.33275
444.13        28.40835
444.58         28.0226
445.02        28.19881
445.47        28.17259
445.91        27.93447
446.36        27.85323
446.80        27.92511
447.24        28.03038
447.69        28.13726
448.13        28.25819
448.58        28.34036
449.02        28.24877
449.47        28.04141
449.91        27.93243
450.36        27.95317
450.80        27.98428
451.25        28.01091
451.69        28.05173
452.13        28.08684
452.58        28.08398
453.02         28.0434
453.47        27.97856
453.91        27.89356
454.36        27.83599
454.80          27.763
455.24        27.57505
455.69        27.34197
456.13         27.1226
456.58        27.01402
457.02        27.26175
457.46        27.70924
457.91        27.83484
458.35        27.72332
458.79        27.69617
459.24        27.78729
459.68        27.75632
460.13        27.64458
460.57        27.47876
461.01        27.40121
461.46        27.42774
461.90        27.40448
462.34        27.39168
462.79        27.80289
463.23        27.88722
463.68        27.80393
464.12        27.73476
464.56         27.7219
465.01        27.82573
465.45        27.90975
465.89        27.75527
466.34        27.45551
466.78        27.17126
467.22        26.94059
467.67        27.39432
468.11        27.32036
468.55         27.3876
468.99         27.2604
469.44        27.26062
469.88        27.38233
470.32        27.41735
470.77        27.37896
471.21        27.38003
471.65          27.431
472.10        27.50593
472.54        27.55552
472.98        27.54936
473.42        27.49115
473.87        27.31955
474.31        27.11504
474.75        27.24685
475.20        27.63267
475.64        27.72655
476.08        27.51271
476.52        27.49724
476.97        27.70624
477.41        27.59558
477.85        27.44703
478.29        27.66069
478.74        27.54379
479.18        27.40198
479.62        27.91243
480.06        28.02306
480.50        28.01564
480.95        27.90886
481.39        27.70877
481.83        27.98846
482.27        27.91438
482.72        27.80263
483.16        28.11464
483.60        28.16785
484.04        28.13531
484.48        28.17931
484.93         28.4991
485.37        28.26082
485.81        28.80524
486.25        29.28249
486.69        29.37495
487.14        28.70316
487.58        29.20371
488.02        28.93367
488.46        28.85944
488.90        29.35877
489.34         28.5645
489.79         28.2642
490.23        29.03932
490.67        29.30591
491.11        29.34067
491.55        29.26924
491.99        29.18435
492.43        29.20337
492.88        29.33977
493.32        29.48371
493.76         29.5945
494.20        29.73434
494.64         29.9169
495.08        30.03183
495.52        30.09439
495.96        30.40935
496.41        30.90631
496.85        30.79677
497.29        30.26963
497.73        30.45712
498.17        31.21832
498.61        31.50736
499.05        31.23676
499.49        31.05009
499.93        31.06087
500.37        31.14486
500.82         31.2665
501.26        31.44749
501.70        31.68911
502.14        31.34744
502.58        31.58103
503.02        31.61499
503.46        31.65931
503.90        31.73369
504.34        31.80188
504.78        31.90713
505.22         32.0266
505.66        32.09665
506.10        32.12422
506.54        32.20678
506.98          32.355
507.42        32.38358
507.86        32.53361
508.30        32.58422
508.74        32.60953
509.18         32.6105
509.62        32.60759
510.06        32.62872
510.50        32.67789
510.94        32.74519
511.38        32.82109
511.82        32.88989
512.26        32.94439
512.70         32.9938
513.14        33.02814
513.58        33.01783
514.02        32.96341
514.46        32.89757
514.90        32.86126
515.34        32.80497
515.78        32.92719
516.22         33.0532
516.66        33.20167
517.10        33.30635
517.54          33.349
517.98        33.34579
518.42        33.30487
518.86        33.24657
519.30        33.18343
519.74        33.11181
520.18         33.0499
520.62        33.02589
521.06        33.04522
521.50        33.10422
521.93        33.18204
522.37        33.23108
522.81        33.24128
523.25        33.21797
523.69        33.18031
524.13        33.16139
524.57        33.16656
525.01        33.18376
525.45        33.18682
525.89        33.13528
526.32        33.02093
526.76        32.87188
527.20        32.71923
527.64        32.61538
528.08        32.57297
528.52        32.57183
528.96        32.59423
529.40        32.61108
529.83        32.60852
530.27        32.60204
530.71        32.57655
531.15        32.51175
531.59        32.40894
532.03        32.27122
532.46        32.13577
532.90        32.07858
533.34        32.10781
533.78        32.20387
534.22        32.30991
534.66        32.33762
535.09        32.26667
535.53        32.13221
535.97        31.98606
536.41        31.91717
536.85         31.9467
537.28        32.04746
537.72        32.17145
538.16        32.23665
538.60        32.22604
539.04        32.17764
539.47         32.1224
539.91        32.12481
540.35        32.19106
540.79        32.30278
541.22        32.43541
541.66        32.55466
542.10        32.64589
542.54        32.72136
542.97        32.78049
543.41        32.84013
543.85        32.90117
544.29        32.96273
544.72        33.02487
545.16        33.11031
545.60        33.21339
546.04          33.328
546.47        33.45311
546.91        33.58241
547.35         33.7066
547.79        33.84057
548.22        33.96246
548.66         34.0259
549.10        34.05285
549.53        34.17756
549.97        34.39045
550.41        34.55751
550.84        34.66967
551.28        34.80532
551.72        34.96765
552.15        35.11951
552.59        35.26489
553.03        35.40366
553.46        35.52931
553.90        35.63503
554.34        35.71147
554.77         35.8197
555.21        35.96849
555.65        35.92549
556.08        36.05378
556.52        36.12105
556.96        36.22717
557.39        36.38845
557.83         36.5743
558.27        36.62381
558.70        36.56522
559.14        36.58332
559.57         36.6862
560.01        36.83916
560.45        36.98407
560.88        37.00003
561.32        36.95371
561.75        36.96603
562.19        37.07309
562.63        37.30323
563.06        37.56608
563.50        37.56516
563.93        37.34288
564.37        37.29749
564.80        37.43853
565.24        37.56636
565.68        37.65622
566.11        37.75975
566.55        37.88287
566.98        38.00824
567.42        38.14024
567.85        38.24627
568.29        38.35827
568.72        38.44042
569.16        38.52897
569.60        38.71086
570.03        38.99866
570.47        39.03621
570.90        39.29861
571.34        39.55688
571.77        39.77051
572.21        39.63125
572.64        39.94879
573.08        39.82469
573.51        40.02846
573.95        40.21279
574.38        40.41705
574.82        40.59874
