SpectraSmart Spectrum 2.9.0.0
--------- Device Information -----------
Spectrum Name :  反射率_0
Saving Time :  2024/04/27 23:04:09
Spectro-Module Model Name : SE2030-DUVN
Spectro-Module Serial Number : OS361AC55029948
Wavelength Start : 200
Wavelength End : 1025
Wavelength Unit : Wavelength(nm)
Spectrum Unit : Reflectance(%)
-----------Spectrum Setting ------------
Integration Time : 20ms
Average : 10
Boxcar : 0
Background removal :  enabled
linearity correction :  enabled
SC :  disabled
Intensity correction :  disabled
DWT denoise :  enabled
savitzky-golay :  disabled
FFT :  disabled
Running average :  disabled
Kalman :  disabled
High pass :  disabled
---------------BEGIN--------------------
Wavelength(nm)             Reflectance(%)
200.29               0
200.75        2.830754
201.21        32.78221
201.67        53.52623
202.13        59.36081
202.58        55.57787
203.04        46.95565
203.50         38.8575
203.96        38.35883
204.42        45.15606
204.88        55.22705
205.34        64.07699
205.80        68.07156
206.26        66.90425
206.72        60.12082
207.18        48.51093
207.64        43.32195
208.10        50.98676
208.55        63.30748
209.01        70.56037
209.47        70.03375
209.93        60.68322
210.39        32.59021
210.85       -57.19731
211.31       -179.6085
211.77       -59.54169
212.23        26.82916
212.69        58.12292
213.14        67.00739
213.60        64.84132
214.06        54.85562
214.52        35.06824
214.98        18.30089
215.44         21.3376
215.90        32.00169
216.36        42.31107
216.81        50.48378
217.27        57.08142
217.73        63.88836
218.19        68.97294
218.65         68.1235
219.11        60.16948
219.57        45.44827
220.02        27.20565
220.48        16.39573
220.94        17.33485
221.40        26.20144
221.86        37.80636
222.32        46.70174
222.77        52.08479
223.23        55.48806
223.69        57.43797
224.15         58.3704
224.61        58.63084
225.06        57.85023
225.52         56.6196
225.98        55.81015
226.44         55.6316
226.90        55.74553
227.36        55.75095
227.81        55.16396
228.27        53.94259
228.73        52.16986
229.19        49.86972
229.65        47.30859
230.10        44.79773
230.56        42.73557
231.02        41.18397
231.48        40.25043
231.93        39.83494
232.39        39.89346
232.85        40.47043
233.31         41.6707
233.77        43.31778
234.22        45.30679
234.68        46.92789
235.14         47.3648
235.60         46.5046
236.05        44.39299
236.51        41.89726
236.97        40.97533
237.43        42.41907
237.88        45.91609
238.34        49.66957
238.80        51.90228
239.26        52.18254
239.71        50.32255
240.17        46.79375
240.63        46.03579
241.08        51.00562
241.54        57.79003
242.00        62.50549
242.46        63.78204
242.91        61.94303
243.37         55.7886
243.83        42.19002
244.28        24.64778
244.74        23.56157
245.20        39.66163
245.66        54.03332
246.11        58.71236
246.57        55.64749
247.03        45.66446
247.48        29.14041
247.94        19.21136
248.40        27.99988
248.85         46.7586
249.31           64.48
249.77        72.99014
250.22        73.66722
250.68          70.967
251.14        67.45222
251.59        64.79404
252.05        63.07232
252.51        60.91531
252.96        58.00579
253.42        56.37627
253.88        56.55084
254.33         58.0286
254.79        58.85637
255.25        56.97884
255.70        53.05598
256.16        48.80738
256.62         45.7023
257.07         45.3787
257.53        47.37903
257.99        49.96894
258.44        51.94273
258.90        52.62098
259.35         51.9166
259.81         50.6959
260.27        49.18325
260.72        47.64688
261.18        46.50238
261.63        45.47511
262.09        44.68484
262.55        43.95818
263.00        43.21732
263.46         42.6013
263.91         42.1261
264.37         42.0904
264.83        42.37184
265.28        42.78129
265.74        43.10395
266.19        42.90759
266.65        42.22813
267.11        41.19377
267.56        39.99345
268.02        39.02006
268.47        38.34365
268.93        37.86494
269.38        37.52188
269.84        37.23504
270.30        36.94589
270.75        36.68579
271.21        36.36047
271.66        35.77203
272.12        34.93161
272.57        33.87157
273.03        32.80849
273.48        32.00829
273.94        31.57655
274.39        31.38425
274.85        31.31564
275.31        31.13272
275.76        30.75347
276.22         30.2634
276.67        29.70345
277.13        29.21917
277.58        28.79192
278.04        28.43178
278.49        28.01021
278.95        27.44856
279.40        26.71548
279.86        25.93534
280.31         25.2268
280.77        24.86375
281.22         24.8311
281.68        25.04843
282.13        25.32726
282.59        25.45354
283.04        25.35765
283.50        25.11438
283.95        24.78659
284.41        24.50927
284.86        24.30515
285.32        24.15183
285.77        23.99234
286.22        23.77893
286.68        23.52236
287.13        23.22618
287.59          22.967
288.04        22.78193
288.50        22.70478
288.95        22.68592
289.41        22.69723
289.86        22.65644
290.32         22.5638
290.77        22.43912
291.22        22.31592
291.68        22.23927
292.13         22.2168
292.59        22.24603
293.04        22.32865
293.50        22.48959
293.95        22.72086
294.40        23.03115
294.86        23.38588
295.31        23.72175
295.77        24.03093
296.22         24.3052
296.68        24.60365
297.13        25.00207
297.58        25.50614
298.04        26.07381
298.49        26.60514
298.95        26.96248
299.40        27.12399
299.85        27.14224
300.31        27.13535
300.76        27.25431
301.21        27.54614
301.67        27.95872
302.12        28.39112
302.58        28.72384
303.03         28.9107
303.48         28.9995
303.94        29.06116
304.39        29.15827
304.84        29.32351
305.30        29.53745
305.75        29.73325
306.20        29.84642
306.66        29.87484
307.11        29.81416
307.57        29.75311
308.02        29.76747
308.47        29.88214
308.93        30.06594
309.38        30.20969
309.83        30.16784
310.29        29.92983
310.74        29.53848
311.19        29.11881
311.65        28.86837
312.10        28.81518
312.55         28.8975
313.00        29.02096
313.46        29.03918
313.91        28.90764
314.36        28.68129
314.82        28.38722
315.27        28.06406
315.72        27.74236
316.18        27.41772
316.63        27.12613
317.08         26.9469
317.53         26.8896
317.99        26.93186
318.44        27.01331
318.89        27.01489
319.35        26.90359
319.80        26.70693
320.25        26.47261
320.70        26.28896
321.16        26.17188
321.61        26.09535
322.06         26.0185
322.51        25.88065
322.97        25.66403
323.42        25.40682
323.87        25.12777
324.32        24.86054
324.78        24.62054
325.23        24.40187
325.68        24.21831
326.13        24.09641
326.59        24.02515
327.04        24.01653
327.49        24.01623
327.94        23.94123
328.39        23.77005
328.85        23.51539
329.30        23.23701
329.75        23.03986
330.20        22.95759
330.66        22.95563
331.11        22.98805
331.56        22.93386
332.01        22.76453
332.46        22.51529
332.92        22.25503
333.37         22.1226
333.82        22.14625
334.27        22.27667
334.72         22.4409
335.17        22.52085
335.63        22.47479
336.08        22.35922
336.53        22.19241
336.98        22.01513
337.43        21.85773
337.88         21.7109
338.34        21.61777
338.79        21.65283
339.24        21.81863
339.69        22.08233
340.14        22.36574
340.59        22.53778
341.05        22.55951
341.50        22.47466
341.95        22.30363
342.40        22.09464
342.85        21.87688
343.30        21.63474
343.75         21.4252
344.20        21.33892
344.66        21.39033
345.11        21.55906
345.56        21.74193
346.01        21.76426
346.46        21.59202
346.91        21.27584
347.36        20.94287
347.81        20.78944
348.26        20.86098
348.72         21.1028
349.17        21.39204
349.62        21.53197
350.07        21.47195
350.52        21.26011
350.97         21.0312
351.42        20.99961
351.87        21.20045
352.32        21.55464
352.77        21.88214
353.22        21.91436
353.67        21.60387
354.13        21.06025
354.58        20.45214
355.03        20.09544
355.48        20.07588
355.93        20.30872
356.38         20.6328
356.83        20.79478
357.28        20.72919
357.73         20.5111
358.18        20.27051
358.63        20.20802
359.08        20.35588
359.53        20.62575
359.98        20.87927
360.43        20.90993
360.88        20.67525
361.33        20.25633
361.78        19.75843
362.23        19.38383
362.68        19.20177
363.13        19.08835
363.58        18.99379
364.03        19.20941
364.48        19.10289
364.93        19.17107
365.38        19.21546
365.83        19.21681
366.28        19.16114
366.73        19.05161
367.18        18.90441
367.63        18.73919
368.08        18.57084
368.53        18.40319
368.98        18.24334
369.43        18.09842
369.88         17.9736
370.33        17.87149
370.78        17.79655
371.23         17.7538
371.68        17.73432
372.13        17.72298
372.58         17.7015
373.03        17.64139
373.48        17.53796
373.93        17.41229
374.38        17.25836
374.83        17.06654
375.28        16.84982
375.72        16.60491
376.17        16.42208
376.62        16.40238
377.07        16.54775
377.52        16.80593
377.97        17.06514
378.42        17.14976
378.87        17.02311
379.32        16.75248
379.77        16.40961
380.22        16.10517
380.67        15.87869
381.11        15.69406
381.56        15.57182
382.01        15.54355
382.46        15.60207
382.91        15.74438
383.36        15.88302
383.81        15.87597
384.26        15.69988
384.71        15.39303
385.15        15.05728
385.60        14.88864
386.05        14.91831
386.50        15.09089
386.95        15.30665
387.40        15.40698
387.85         15.3589
388.29         15.2132
388.74         15.0626
389.19        15.00198
389.64        15.04608
390.09        15.13981
390.54        15.24405
390.98        15.29898
391.43        15.28834
391.88        15.24112
392.33        15.13585
392.78        14.96334
393.23        14.74492
393.67        14.42701
394.12        14.10408
394.57        14.07022
395.02        14.08699
395.47        14.09995
395.91        14.02392
396.36        13.99371
396.81        14.00362
397.26        13.96771
397.71        13.89162
398.15        13.83684
398.60        13.82282
399.05        13.77007
399.50        13.71097
399.95        13.78372
400.39        13.94512
400.84        13.98312
401.29        13.87654
401.74        13.72795
402.18        13.57688
402.63        13.46322
403.08        13.40436
403.53        13.35426
403.97        13.32232
404.42        13.36935
404.87        13.46894
405.32        13.55146
405.76        13.59627
406.21        13.58329
406.66        13.53174
407.11        13.53727
407.55        13.56982
408.00        13.48248
408.45        13.27937
408.90        13.01998
409.34        12.78283
409.79        12.73364
410.24         12.8454
410.68        12.90606
411.13        12.89446
411.58        12.94303
412.03         13.0367
412.47        13.07861
412.92        13.05032
413.37        12.98653
413.81        12.90142
414.26        12.82705
414.71        12.77109
415.15        12.72353
415.60        12.69507
416.05        12.70744
416.49        12.76121
416.94        12.84689
417.39        12.92896
417.83        12.95278
418.28        12.90189
418.73        12.78504
419.17        12.64399
419.62        12.55211
420.07        12.53373
420.51        12.57684
420.96        12.63212
421.41        12.63746
421.85        12.57747
422.30         12.4175
422.74        12.24297
423.19        12.33225
423.64        12.64049
424.08        12.81727
424.53        12.77318
424.98        12.73751
425.42        12.70901
425.87        12.45829
426.31        12.09682
426.76         12.0599
427.21        12.29836
427.65        12.35413
428.10        12.20971
428.54        12.15303
428.99        12.17809
429.44        12.23177
429.88        12.25772
430.33        12.02706
430.77        11.67859
431.22        11.70541
431.66        12.06399
432.11        12.30321
432.56        12.33655
433.00        12.28995
433.45        12.09036
433.89        11.74057
434.34        11.50184
434.78        10.96649
435.23         11.5009
435.67        11.95609
436.12        12.15547
436.57        12.23926
437.01        12.13132
437.46        12.08449
437.90        12.16956
438.35        12.30538
438.79        12.09086
439.24        12.00474
439.68        11.94734
440.13         11.8922
440.57        11.83452
441.02        11.87283
441.46        11.97638
441.91        11.86851
442.35        11.64166
442.80        11.80107
443.24        12.23968
443.69        12.26791
444.13        11.90429
444.58        11.74788
445.02        11.80485
445.47        11.76501
445.91        11.63219
446.36        11.58009
446.80        11.61124
447.24         11.6721
447.69        11.74686
448.13        11.84425
448.58        11.93567
449.02        11.96316
449.47         11.9357
449.91         11.9245
450.36        11.93696
450.80          11.928
451.25        11.90134
451.69        11.88441
452.13        11.87467
452.58        11.85559
453.02        11.82257
453.47        11.77394
453.91        11.70904
454.36        11.65209
454.80        11.59088
455.24        11.49348
455.69        11.39164
456.13        11.30698
456.58         11.2703
457.02        11.36821
457.46        11.53351
457.91        11.55151
458.35        11.47626
458.79        11.46345
459.24        11.53043
459.68        11.56843
460.13        11.57454
460.57        11.52566
461.01        11.47693
461.46        11.44476
461.90         11.3871
462.34        11.36354
462.79        11.55229
463.23        11.63246
463.68        11.64914
464.12        11.65174
464.56        11.64838
465.01        11.67797
465.45        11.68894
465.89        11.60309
466.34        11.46389
466.78        11.33057
467.22          11.224
467.67        11.41403
468.11        11.39701
468.55        11.45391
468.99        11.42887
469.44        11.43116
469.88        11.45437
470.32        11.41721
470.77        11.35639
471.21         11.3682
471.65        11.46574
472.10        11.62019
472.54        11.76879
472.98        11.83192
473.42        11.79848
473.87         11.6654
474.31        11.50494
474.75        11.53601
475.20        11.73626
475.64        11.85142
476.08        11.84329
476.52        11.88608
476.97        11.98087
477.41        11.90625
477.85        11.79482
478.29        11.83471
478.74        11.74004
479.18        11.64191
479.62         11.8305
480.06         11.8651
480.50        11.86703
480.95        11.83695
481.39        11.78176
481.83        11.96947
482.27        12.04474
482.72        12.08825
483.16        12.34093
483.60        12.42952
484.04        12.42851
484.48        12.41743
484.93        12.54862
485.37        12.48455
485.81        12.64318
486.25        13.21167
486.69        12.44236
487.14         12.0315
487.58        13.22038
488.02        12.94718
488.46        12.89909
488.90        12.99022
489.34        12.51848
489.79         12.5236
490.23        13.10275
490.67        13.48594
491.11        13.68163
491.55        13.59259
491.99        13.34295
492.43        13.32697
492.88        13.58186
493.32        13.83976
493.76        14.02825
494.20        14.19826
494.64        14.34074
495.08        14.40154
495.52        14.41008
495.96         14.5337
496.41        14.78471
496.85        14.74853
497.29        14.53282
497.73        14.69247
498.17        15.16329
498.61        15.44157
499.05        15.44451
499.49        15.42838
499.93        15.43954
500.37        15.42973
500.82        15.42821
501.26        15.51863
501.70        15.72011
502.14         15.6887
502.58        15.95163
503.02        16.04155
503.46        16.04721
503.90        16.00833
504.34        15.95193
504.78        15.97389
505.22        16.08231
505.66        16.21588
506.10        16.35121
506.54        16.49636
506.98        16.64134
507.42        16.70775
507.86         16.8109
508.30        16.82168
508.74        16.78228
509.18        16.69497
509.62        16.61162
510.06        16.61538
510.50        16.72049
510.94        16.90337
511.38        17.10262
511.82        17.21792
512.26        17.22359
512.70        17.14997
513.14        17.04569
513.58        16.98353
514.02        16.98694
514.46         17.0466
514.90        17.13661
515.34        17.15539
515.78        17.18855
516.22        17.17116
516.66         17.1571
517.10         17.1797
517.54        17.24438
517.98         17.3334
518.42        17.41179
518.86        17.42943
519.30        17.37602
519.74        17.27096
520.18        17.15009
520.62        17.06714
521.06        17.03952
521.50        17.05646
521.93        17.09796
522.37        17.12242
522.81        17.12013
523.25        17.09693
523.69        17.07457
524.13        17.08693
524.57         17.1358
525.01        17.20613
525.45        17.25538
525.89        17.21905
526.32        17.08597
526.76        16.88888
527.20        16.68178
527.64         16.5526
528.08        16.52295
528.52        16.56369
528.96        16.63664
529.40        16.68004
529.83        16.67379
530.27        16.63906
530.71        16.58271
531.15         16.5149
531.59        16.44398
532.03        16.36444
532.46        16.29062
532.90        16.25986
533.34        16.27305
533.78        16.32118
534.22         16.3786
534.66        16.40386
535.09        16.38654
535.53        16.34176
535.97        16.28593
536.41        16.24803
536.85        16.23757
537.28        16.24698
537.72         16.2705
538.16        16.29594
538.60        16.32131
539.04        16.35722
539.47        16.40053
539.91        16.45565
540.35        16.51824
540.79        16.58605
541.22        16.66121
541.66        16.74893
542.10        16.84682
542.54        16.95372
542.97        17.05234
543.41        17.12646
543.85        17.17277
544.29        17.19965
544.72        17.22762
545.16        17.30323
545.60         17.4287
546.04        17.59012
546.47        17.76458
546.91        17.90925
547.35        18.01183
547.79        18.09422
548.22        18.16363
548.66        18.22936
549.10         18.3088
549.53        18.46064
549.97        18.67042
550.41        18.85147
550.84        18.99231
551.28        19.14499
551.72        19.30038
552.15        19.41973
552.59        19.50749
553.03        19.56604
553.46        19.62406
553.90        19.74213
554.34        19.92414
554.77        20.15827
555.21        20.39245
555.65        20.54261
556.08        20.57006
556.52        20.54902
556.96        20.51727
557.39        20.56224
557.83        20.68492
558.27        20.77465
558.70        20.81743
559.14        20.86816
559.57        20.91713
560.01        20.95524
560.45        20.98175
560.88        20.98269
561.32        21.00464
561.75        21.09546
562.19        21.24358
562.63        21.42204
563.06        21.57041
563.50        21.53637
563.93        21.37366
564.37        21.35827
564.80        21.50294
565.24        21.67255
565.68        21.83108
566.11        21.97079
566.55        22.08316
566.98        22.18901
567.42        22.29045
567.85        22.32759
568.29          22.347
568.72        22.41037
569.16        22.52499
569.60        22.69954
570.03        22.94844
570.47        23.01269
570.90        23.14388
571.34        23.60293
571.77        23.59094
572.21        23.56633
572.64        23.80328
573.08        23.70708
573.51        23.98401
573.95        24.14722
574.38         24.2483
574.82        24.48717
