SpectraSmart Spectrum 2.9.0.0
--------- Device Information -----------
Spectrum Name :  反射率_0
Saving Time :  2024/04/27 22:49:37
Spectro-Module Model Name : SE2030-DUVN
Spectro-Module Serial Number : OS361AC55029948
Wavelength Start : 200
Wavelength End : 1025
Wavelength Unit : Wavelength(nm)
Spectrum Unit : Reflectance(%)
-----------Spectrum Setting ------------
Integration Time : 20ms
Average : 10
Boxcar : 0
Background removal :  enabled
linearity correction :  enabled
SC :  disabled
Intensity correction :  disabled
DWT denoise :  enabled
savitzky-golay :  disabled
FFT :  disabled
Running average :  disabled
Kalman :  disabled
High pass :  disabled
---------------BEGIN--------------------
Wavelength(nm)             Reflectance(%)
200.29               0
200.75       -61.20812
201.21       -21.53498
201.67        12.48073
202.13        26.09369
202.58        25.95731
203.04        19.42004
203.50        13.30971
203.96        15.74836
204.42        25.98804
204.88         39.0901
205.34        49.64929
205.80        53.28801
206.26        49.36864
206.72        36.36027
207.18        14.66964
207.64        2.170466
208.10        11.47772
208.55        30.72083
209.01        42.85296
209.47        42.08434
209.93        26.54972
210.39        -20.3457
210.85       -167.3854
211.31        -351.511
211.77       -141.8205
212.23       -1.559865
212.69        47.64999
213.14        61.03249
213.60        57.31632
214.06        40.49673
214.52        7.589202
214.98        -19.0065
215.44       -11.81152
215.90        8.321141
216.36        26.53559
216.81        39.04096
217.27        47.49163
217.73        55.23113
218.19        60.77541
218.65        60.29559
219.11        52.81764
219.57        38.40392
220.02        20.33886
220.48        9.869745
220.94        11.24991
221.40        20.51368
221.86        32.27019
222.32        40.86193
222.77        45.54873
223.23        48.00875
223.69        48.88509
224.15        48.61226
224.61         47.5397
225.06        45.31996
225.52        42.75057
225.98        41.24522
226.44        41.13876
226.90        41.74386
227.36         42.4158
227.81        42.57049
228.27        42.10627
228.73        41.17411
229.19        39.64931
229.65        37.43207
230.10        34.72727
230.56        32.08523
231.02        29.79566
231.48         28.2982
231.93        27.58886
232.39        27.49235
232.85        28.12538
233.31        29.64579
233.77        31.85629
234.22        34.69703
234.68        37.15534
235.14        38.04937
235.60        37.21174
236.05         34.6303
236.51        31.68909
236.97        31.41804
237.43        34.81951
237.88         41.1564
238.34        47.44014
238.80        50.37101
239.26        49.03878
239.71        42.71275
240.17        31.58475
240.63        24.97546
241.08        31.39223
241.54        44.14551
242.00        54.75863
242.46         59.9483
242.91        60.88495
243.37         58.1211
243.83        49.19551
244.28          33.818
244.74        24.97021
245.20         27.7374
245.66        33.47591
246.11        35.36005
246.57         33.2003
247.03        29.14696
247.48        23.60882
247.94         21.7391
248.40        27.64995
248.85         36.4144
249.31        45.90438
249.77        55.75396
250.22        64.75782
250.68        72.14487
251.14        77.20425
251.59        79.61103
252.05         79.8144
252.51        77.48488
252.96        72.42132
253.42         67.5439
253.88        65.17419
254.33        65.18706
254.79        65.12914
255.25        62.17428
255.70        57.03197
256.16        51.74267
256.62        48.45736
257.07        49.43238
257.53        53.60348
257.99        58.43694
258.44          61.952
258.90        62.91667
259.35        61.47536
259.81        59.09799
260.27         56.4214
260.72        54.19113
261.18        52.88179
261.63         51.9215
262.09        51.36901
262.55          50.965
263.00        50.54589
263.46        50.27134
263.91        49.98875
264.37        49.80063
264.83        49.59928
265.28        49.31088
265.74        48.91215
266.19        48.17964
266.65        47.18851
267.11        45.98242
267.56        44.68935
268.02        43.61191
268.47        42.78967
268.93        42.17218
269.38        41.68111
269.84         41.2091
270.30        40.70137
270.75        40.18242
271.21        39.63055
271.66        38.96482
272.12         38.2027
272.57        37.32611
273.03        36.43345
273.48        35.60559
273.94        34.92201
274.39        34.32529
274.85        33.81848
275.31         33.3198
275.76        32.78846
276.22        32.27287
276.67        31.75372
277.13        31.29623
277.58        30.86021
278.04        30.47978
278.49        30.06582
278.95        29.60452
279.40        29.04893
279.86        28.47045
280.31        27.91356
280.77        27.55806
281.22        27.37852
281.68        27.36062
282.13        27.35238
282.59        27.19059
283.04         26.8358
283.50        26.36157
283.95         25.8915
284.41        25.65248
284.86         25.6652
285.32        25.86759
285.77        26.09652
286.22        26.15425
286.68        26.02126
287.13         25.7375
287.59        25.45239
288.04        25.31581
288.50        25.38687
288.95        25.57239
289.41        25.79371
289.86        25.88871
290.32        25.84908
290.77        25.73449
291.22        25.62126
291.68        25.61245
292.13        25.73124
292.59        25.95421
293.04        26.27584
293.50        26.71366
293.95        27.24672
294.40        27.88573
294.86         28.5684
295.31        29.18596
295.77          29.727
296.22        30.19706
296.68        30.69441
297.13        31.35562
297.58        32.20109
298.04        33.17313
298.49        34.14154
298.95        34.93613
299.40        35.52251
299.85        35.96414
300.31        36.39243
300.76        36.96952
301.21        37.73708
301.67        38.63464
302.12        39.52278
302.58        40.25182
303.03        40.76308
303.48        41.11756
303.94        41.43383
304.39        41.83045
304.84        42.35205
305.30        42.96247
305.75        43.52996
306.20        43.90989
306.66         44.0924
307.11        44.09977
307.57        44.08442
308.02        44.20291
308.47         44.4995
308.93        44.91128
309.38        45.28465
309.83        45.42655
310.29        45.31551
310.74        45.01756
311.19         44.6589
311.65          44.432
312.10        44.37252
312.55        44.41991
313.00        44.52877
313.46        44.63167
313.91         44.6871
314.36        44.72343
314.82        44.69372
315.27        44.51547
315.72        44.18937
316.18        43.74982
316.63        43.28852
317.08        42.97969
317.53        42.86369
317.99        42.89107
318.44        42.98365
318.89        42.99049
319.35        42.86642
319.80        42.65571
320.25         42.4056
320.70        42.19968
321.16        42.05219
321.61        41.93458
322.06        41.81179
322.51        41.63778
322.97        41.39516
323.42        41.12504
323.87        40.83115
324.32        40.52599
324.78        40.21643
325.23        39.90506
325.68        39.62338
326.13        39.43148
326.59        39.32334
327.04        39.31146
327.49         39.3042
327.94        39.16121
328.39        38.84928
328.85        38.38945
329.30        37.90879
329.75        37.60313
330.20        37.53039
330.66        37.62543
331.11        37.77921
331.56        37.75139
332.01        37.48196
332.46        37.03732
332.92        36.53901
333.37        36.24361
333.82        36.20789
334.27        36.35021
334.72        36.55564
335.17        36.63641
335.63        36.52423
336.08        36.30653
336.53        36.01928
336.98        35.73521
337.43        35.49698
337.88        35.28226
338.34        35.12653
338.79         35.1024
339.24        35.20802
339.69        35.41758
340.14        35.65267
340.59        35.77922
341.05        35.75811
341.50        35.63102
341.95        35.42411
342.40        35.19643
342.85        34.97758
343.30        34.74859
343.75        34.54973
344.20        34.44569
344.66        34.44612
345.11        34.53707
345.56        34.63989
346.01        34.61812
346.46        34.44703
346.91        34.16873
347.36        33.87918
347.81        33.72769
348.26        33.74676
348.72        33.88746
349.17        34.06559
349.62        34.14967
350.07        34.09974
350.52        33.94862
350.97        33.76225
351.42        33.64576
351.87        33.62229
352.32        33.65621
352.77        33.67166
353.22        33.55743
353.67        33.29645
354.13        32.94525
354.58        32.57023
355.03        32.32603
355.48        32.24958
355.93        32.29727
356.38        32.38085
356.83        32.36117
357.28        32.20507
357.73        31.95867
358.18        31.69039
358.63        31.50672
359.08        31.42901
359.53         31.4093
359.98         31.3974
360.43        31.32096
360.88        31.15653
361.33        30.92764
361.78        30.64079
362.23        30.33711
362.68        30.04202
363.13         29.6951
363.58        29.30358
364.03        29.20473
364.48        28.87976
364.93        28.74174
365.38        28.62696
365.83        28.53406
366.28         28.4452
366.73        28.36258
367.18        28.26039
367.63        28.08563
368.08        27.83551
368.53        27.52905
368.98        27.20993
369.43        26.95096
369.88        26.77343
370.33        26.65683
370.78        26.58055
371.23        26.50843
371.68        26.42038
372.13        26.32142
372.58        26.20096
373.03        26.04136
373.48        25.84537
373.93        25.62591
374.38        25.39618
374.83        25.17779
375.28        24.98346
375.72         24.7994
376.17        24.67052
376.62        24.62331
377.07        24.64691
377.52        24.71079
377.97         24.7616
378.42        24.71641
378.87         24.5594
379.32        24.33195
379.77        24.05086
380.22        23.74057
380.67        23.42495
381.11         23.1001
381.56        22.83672
382.01        22.75003
382.46        22.84909
382.91        23.08977
383.36        23.34379
383.81        23.40981
384.26        23.24261
384.71        22.90237
385.15        22.48372
385.60        22.17372
386.05        22.01656
386.50        21.96781
386.95        21.98106
387.40        21.98224
387.85        21.95016
388.29         21.8996
388.74        21.87626
389.19        21.89124
389.64        21.93909
390.09        21.98763
390.54        22.01443
390.98        21.98842
391.43        21.91228
391.88         21.8021
392.33        21.64305
392.78        21.44783
393.23        21.24002
393.67        20.93531
394.12        20.61458
394.57        20.63015
395.02        20.62086
395.47        20.52704
395.91        20.28531
396.36        20.19681
396.81        20.27533
397.26        20.35946
397.71        20.39689
398.15        20.38912
398.60        20.34914
399.05        20.19689
399.50        20.01633
399.95        20.05726
400.39        20.27041
400.84        20.33041
401.29        20.20027
401.74        20.02125
402.18        19.84143
402.63        19.71627
403.08        19.66053
403.53        19.58573
403.97        19.50209
404.42        19.51089
404.87        19.57509
405.32         19.5968
405.76        19.55729
406.21        19.43424
406.66        19.28737
407.11        19.30175
407.55        19.44142
408.00        19.47899
408.45        19.37453
408.90        19.13305
409.34        18.84165
409.79        18.76358
410.24        18.88026
410.68        18.91504
411.13        18.85435
411.58        18.88463
412.03        18.99005
412.47        19.04172
412.92        19.01478
413.37        18.95413
413.81        18.87403
414.26        18.80902
414.71        18.76383
415.15         18.7284
415.60        18.69809
416.05        18.67662
416.49        18.66594
416.94        18.66658
417.39        18.66919
417.83        18.65926
418.28        18.62695
418.73        18.56342
419.17        18.49441
419.62        18.46573
420.07        18.49174
420.51        18.57111
420.96        18.64077
421.41         18.6243
421.85        18.51002
422.30         18.2436
422.74        17.96124
423.19        18.08778
423.64        18.56025
424.08        18.85786
424.53        18.84707
424.98        18.85058
425.42        18.86265
425.87        18.54626
426.31         18.0534
426.76        18.00515
427.21        18.32904
427.65        18.34354
428.10        18.06728
428.54        17.98834
428.99        18.10618
429.44        18.32456
429.88         18.5073
430.33        18.21682
430.77         17.6521
431.22        17.59482
431.66        18.02517
432.11        18.35375
432.56        18.47593
433.00        18.55369
433.45        18.43041
433.89        18.02168
434.34        17.69024
434.78        16.84184
435.23        17.59591
435.67        18.21164
436.12        18.43922
436.57        18.48731
437.01        18.25434
437.46         18.1482
437.90        18.27721
438.35        18.51891
438.79        18.25334
439.24        18.16607
439.68        18.09485
440.13        17.99946
440.57        17.88553
441.02        17.90628
441.46        18.01645
441.91         17.8623
442.35        17.54909
442.80        17.66781
443.24        18.11004
443.69         18.1566
444.13        17.81479
444.58        17.67872
445.02        17.74915
445.47        17.71867
445.91        17.59232
446.36        17.54762
446.80        17.58607
447.24        17.64696
447.69         17.7129
448.13        17.80122
448.58        17.87865
449.02        17.85822
449.47        17.76612
449.91        17.72545
450.36        17.75043
450.80        17.76544
451.25        17.76986
451.69        17.79189
452.13        17.82141
452.58        17.83532
453.02        17.81526
453.47        17.74187
453.91        17.61391
454.36        17.47044
454.80        17.31733
455.24        17.14576
455.69        17.00966
456.13         16.9296
456.58        16.92398
457.02        17.08099
457.46        17.29085
457.91        17.24976
458.35        17.06117
458.79        16.99153
459.24        17.07326
459.68        17.13299
460.13        17.15698
460.57        17.10058
461.01        17.03759
461.46         16.9955
461.90        16.90619
462.34        16.84933
462.79        17.09038
463.23        17.15661
463.68        17.12462
464.12        17.07778
464.56         17.0354
465.01        17.04952
465.45         17.0534
465.89        16.93984
466.34         16.7698
466.78        16.62895
467.22        16.52609
467.67         16.8243
468.11        16.77142
468.55        16.78613
468.99        16.67131
469.44        16.63753
469.88        16.68614
470.32        16.68759
470.77        16.65278
471.21        16.65327
471.65        16.69638
472.10         16.7663
472.54        16.82894
472.98        16.85707
473.42        16.84936
473.87        16.76756
474.31        16.66224
474.75        16.76628
475.20         17.0287
475.64        17.11102
476.08        16.99475
476.52        16.98091
476.97        17.08521
477.41        16.97597
477.85        16.84016
478.29        16.94397
478.74        16.86969
479.18        16.80105
479.62        17.14143
480.06        17.22752
480.50        17.22799
480.95        17.15275
481.39        17.01932
481.83        17.21814
482.27        17.24549
482.72        17.23247
483.16        17.53085
483.60        17.60856
484.04         17.5878
484.48        17.56604
484.93        17.74254
485.37        17.64459
485.81        18.00912
486.25         18.5519
486.69        18.45728
487.14        17.73599
487.58        18.61535
488.02         18.5925
488.46        18.50902
488.90        18.88166
489.34        18.34251
489.79        18.14306
490.23        18.60723
490.67        18.89398
491.11        19.12184
491.55        19.10544
491.99        18.93948
492.43         18.9867
492.88        19.26628
493.32        19.52672
493.76        19.70918
494.20         19.8882
494.64        20.06536
495.08         20.1732
495.52        20.23481
495.96        20.43489
496.41        20.77248
496.85         20.7725
497.29        20.55316
497.73        20.79841
498.17        21.41085
498.61        21.71334
499.05         21.6251
499.49        21.56643
499.93        21.60123
500.37        21.59832
500.82         21.5785
501.26        21.68198
501.70        21.92893
502.14        21.81528
502.58         22.1069
503.02        22.21967
503.46         22.2839
503.90        22.33148
504.34        22.35365
504.78         22.4081
505.22        22.49065
505.66        22.54604
506.10        22.58756
506.54         22.6982
506.98        22.88459
507.42        23.01307
507.86        23.22721
508.30        23.32419
508.74        23.34587
509.18        23.30262
509.62        23.24117
510.06        23.23494
510.50        23.30147
510.94        23.42202
511.38        23.55592
511.82        23.63792
512.26        23.65076
512.70        23.61518
513.14        23.56751
513.58        23.55574
514.02        23.59251
514.46        23.67837
514.90        23.78283
515.34        23.77428
515.78        23.77783
516.22        23.70045
516.66        23.62302
517.10         23.6035
517.54        23.65542
517.98        23.75745
518.42        23.86317
518.86        23.90246
519.30        23.85881
519.74        23.75528
520.18         23.6367
520.62         23.5722
521.06        23.57848
521.50        23.63336
521.93        23.70082
522.37        23.71465
522.81        23.66087
523.25        23.55795
523.69        23.43743
524.13        23.34766
524.57        23.30006
525.01        23.27866
525.45        23.25544
525.89        23.18696
526.32        23.06261
526.76        22.90918
527.20        22.75465
527.64        22.64491
528.08        22.59129
528.52        22.57533
528.96         22.5795
529.40        22.57707
529.83        22.55532
530.27        22.52322
530.71        22.47379
531.15        22.39701
531.59        22.29538
532.03        22.17293
532.46        22.04677
532.90        21.95859
533.34        21.91438
533.78        21.90554
534.22        21.91576
534.66        21.91767
535.09        21.90104
535.53        21.87776
535.97        21.85109
536.41        21.83019
536.85        21.81825
537.28        21.81158
537.72        21.81039
538.16        21.81298
538.60        21.82077
539.04        21.84176
539.47        21.86886
539.91        21.90325
540.35        21.94001
540.79        21.98391
541.22        22.03889
541.66        22.11238
542.10        22.20426
542.54        22.31232
542.97         22.4262
543.41        22.54346
543.85        22.65867
544.29        22.77383
544.72        22.89019
545.16        23.02711
545.60        23.17978
546.04        23.34189
546.47        23.50651
546.91        23.65844
547.35        23.79127
547.79           23.92
548.22        24.04103
548.66        24.14278
549.10        24.24328
549.53        24.43091
549.97        24.68774
550.41        24.89901
550.84        25.05151
551.28        25.20907
551.72        25.37539
552.15        25.52548
552.59        25.66755
553.03            25.8
553.46        25.92564
553.90        26.07113
554.34        26.23395
554.77        26.41326
555.21        26.59167
555.65        26.74158
556.08        26.82916
556.52        26.92534
556.96        27.01858
557.39        27.13173
557.83        27.24785
558.27        27.25023
558.70        27.18133
559.14        27.21139
559.57        27.34871
560.01        27.54128
560.45        27.73051
560.88        27.82118
561.32        27.85058
561.75        27.89058
562.19        27.97448
562.63        28.15577
563.06         28.3732
563.50        28.38937
563.93          28.243
564.37        28.25408
564.80        28.42861
565.24        28.60665
565.68        28.76042
566.11        28.90759
566.55        29.04577
566.98        29.19104
567.42        29.33891
567.85        29.40104
568.29        29.43422
568.72        29.52486
569.16        29.68027
569.60        29.90268
570.03        30.20455
570.47        30.25919
570.90        30.41027
571.34        30.96149
571.77        30.93903
572.21        30.99785
572.64        31.23078
573.08        31.21256
573.51         31.3823
573.95        31.51927
574.38        31.66289
574.82        31.76068
