SpectraSmart Spectrum 2.9.0.0
--------- Device Information -----------
Spectrum Name :  反射率_0
Saving Time :  2024/04/27 22:43:30
Spectro-Module Model Name : SE2030-DUVN
Spectro-Module Serial Number : OS361AC55029948
Wavelength Start : 200
Wavelength End : 1025
Wavelength Unit : Wavelength(nm)
Spectrum Unit : Reflectance(%)
-----------Spectrum Setting ------------
Integration Time : 20ms
Average : 10
Boxcar : 0
Background removal :  enabled
linearity correction :  enabled
SC :  disabled
Intensity correction :  disabled
DWT denoise :  enabled
savitzky-golay :  disabled
FFT :  disabled
Running average :  disabled
Kalman :  disabled
High pass :  disabled
---------------BEGIN--------------------
Wavelength(nm)             Reflectance(%)
200.29               0
200.75       -65.25531
201.21       -33.85673
201.67       -4.378889
202.13        12.41128
202.58        21.01956
203.04        25.79388
203.50        30.15648
203.96        37.08964
204.42        45.52932
204.88        53.53988
205.34        58.82245
205.80        59.36398
206.26        54.63259
206.72        42.84882
207.18        23.03408
207.64        7.699893
208.10        9.455657
208.55        21.93526
209.01        30.64472
209.47         29.8515
209.93         17.7427
210.39       -18.61982
210.85       -129.7667
211.31       -253.4295
211.77         -82.911
212.23         21.7905
212.69         56.6641
213.14        65.06536
213.60        60.13965
214.06         43.4426
214.52        12.11967
214.98         -12.104
215.44        -3.95557
215.90         16.6878
216.36        34.03825
216.81        43.27526
217.27        46.53027
217.73        47.44638
218.19        46.34221
218.65        42.83495
219.11        37.17275
219.57        28.88907
220.02        19.60831
220.48        15.62689
220.94        18.56901
221.40        25.90857
221.86        34.51296
222.32        41.21347
222.77        45.53727
223.23        48.24125
223.69        49.30102
224.15        48.49271
224.61        46.03342
225.06        41.74563
225.52         37.0149
225.98        34.48678
226.44        34.61183
226.90         36.0103
227.36        37.12782
227.81        36.53712
228.27        34.14185
228.73        30.42955
229.19        25.80147
229.65        21.42974
230.10        18.13157
230.56        16.04752
231.02        15.10091
231.48        15.20645
231.93        16.05955
232.39         17.5018
232.85         19.3683
233.31        21.40557
233.77        23.42319
234.22        25.53542
234.68        27.04144
235.14        27.21826
235.60        26.02011
236.05        23.34971
236.51        20.59306
236.97        20.64492
237.43        24.45277
237.88        31.34259
238.34        38.31752
238.80        42.19876
239.26        42.21264
239.71        37.69275
240.17        29.08095
240.63        24.60503
241.08         31.1519
241.54        42.74422
242.00        51.57668
242.46        54.24952
242.91        51.23785
243.37        40.97967
243.83        18.57215
244.28       -8.624427
244.74       -6.268341
245.20        22.84491
245.66        47.44398
246.11        56.46922
246.57        53.81929
247.03        41.42416
247.48        17.86654
247.94       -4.564255
248.40       -8.421483
248.85        0.465764
249.31        15.07895
249.77        29.46014
250.22        40.95261
250.68        50.45081
251.14        56.86776
251.59        59.03994
252.05        57.53725
252.51        51.83151
252.96        42.26418
253.42         35.9006
253.88        36.86552
254.33        42.15038
254.79        47.05791
255.25        48.19904
255.70        46.41301
256.16        44.03088
256.62        42.36177
257.07        42.72985
257.53        44.83361
257.99         47.1641
258.44        48.97088
258.90        49.96753
259.35        49.96846
259.81         49.5975
260.27         48.7264
260.72         47.2201
261.18        45.55953
261.63         43.7225
262.09        42.13841
262.55        40.96428
263.00         40.1207
263.46        39.59644
263.91        39.20485
264.37        38.96367
264.83        38.75454
265.28        38.53775
265.74        38.27877
266.19         37.7842
266.65        37.09949
267.11        36.25768
267.56        35.31418
268.02        34.45667
268.47        33.70749
268.93        33.03328
269.38        32.45954
269.84         32.0377
270.30        31.74186
270.75        31.54787
271.21        31.30676
271.66        30.74872
272.12        29.86104
272.57        28.71101
273.03        27.52957
273.48        26.60736
273.94        26.06095
274.39        25.76235
274.85        25.60622
275.31        25.38264
275.76        25.01441
276.22         24.5739
276.67        24.08406
277.13        23.64432
277.58        23.23652
278.04        22.87211
278.49        22.45134
278.95        21.92505
279.40        21.26684
279.86        20.57187
280.31        19.94074
280.77        19.60562
281.22        19.55789
281.68        19.73988
282.13        19.97931
282.59        20.06309
283.04        19.94324
283.50        19.69156
283.95        19.41963
284.41        19.32176
284.86        19.42132
285.32        19.65719
285.77        19.90248
286.22        20.00313
286.68        19.94795
287.13        19.77047
287.59        19.59584
288.04        19.54401
288.50        19.66453
288.95        19.88433
289.41        20.13395
289.86        20.27444
290.32        20.29605
290.77        20.24712
291.22        20.20042
291.68        20.25786
292.13        20.43954
292.59        20.71961
293.04        21.06904
293.50        21.46447
293.95        21.88341
294.40        22.34899
294.86        22.84314
295.31        23.32809
295.77        23.80773
296.22        24.27188
296.68        24.77383
297.13        25.37817
297.58        26.09043
298.04        26.87512
298.49        27.65131
298.95        28.31244
299.40        28.83872
299.85        29.26688
300.31        29.68361
300.76         30.1866
301.21        30.80314
301.67        31.49407
302.12        32.16935
302.58        32.73582
303.03        33.15708
303.48        33.47883
303.94        33.77765
304.39         34.1202
304.84        34.53812
305.30        35.00631
305.75        35.45394
306.20        35.81543
306.66        36.08587
307.11        36.26116
307.57         36.4024
308.02        36.53722
308.47        36.68815
308.93        36.83615
309.38        36.93298
309.83        36.93498
310.29        36.84719
310.74        36.68409
311.19        36.48434
311.65        36.30148
312.10        36.13971
312.55        35.99392
313.00        35.87505
313.46        35.79834
313.91        35.75305
314.36        35.73627
314.82        35.69692
315.27        35.54979
315.72        35.28009
316.18        34.91551
316.63        34.51484
317.08          34.196
317.53        33.98615
317.99        33.85165
318.44        33.73398
318.89        33.52034
319.35        33.18809
319.80        32.78071
320.25        32.36457
320.70        32.04863
321.16        31.85145
321.61        31.73806
322.06        31.65053
322.51        31.50075
322.97        31.25528
323.42        30.95306
323.87        30.60324
324.32        30.23098
324.78        29.84877
325.23        29.45052
325.68        29.06242
326.13        28.73588
326.59        28.46874
327.04        28.27662
327.49        28.09197
327.94        27.80613
328.39        27.39332
328.85        26.87307
329.30        26.33738
329.75        25.94111
330.20        25.73161
330.66        25.66051
331.11        25.64281
331.56        25.48743
332.01        25.14712
332.46        24.67672
332.92        24.18073
333.37        23.86669
333.82        23.78417
334.27        23.86066
334.72        23.99998
335.17        24.04672
335.63        23.93894
336.08         23.7394
336.53        23.46006
336.98        23.13259
337.43        22.78847
337.88        22.42254
338.34        22.08773
338.79        21.87647
339.24        21.80609
339.69        21.85217
340.14        21.95338
340.59        22.00051
341.05        21.95601
341.50        21.85091
341.95        21.69001
342.40        21.49552
342.85        21.28158
343.30        21.03405
343.75        20.78891
344.20        20.60839
344.66        20.50681
345.11        20.47254
345.56        20.44752
346.01        20.33005
346.46        20.10304
346.91        19.79939
347.36        19.49903
347.81        19.32276
348.26        19.29613
348.72        19.38257
349.17        19.50135
349.62        19.52264
350.07        19.41271
350.52         19.2031
350.97        18.98064
351.42        18.88447
351.87        18.93974
352.32        19.09735
352.77        19.24588
353.22        19.21957
353.67        18.98835
354.13        18.62329
354.58         18.2193
355.03         17.9757
355.48         17.9449
355.93         18.0738
356.38        18.25364
356.83        18.31503
357.28        18.21511
357.73         18.0026
358.18        17.77347
358.63        17.67577
359.08        17.73463
359.53        17.89169
359.98        18.04122
360.43        18.02246
360.88        17.80595
361.33        17.45327
361.78        17.05591
362.23        16.79749
362.68        16.73079
363.13        16.72577
363.58        16.71416
364.03        16.97081
364.48          16.842
364.93        16.84599
365.38        16.79436
365.83         16.6941
366.28        16.54583
366.73        16.35525
367.18        16.14823
367.63        15.95532
368.08        15.79283
368.53        15.66102
368.98        15.55871
369.43        15.47781
369.88        15.41318
370.33        15.36412
370.78        15.32414
371.23         15.2842
371.68         15.2338
372.13         15.1628
372.58        15.06565
373.03        14.93641
373.48        14.78084
373.93        14.61893
374.38        14.44781
374.83        14.25882
375.28         14.0639
375.72        13.86154
376.17        13.73135
376.62        13.75798
377.07        13.93782
377.52        14.21733
377.97        14.49458
378.42        14.61235
378.87        14.53394
379.32        14.31778
379.77        14.01754
380.22        13.71612
380.67        13.45198
381.11        13.20555
381.56         13.0158
382.01        12.94441
382.46        12.99347
382.91        13.14504
383.36        13.31629
383.81         13.3723
384.26        13.28175
384.71        13.07994
385.15        12.82626
385.60        12.64866
386.05        12.57394
386.50         12.5746
386.95        12.61616
387.40        12.64282
387.85        12.64237
388.29        12.62941
388.74        12.64412
389.19        12.71357
389.64        12.83458
390.09        12.97439
390.54        13.10295
390.98        13.17519
391.43        13.17884
391.88        13.13257
392.33        13.02525
392.78        12.86252
393.23        12.66653
393.67        12.39325
394.12        12.11706
394.57         12.0754
395.02        12.06427
395.47        12.04564
395.91        11.96434
396.36        11.96269
396.81        12.03828
397.26        12.10009
397.71        12.13439
398.15        12.17005
398.60         12.2148
399.05        12.20556
399.50        12.16505
399.95        12.20744
400.39        12.29745
400.84        12.25127
401.29         12.0765
401.74        11.90694
402.18        11.78733
402.63        11.74132
403.08        11.76027
403.53         11.7608
403.97        11.73869
404.42        11.76235
404.87        11.81952
405.32        11.86634
405.76        11.89245
406.21        11.87281
406.66        11.83103
407.11        11.86338
407.55        11.94348
408.00        11.93889
408.45        11.83296
408.90        11.64224
409.34        11.42843
409.79        11.35175
410.24        11.40409
410.68        11.42395
411.13        11.40191
411.58        11.44638
412.03        11.54329
412.47        11.60504
412.92        11.61008
413.37        11.58994
413.81        11.54399
414.26        11.48055
414.71        11.40342
415.15        11.30721
415.60         11.2186
416.05        11.18784
416.49        11.22531
416.94        11.31627
417.39        11.41248
417.83        11.43772
418.28        11.37143
418.73        11.23135
419.17        11.07189
419.62        10.98587
420.07        10.99969
420.51        11.09019
420.96        11.19624
421.41        11.23737
421.85        11.19309
422.30        11.04141
422.74        10.86701
423.19        10.92933
423.64        11.19241
424.08         11.3428
424.53        11.30098
424.98        11.27058
425.42        11.25108
425.87        11.04338
426.31        10.74208
426.76        10.72943
427.21         10.9596
427.65         11.0213
428.10        10.90584
428.54        10.88377
428.99        10.95019
429.44        11.05529
429.88        11.12468
430.33        10.91488
430.77         10.5514
431.22        10.49399
431.66        10.73441
432.11        10.92427
432.56        11.00381
433.00        11.07382
433.45        11.02503
433.89        10.77298
434.34        10.53284
434.78        9.960462
435.23        10.34563
435.67        10.71082
436.12        10.91766
436.57        11.07066
437.01        11.05541
437.46         11.0307
437.90        11.04829
438.35        11.05834
438.79         10.7473
439.24        10.61606
439.68        10.59028
440.13        10.62282
440.57        10.67255
441.02        10.76859
441.46        10.86612
441.91        10.73444
442.35        10.48224
442.80        10.59376
443.24        10.97833
443.69        11.00696
444.13        10.68692
444.58        10.54415
445.02        10.57935
445.47        10.51858
445.91        10.37283
446.36        10.30752
446.80        10.32785
447.24        10.38725
447.69        10.45866
448.13         10.5313
448.58        10.57812
449.02        10.55364
449.47        10.49342
449.91        10.50359
450.36        10.59427
450.80         10.7082
451.25        10.80733
451.69        10.85303
452.13        10.82945
452.58         10.7425
453.02        10.62219
453.47        10.52216
453.91        10.45763
454.36        10.43274
454.80        10.42014
455.24        10.36499
455.69        10.28546
456.13        10.20983
456.58        10.16728
457.02        10.23576
457.46        10.35664
457.91        10.33694
458.35        10.23106
458.79        10.18576
459.24        10.21976
459.68        10.23706
460.13        10.23586
460.57        10.19529
461.01        10.16215
461.46        10.14689
461.90          10.112
462.34        10.10952
462.79        10.29541
463.23        10.38493
463.68         10.4042
464.12         10.3784
464.56        10.31599
465.01        10.26124
465.45        10.19512
465.89        10.08851
466.34        9.985068
466.78        9.923676
467.22        9.896972
467.67        10.09972
468.11        10.07295
468.55        10.07625
468.99        9.994994
469.44        9.961141
469.88        9.978399
470.32         9.96632
470.77        9.938816
471.21        9.950643
471.65        10.00742
472.10        10.09506
472.54        10.18075
472.98        10.22668
473.42        10.22817
473.87        10.17018
474.31        10.09263
474.75        10.15387
475.20        10.32722
475.64        10.40177
476.08        10.36228
476.52        10.38744
476.97        10.48553
477.41        10.45435
477.85        10.40266
478.29        10.48511
478.74        10.44236
479.18        10.39198
479.62        10.59198
480.06         10.6466
480.50        10.66282
480.95        10.63952
481.39        10.58545
481.83         10.7451
482.27        10.80412
482.72        10.84372
483.16        11.07557
483.60        11.15203
484.04        11.13596
484.48          11.109
484.93         11.2448
485.37        11.23067
485.81        11.43654
486.25        12.17303
486.69        11.58835
487.14        11.13267
487.58        12.27155
488.02        12.06215
488.46        12.16608
488.90        12.38242
489.34        11.89632
489.79        11.84214
490.23        12.31085
490.67        12.64941
491.11        12.87869
491.55          12.878
491.99        12.73422
492.43        12.77702
492.88        13.02988
493.32        13.25356
493.76        13.40739
494.20         13.5852
494.64        13.78871
495.08        13.94644
495.52        14.06742
495.96        14.28569
496.41        14.60415
496.85        14.62209
497.29        14.44039
497.73        14.60511
498.17        15.05674
498.61        15.29526
499.05          15.263
499.49        15.25285
499.93        15.31742
500.37        15.39925
500.82        15.49988
501.26        15.65552
501.70        15.87357
502.14        15.82137
502.58        16.05394
503.02        16.13748
503.46        16.17131
503.90        16.18172
504.34        16.18388
504.78        16.25448
505.22        16.39579
505.66        16.55683
506.10        16.71325
506.54        16.87209
506.98        17.02482
507.42         17.0855
507.86        17.19152
508.30        17.24344
508.74        17.28714
509.18        17.31763
509.62        17.34335
510.06        17.37634
510.50        17.41946
510.94        17.47198
511.38        17.53394
511.82        17.60374
512.26         17.6771
512.70        17.75279
513.14        17.82025
513.58        17.85539
514.02        17.85493
514.46        17.84068
514.90        17.82826
515.34        17.78046
515.78        17.80803
516.22        17.82232
516.66        17.85696
517.10        17.91307
517.54        17.98617
517.98        18.07055
518.42        18.14375
518.86        18.17318
519.30        18.15046
519.74        18.08344
520.18        17.99289
520.62        17.91212
521.06        17.85346
521.50        17.81389
521.93        17.78345
522.37        17.73655
522.81        17.67152
523.25         17.5931
523.69        17.52371
524.13         17.4967
524.57        17.51376
525.01        17.56149
525.45        17.59719
525.89        17.55494
526.32        17.42099
526.76        17.22488
527.20        17.01696
527.64        16.88057
528.08        16.83599
528.52        16.85593
528.96        16.90117
529.40        16.90924
529.83        16.86122
530.27         16.7781
530.71        16.67603
531.15        16.57914
531.59        16.49791
532.03        16.42452
532.46        16.35698
532.90         16.3063
533.34        16.26924
533.78        16.24499
534.22        16.23182
534.66        16.22402
535.09        16.21793
535.53        16.21866
535.97        16.21553
536.41        16.19486
536.85        16.15674
537.28         16.1052
537.72        16.06516
538.16        16.07399
538.60        16.13869
539.04        16.25169
539.47        16.37439
539.91         16.4577
540.35        16.48797
540.79        16.48424
541.22        16.48019
541.66        16.53072
542.10        16.64725
542.54        16.81075
542.97        16.98726
543.41        17.13522
543.85        17.24097
544.29        17.32047
544.72        17.39244
545.16         17.4998
545.60        17.64689
546.04        17.82099
546.47        18.00756
546.91        18.17878
547.35        18.32615
547.79        18.46754
548.22        18.60731
548.66        18.74897
549.10        18.90725
549.53         19.1445
549.97        19.43954
550.41        19.69148
550.84        19.88478
551.28        20.07285
551.72        20.25684
552.15         20.4148
552.59          20.554
553.03        20.67194
553.46        20.78145
553.90        20.91991
554.34        21.08922
554.77        21.28873
555.21         21.4879
555.65        21.63592
556.08        21.70179
556.52        21.75237
556.96        21.80643
557.39        21.92561
557.83        22.10182
558.27        22.22268
558.70        22.28719
559.14        22.37713
559.57        22.48516
560.01        22.59208
560.45        22.67469
560.88        22.68547
561.32        22.67259
561.75        22.70214
562.19        22.79146
562.63        22.95674
563.06        23.14226
563.50        23.16776
563.93         23.0673
564.37        23.10119
564.80        23.27682
565.24        23.46404
565.68        23.62958
566.11        23.78784
566.55        23.93891
566.98        24.05395
567.42        24.15517
567.85        24.31164
568.29        24.52182
568.72        24.61698
569.16        24.62487
569.60        24.79662
570.03        25.15753
570.47        25.25598
570.90         25.3473
571.34        25.98944
571.77        25.85953
572.21        25.91894
572.64        26.09693
573.08        26.11238
573.51        26.62938
573.95        26.81785
574.38        26.76776
574.82        27.04629
