SpectraSmart Spectrum 2.9.0.0
--------- Device Information -----------
Spectrum Name :  反射率_0
Saving Time :  2024/04/27 22:16:20
Spectro-Module Model Name : SE2030-DUVN
Spectro-Module Serial Number : OS361AC55029948
Wavelength Start : 200
Wavelength End : 1025
Wavelength Unit : Wavelength(nm)
Spectrum Unit : Reflectance(%)
-----------Spectrum Setting ------------
Integration Time : 20ms
Average : 10
Boxcar : 0
Background removal :  enabled
linearity correction :  enabled
SC :  disabled
Intensity correction :  disabled
DWT denoise :  enabled
savitzky-golay :  disabled
FFT :  disabled
Running average :  disabled
Kalman :  disabled
High pass :  disabled
---------------BEGIN--------------------
Wavelength(nm)             Reflectance(%)
200.29               0
200.75        30.11032
201.21        15.55296
201.67        9.484601
202.13        11.94886
202.58        19.69265
203.04        30.98746
203.50        44.41787
203.96        56.21331
204.42        64.27851
204.88        69.52152
205.34        72.26837
205.80        73.00056
206.26        71.79076
206.72        67.24455
207.18        57.63451
207.64        46.00806
208.10        39.82365
208.55        40.61503
209.01        40.95708
209.47        35.78221
209.93        21.52398
210.39       -15.69248
210.85       -127.0948
211.31       -257.1211
211.77       -91.66647
212.23         14.3822
212.69        51.16994
213.14          61.916
213.60        60.75202
214.06        50.84567
214.52        31.77058
214.98        20.78485
215.44         32.4076
215.90        49.73969
216.36          62.782
216.81        69.54827
217.27        72.01425
217.73        72.63124
218.19         71.1862
218.65        66.59167
219.11        58.93117
219.57        48.18103
220.02        36.67878
220.48        32.13432
220.94        36.57982
221.40        46.42088
221.86        57.72124
222.32        66.68768
222.77        72.58549
223.23         76.4933
223.69        78.09982
224.15        76.84711
224.61         73.1852
225.06        67.35128
225.52        61.48293
225.98        59.56097
226.44        61.97073
226.90         66.2835
227.36        70.54966
227.81        73.43199
228.27        75.18561
228.73        76.40377
229.19         77.0372
229.65        76.82433
230.10        75.72437
230.56        74.04481
231.02        72.33437
231.48        71.53583
231.93        71.64249
232.39        72.42603
232.85         73.3812
233.31        73.87915
233.77        73.76494
234.22        73.33276
234.68        72.52039
235.14        71.18998
235.60        69.34605
236.05        66.87833
236.51        64.24924
236.97        62.76278
237.43         62.9791
237.88        64.78553
238.34        66.88816
238.80        68.00536
239.26        67.71407
239.71        65.90839
240.17        62.28283
240.63        59.23461
241.08        59.71138
241.54         62.1748
242.00        64.43851
242.46        65.25654
242.91        64.62322
243.37         62.0725
243.83        56.20459
244.28        48.04866
244.74        46.01257
245.20        51.23197
245.66        55.57307
246.11        54.31757
246.57        47.12976
247.03        33.24419
247.48        11.84821
247.94       -4.036911
248.40       0.3537425
248.85        17.22853
249.31        36.48072
249.77        50.23845
250.22        57.90013
250.68        62.26595
251.14        64.21429
251.59        64.33044
252.05         63.0378
252.51        59.16171
252.96        53.21736
253.42        50.70425
253.88        53.60397
254.33        59.30331
254.79        62.98667
255.25         61.0867
255.70        55.22474
256.16        48.42655
256.62        43.60596
257.07        43.80055
257.53        47.95908
257.99        53.17772
258.44        57.35249
258.90        59.15921
259.35         58.6288
259.81        57.10527
260.27        55.11993
260.72        53.26486
261.18        52.02885
261.63        50.98611
262.09        50.20009
262.55         49.4029
263.00        48.51788
263.46        47.76878
263.91        47.21207
264.37        47.21638
264.83        47.65918
265.28        48.30717
265.74        48.92493
266.19        49.04166
266.65        48.68218
267.11        47.95185
267.56        47.03851
268.02        46.33669
268.47        45.90339
268.93        45.65369
269.38        45.45429
269.84        45.12834
270.30        44.62107
270.75        43.99866
271.21        43.34277
271.66        42.71659
272.12        42.16732
272.57        41.63177
273.03        41.10567
273.48        40.49969
273.94        39.86404
274.39        39.19788
274.85         38.5967
275.31        38.09985
275.76        37.68394
276.22        37.34655
276.67        37.01212
277.13        36.68829
277.58        36.30667
278.04        35.93052
278.49        35.46909
278.95        34.91824
279.40         34.2357
279.86        33.50507
280.31        32.78169
280.77        32.27724
281.22         31.9698
281.68        31.84791
282.13        31.75216
282.59        31.52009
283.04        31.09769
283.50        30.55533
283.95        29.99532
284.41        29.62701
284.86         29.4591
285.32        29.43121
285.77        29.38786
286.22        29.14883
286.68        28.70201
287.13        28.09539
287.59        27.46671
288.04        26.94051
288.50        26.59146
288.95         26.3485
289.41        26.19112
289.86        26.04132
290.32        25.89198
290.77        25.75266
291.22        25.63388
291.68        25.54071
292.13        25.46282
292.59        25.40297
293.04        25.35075
293.50         25.3236
293.95        25.31668
294.40        25.34142
294.86        25.40364
295.31        25.49999
295.77        25.64219
296.22         25.8251
296.68        26.06494
297.13        26.36136
297.58         26.7151
298.04        27.11379
298.49         27.5392
298.95        27.97658
299.40        28.41635
299.85        28.86108
300.31        29.32441
300.76        29.78955
301.21        30.26282
301.67        30.74862
302.12        31.22355
302.58        31.69297
303.03        32.13932
303.48        32.56324
303.94        33.00375
304.39        33.47452
304.84        33.98717
305.30        34.53733
305.75         35.0435
306.20        35.42208
306.66        35.67342
307.11        35.79657
307.57        35.89874
308.02        36.08126
308.47        36.37661
308.93        36.74357
309.38         37.0717
309.83        37.22256
310.29        37.18176
310.74        36.98833
311.19        36.73876
311.65        36.58132
312.10        36.53703
312.55        36.56407
313.00        36.61164
313.46        36.60151
313.91        36.50613
314.36        36.36455
314.82        36.17828
315.27        35.94198
315.72        35.67141
316.18        35.37478
316.63        35.09689
317.08        34.93412
317.53        34.89741
317.99        34.95001
318.44        35.02599
318.89        34.99854
319.35        34.83582
319.80        34.58168
320.25        34.27864
320.70        34.00373
321.16        33.77951
321.61        33.58649
322.06        33.43097
322.51        33.32757
322.97        33.26539
323.42        33.25754
323.87        33.24199
324.32        33.12106
324.78        32.87034
325.23        32.51624
325.68         32.1376
326.13        31.87784
326.59         31.7612
327.04        31.77325
327.49         31.8099
327.94        31.70662
328.39        31.42165
328.85        30.99674
329.30        30.54854
329.75        30.26081
330.20        30.19172
330.66        30.27748
331.11        30.42664
331.56        30.44069
332.01        30.26313
332.46        29.94171
332.92        29.57256
333.37        29.35484
333.82        29.33309
334.27        29.44964
334.72        29.59085
335.17        29.57349
335.63        29.34382
336.08        28.98048
336.53        28.58246
336.98        28.32327
337.43        28.25823
337.88        28.33858
338.34        28.48482
338.79        28.57269
339.24        28.55842
339.69        28.47301
340.14        28.36827
340.59        28.32759
341.05        28.36979
341.50        28.46967
341.95        28.55314
342.40        28.51809
342.85        28.34794
343.30        28.07782
343.75        27.80372
344.20        27.67628
344.66        27.73121
345.11        27.91799
345.56        28.12992
346.01         28.1944
346.46        28.07059
346.91        27.81176
347.36        27.52215
347.81        27.35944
348.26        27.36181
348.72        27.48249
349.17        27.62832
349.62        27.65347
350.07        27.52224
350.52        27.27624
350.97        27.02019
351.42          26.918
351.87        26.99921
352.32        27.20594
352.77        27.40634
353.22        27.40272
353.67        27.15876
354.13        26.75674
354.58        26.30791
355.03           26.04
355.48        26.01069
355.93        26.15192
356.38        26.34636
356.83         26.4121
357.28        26.29983
357.73        26.06449
358.18        25.78866
358.63        25.59975
359.08        25.52345
359.53         25.5074
359.98        25.48134
360.43        25.34008
360.88        25.06645
361.33         24.7119
361.78        24.32501
362.23        24.01457
362.68        23.81857
363.13        23.63538
363.58        23.45296
364.03        23.60447
364.48        23.50158
364.93        23.59114
365.38        23.63623
365.83        23.54543
366.28        23.29551
366.73        22.91991
367.18        22.49709
367.63        22.14435
368.08        21.90029
368.53        21.73819
368.98        21.61447
369.43        21.45232
369.88        21.23302
370.33         20.9882
370.78        20.74934
371.23        20.56458
371.68        20.44219
372.13        20.35159
372.58        20.27582
373.03        20.19062
373.48        20.08739
373.93        19.98742
374.38        19.86563
374.83        19.68042
375.28        19.43581
375.72        19.13119
376.17        18.87442
376.62        18.79684
377.07        18.90677
377.52        19.14328
377.97        19.37623
378.42        19.40078
378.87        19.17909
379.32        18.79621
379.77        18.34716
380.22        17.97501
380.67        17.72752
381.11        17.55726
381.56        17.47625
382.01        17.50143
382.46        17.61661
382.91        17.82112
383.36        18.01703
383.81        18.04728
384.26         17.8863
384.71        17.57296
385.15        17.22346
385.60        17.06073
386.05        17.11899
386.50        17.33214
386.95        17.58294
387.40        17.68538
387.85        17.60189
388.29        17.39601
388.74        17.17505
389.19         17.0465
389.64        17.03246
390.09         17.0774
390.54        17.14867
390.98        17.19668
391.43        17.20646
391.88        17.19984
392.33        17.14884
392.78        17.03705
393.23        16.88238
393.67        16.62392
394.12        16.34725
394.57         16.3649
395.02        16.39766
395.47        16.38599
395.91        16.26793
396.36        16.26288
396.81        16.37403
397.26        16.48038
397.71        16.53216
398.15        16.52054
398.60        16.46034
399.05        16.29055
399.50        16.10722
399.95        16.15322
400.39        16.39621
400.84        16.56477
401.29        16.59126
401.74         16.5253
402.18        16.39156
402.63        16.25728
403.08        16.17145
403.53        16.12436
403.97        16.13792
404.42        16.26622
404.87        16.45551
405.32        16.58966
405.76        16.63934
406.21        16.59954
406.66        16.51009
407.11        16.51075
407.55        16.57337
408.00        16.50797
408.45        16.32592
408.90        16.10776
409.34        15.94223
409.79        16.03274
410.24         16.3127
410.68        16.45916
411.13        16.43785
411.58        16.43243
412.03        16.47681
412.47        16.54175
412.92         16.6225
413.37        16.72513
413.81        16.80912
414.26        16.83005
414.71        16.77874
415.15        16.67485
415.60        16.55466
416.05        16.48902
416.49        16.50128
416.94        16.56735
417.39        16.65919
417.83         16.7334
418.28        16.76984
418.73        16.77573
419.17        16.76344
419.62         16.7551
420.07        16.76535
420.51        16.79605
420.96        16.82667
421.41        16.84697
421.85        16.85081
422.30        16.76413
422.74        16.66118
423.19        16.86549
423.64        17.30539
424.08        17.51608
424.53        17.41183
424.98        17.35649
425.42        17.36606
425.87        17.11608
426.31        16.72333
426.76        16.72867
427.21        17.05611
427.65        17.08238
428.10        16.84317
428.54        16.82106
428.99        17.01819
429.44        17.33157
429.88        17.60306
430.33        17.37224
430.77         16.8222
431.22        16.71574
431.66        17.06243
432.11        17.35013
432.56        17.49701
433.00        17.64775
433.45        17.62588
433.89         17.2947
434.34        16.98421
434.78        16.13999
435.23        16.82536
435.67        17.41735
436.12        17.68845
436.57        17.82308
437.01        17.68347
437.46        17.60473
437.90        17.68252
438.35        17.81688
438.79        17.46184
439.24        17.35404
439.68        17.35722
440.13        17.41096
440.57        17.46885
441.02        17.61479
441.46        17.78517
441.91        17.59226
442.35        17.20008
442.80        17.39171
443.24        18.01677
443.69        18.04986
444.13        17.51967
444.58         17.3062
445.02        17.41835
445.47        17.39862
445.91        17.24487
446.36        17.19404
446.80        17.24754
447.24        17.32831
447.69        17.42435
448.13        17.56143
448.58        17.70461
449.02        17.76374
449.47        17.74895
449.91        17.75792
450.36        17.80073
450.80        17.81134
451.25        17.80226
451.69        17.82215
452.13        17.86884
452.58        17.91465
453.02        17.93915
453.47        17.91973
453.91        17.85043
454.36        17.76761
454.80        17.67243
455.24        17.54713
455.69        17.44251
456.13        17.38201
456.58        17.37829
457.02        17.51375
457.46         17.6787
457.91        17.56905
458.35        17.31605
458.79         17.2254
459.24        17.33484
459.68         17.4584
460.13        17.55718
460.57        17.54616
461.01        17.49153
461.46        17.43212
461.90        17.31643
462.34        17.25698
462.79        17.53316
463.23          17.649
463.68        17.66556
464.12         17.6425
464.56        17.59461
465.01        17.58718
465.45        17.56412
465.89        17.43215
466.34        17.25898
466.78         17.1269
467.22        17.04209
467.67        17.37484
468.11        17.34601
468.55        17.38945
468.99         17.2976
469.44         17.2831
469.88        17.34687
470.32        17.35436
470.77         17.3217
471.21        17.33249
471.65        17.39622
472.10        17.49402
472.54        17.58467
472.98        17.63081
473.42        17.62984
473.87        17.54546
474.31        17.43567
474.75         17.5518
475.20        17.84199
475.64        17.94732
476.08        17.84561
476.52        17.84985
476.97        17.97573
477.41        17.87675
477.85        17.74444
478.29        17.85102
478.74        17.75614
479.18        17.65633
479.62        17.98896
480.06        18.07727
480.50        18.10359
480.95        18.07401
481.39        17.98533
481.83        18.22191
482.27        18.23725
482.72        18.16259
483.16        18.40511
483.60        18.45713
484.04        18.46608
484.48        18.55429
484.93        18.81952
485.37        18.67855
485.81        18.93385
486.25        19.21119
486.69         18.7823
487.14        18.52908
487.58        19.47769
488.02        19.77128
488.46        19.39248
488.90         19.5811
489.34         19.1219
489.79        18.96108
490.23        19.50794
490.67        19.83806
491.11        20.07282
491.55        20.05626
491.99        19.88886
492.43        19.93232
492.88        20.20581
493.32        20.44687
493.76        20.60312
494.20        20.77508
494.64        20.96788
495.08        21.08968
495.52        21.15037
495.96        21.35867
496.41        21.68887
496.85        21.57425
497.29        21.18483
497.73        21.35657
498.17        22.00058
498.61        22.37524
499.05        22.35908
499.49        22.31963
499.93        22.32134
500.37        22.29845
500.82        22.28807
501.26         22.4057
501.70        22.67665
502.14        22.60591
502.58        22.96206
503.02        23.08666
503.46        23.10833
503.90        23.07674
504.34        23.02128
504.78        23.06002
505.22        23.19547
505.66        23.36905
506.10        23.55285
506.54        23.70514
506.98        23.80175
507.42        23.98079
507.86        23.99472
508.30        24.05176
508.74        24.08406
509.18        24.09243
509.62        24.09383
510.06        24.12324
510.50        24.18901
510.94        24.28115
511.38        24.37665
511.82         24.4355
512.26        24.44799
512.70        24.42768
513.14        24.39627
513.58        24.37957
514.02        24.38657
514.46         24.4265
514.90        24.49195
515.34        24.48406
515.78        24.53831
516.22        24.54658
516.66        24.56063
517.10        24.59098
517.54        24.63969
517.98        24.69776
518.42         24.7479
518.86        24.76813
519.30          24.753
519.74        24.70997
520.18        24.65595
520.62         24.6163
521.06        24.59971
521.50        24.60288
521.93        24.61535
522.37        24.61026
522.81        24.58541
523.25        24.54511
523.69        24.50821
524.13        24.50414
524.57        24.53459
525.01        24.58652
525.45        24.62771
525.89        24.60782
526.32        24.51587
526.76        24.38026
527.20        24.23227
527.64        24.12595
528.08        24.07532
528.52        24.05806
528.96        24.06375
529.40        24.07549
529.83        24.08059
530.27        24.08872
530.71         24.0722
531.15        23.98734
531.59        23.83449
532.03        23.63049
532.46        23.42807
532.90         23.3269
533.34        23.34229
533.78        23.44186
534.22        23.57374
534.66        23.65653
535.09        23.66586
535.53        23.63365
535.97        23.57507
536.41        23.51871
536.85        23.47852
537.28        23.44402
537.72        23.42924
538.16        23.45553
538.60        23.52406
539.04        23.63465
539.47        23.75199
539.91        23.83387
540.35        23.86563
540.79        23.86507
541.22          23.856
541.66        23.87992
542.10        23.94778
542.54        24.04751
542.97        24.16165
543.41        24.27752
543.85        24.38505
544.29        24.49105
544.72         24.5958
545.16        24.71616
545.60        24.84694
546.04        24.98151
546.47        25.11534
546.91        25.23862
547.35        25.34695
547.79        25.45593
548.22        25.56116
548.66        25.64812
549.10        25.73521
549.53        25.91646
549.97        26.17342
550.41        26.38494
550.84        26.53711
551.28        26.69788
551.72        26.86924
552.15        27.01832
552.59        27.14622
553.03         27.2717
553.46        27.40894
553.90        27.53599
554.34        27.63679
554.77        27.98113
555.21        28.07377
555.65        28.23138
556.08         28.2743
556.52        28.32713
556.96        28.39923
557.39        28.40517
557.83        28.57712
558.27         28.5878
558.70        28.53726
559.14        28.57023
559.57        28.69032
560.01        28.85381
560.45        29.01131
560.88        29.07792
561.32        29.10059
561.75        29.16549
562.19        29.28979
562.63         29.4833
563.06        29.67573
563.50        29.64304
563.93        29.43486
564.37        29.39136
564.80        29.52511
565.24        29.66793
565.68        29.79975
566.11        29.95296
566.55        30.12328
566.98        30.31831
567.42        30.51455
567.85        30.59174
568.29        30.59678
568.72        30.63281
569.16        30.73045
569.60        30.87817
570.03        31.09311
570.47        31.17676
570.90        31.32723
571.34        31.73941
571.77        31.87312
572.21        31.81322
572.64        32.03806
573.08        32.11815
573.51        32.21508
573.95        32.42099
574.38        32.43719
574.82        32.68583
