SpectraSmart Spectrum 2.9.0.0
--------- Device Information -----------
Spectrum Name :  反射率_0
Saving Time :  2024/04/27 22:12:02
Spectro-Module Model Name : SE2030-DUVN
Spectro-Module Serial Number : OS361AC55029948
Wavelength Start : 200
Wavelength End : 1025
Wavelength Unit : Wavelength(nm)
Spectrum Unit : Reflectance(%)
-----------Spectrum Setting ------------
Integration Time : 20ms
Average : 10
Boxcar : 0
Background removal :  enabled
linearity correction :  enabled
SC :  disabled
Intensity correction :  disabled
DWT denoise :  enabled
savitzky-golay :  disabled
FFT :  disabled
Running average :  disabled
Kalman :  disabled
High pass :  disabled
---------------BEGIN--------------------
Wavelength(nm)             Reflectance(%)
200.29               0
200.75        28.51299
201.21        53.44498
201.67        68.06551
202.13        68.06081
202.58        58.79259
203.04        45.05754
203.50        33.74286
203.96        34.56093
204.42        46.33453
204.88        62.43603
205.34        77.41319
205.80        87.68571
206.26         93.8189
206.72        97.85134
207.18        98.84496
207.64        93.82053
208.10        85.08592
208.55        77.43982
209.01        71.53975
209.47        65.48441
209.93        56.04644
210.39        35.41344
210.85       -23.45589
211.31       -93.48426
211.77        -7.62533
212.23         48.9993
212.69        69.39758
213.14        76.85316
213.60        78.88845
214.06        77.95217
214.52        75.13244
214.98         76.4775
215.44        83.45904
215.90        90.08195
216.36        93.33189
216.81        92.57403
217.27        89.06775
217.73        83.80899
218.19        78.09628
218.65        74.16004
219.11        72.98115
219.57        74.14759
220.02        77.35222
220.48        82.06923
220.94        86.69471
221.40        90.79798
221.86        93.82583
222.32         95.6284
222.77         96.3934
223.23        96.25466
223.69        95.68285
224.15        95.23393
224.61        94.99373
225.06        94.83475
225.52        94.70367
225.98        94.02347
226.44        93.03476
226.90        92.18044
227.36        91.80323
227.81        92.08989
228.27        93.18462
228.73        94.87003
229.19        96.95301
229.65         98.8838
230.10        100.1412
230.56        100.9053
231.02        101.1282
231.48        100.9799
231.93         100.442
232.39        99.69564
232.85        98.62325
233.31        97.22752
233.77        95.62974
234.22         93.9978
234.68        92.50346
235.14         91.2563
235.60        90.24794
236.05        89.40767
236.51        88.75356
236.97        88.50516
237.43        88.68484
237.88        89.33949
238.34         89.8019
238.80        89.66312
239.26        88.62779
239.71        86.41165
240.17        82.16136
240.63        77.47353
241.08        75.52654
241.54        76.14511
242.00        77.27874
242.46        76.95086
242.91        74.63042
243.37        69.06181
243.83        57.32773
244.28        41.38823
244.74        37.74521
245.20        48.61078
245.66         59.1409
246.11        61.92595
246.57        57.91734
247.03        47.82995
247.48        31.65066
247.94        20.81313
248.40        27.24945
248.85        43.58877
249.31        60.99753
249.77        72.99728
250.22        79.33805
250.68        82.39458
251.14        83.83366
251.59        85.21143
252.05        87.11248
252.51        89.08227
252.96        89.96386
253.42        87.62836
253.88        82.00134
254.33        76.19056
254.79        72.03803
255.25        68.88692
255.70        66.32699
256.16         64.7822
256.62        64.69505
257.07        66.59444
257.53        69.92802
257.99        73.27686
258.44        75.48888
258.90        76.11555
259.35        75.09007
259.81        73.50491
260.27        71.63699
260.72        69.86111
261.18         68.7014
261.63        67.69893
262.09        67.09609
262.55        66.70448
263.00        66.36679
263.46        66.25491
263.91        66.15765
264.37        66.19711
264.83         66.2411
265.28        66.20543
265.74        66.12495
266.19        65.76833
266.65        65.23764
267.11        64.53857
267.56        63.75182
268.02        63.13215
268.47        62.67053
268.93        62.31131
269.38        61.97702
269.84        61.58711
270.30        61.09257
270.75        60.52874
271.21        59.83746
271.66        58.86394
272.12        57.64817
272.57        56.19763
273.03        54.78185
273.48        53.71078
273.94        53.10379
274.39        52.79887
274.85        52.59851
275.31        52.08465
275.76        51.17052
276.22        50.06089
276.67         48.9085
277.13        48.08725
277.58        47.56871
278.04        47.26402
278.49        46.95033
278.95        46.47425
279.40          45.725
279.86        44.87971
280.31        43.93325
280.77        43.03276
281.22        42.17953
281.68         41.4177
282.13        40.75361
282.59        40.29354
283.04        39.98156
283.50        39.78907
283.95        39.61137
284.41        39.35695
284.86        38.96431
285.32        38.49997
285.77         37.9282
286.22        37.25895
286.68        36.53707
287.13        35.74086
287.59        34.99904
288.04         34.4139
288.50        34.04499
288.95        33.82602
289.41        33.69773
289.86        33.50142
290.32        33.22465
290.77        32.89196
291.22        32.56311
291.68         32.3214
292.13        32.16996
292.59        32.08834
293.04        32.03597
293.50        31.98949
293.95        31.92544
294.40         31.8664
294.86        31.82054
295.31        31.78623
295.77        31.77457
296.22         31.7697
296.68        31.78904
297.13        31.83765
297.58        31.92201
298.04        32.04032
298.49         32.1632
298.95        32.26049
299.40        32.31644
299.85        32.33427
300.31        32.36295
300.76        32.44366
301.21        32.59512
301.67        32.81126
302.12        33.00509
302.58        33.08704
303.03         33.0279
303.48        32.86501
303.94        32.72392
304.39        32.74696
304.84        32.96722
305.30        33.33535
305.75        33.68261
306.20        33.79292
306.66         33.6396
307.11        33.26739
307.57        32.86268
308.02        32.65203
308.47        32.69779
308.93        32.91884
309.38        33.13834
309.83        33.11243
310.29        32.80299
310.74        32.28568
311.19        31.71964
311.65        31.35225
312.10        31.22991
312.55        31.27692
313.00        31.37888
313.46        31.36248
313.91        31.17566
314.36        30.87971
314.82        30.53175
315.27        30.21579
315.72        29.96573
316.18         29.7599
316.63         29.5755
317.08        29.40207
317.53        29.23383
317.99        29.07694
318.44        28.94257
318.89         28.8285
319.35        28.72975
319.80        28.63778
320.25        28.53827
320.70        28.41706
321.16        28.26383
321.61         28.0912
322.06        27.89722
322.51        27.68344
322.97        27.45297
323.42        27.21844
323.87        26.99434
324.32        26.81078
324.78        26.67155
325.23        26.57326
325.68        26.49525
326.13        26.40549
326.59        26.28242
327.04        26.15454
327.49        26.01409
327.94        25.85888
328.39        25.69267
328.85         25.5099
329.30        25.34025
329.75        25.22868
330.20        25.18545
330.66        25.18816
331.11        25.21131
331.56        25.16522
332.01        25.03006
332.46         24.8307
332.92        24.60763
333.37         24.4586
333.82        24.40378
334.27        24.41004
334.72        24.45188
335.17        24.48738
335.63        24.49005
336.08        24.49136
336.53        24.45658
336.98        24.33822
337.43        24.14031
337.88        23.88144
338.34        23.63853
338.79        23.54256
339.24        23.62273
339.69        23.83845
340.14        24.11084
340.59        24.30735
341.05        24.38335
341.50        24.37756
341.95        24.31355
342.40        24.24142
342.85        24.18153
343.30        24.11267
343.75        24.04515
344.20         23.9997
344.66        23.98326
345.11        23.99775
345.56        24.01781
346.01        23.99401
346.46        23.91733
346.91         23.7978
347.36        23.68311
347.81        23.64555
348.26        23.69904
348.72        23.82675
349.17        23.96092
349.62        23.99264
350.07        23.89937
350.52        23.70617
350.97        23.51185
351.42        23.47582
351.87        23.62106
352.32        23.88904
352.77        24.14369
353.22        24.17872
353.67        23.95726
354.13        23.56808
354.58         23.1185
355.03        22.83044
355.48          22.767
355.93        22.86519
356.38        23.03714
356.83        23.14475
357.28        23.14376
357.73        23.07474
358.18        22.97848
358.63        22.91636
359.08        22.89944
359.53        22.89313
359.98        22.86219
360.43         22.7608
360.88        22.58172
361.33        22.34832
361.78        22.08139
362.23        21.84639
362.68        21.67109
363.13        21.47893
363.58        21.25751
364.03        21.34748
364.48        21.15653
364.93        21.14564
365.38        21.12871
365.83        21.10241
366.28        21.05055
366.73        20.97695
367.18        20.86768
367.63        20.68891
368.08        20.44532
368.53        20.15552
368.98        19.86166
369.43        19.62959
369.88        19.48098
370.33        19.40304
370.78        19.37372
371.23        19.35411
371.68        19.32183
372.13        19.27357
372.58        19.21133
373.03        19.13913
373.48        19.05854
373.93        18.97669
374.38        18.86301
374.83        18.67178
375.28        18.40943
375.72        18.08741
376.17         17.8209
376.62        17.74811
377.07        17.88123
377.52        18.15633
377.97        18.44695
378.42        18.55429
378.87        18.43406
379.32        18.16071
379.77        17.81097
380.22        17.50265
380.67        17.27724
381.11        17.09453
381.56        16.97272
382.01        16.94139
382.46        16.99306
382.91        17.12687
383.36        17.25703
383.81         17.2434
384.26        17.06331
384.71        16.75454
385.15        16.41933
385.60        16.25421
386.05        16.29079
386.50        16.47512
386.95        16.70437
387.40        16.81549
387.85        16.77373
388.29        16.62661
388.74        16.47628
389.19         16.4288
389.64        16.49868
390.09        16.62727
390.54        16.75656
390.98        16.79671
391.43        16.73076
391.88         16.6015
392.33        16.41706
392.78        16.21092
393.23        16.01308
393.67        15.75295
394.12        15.50029
394.57        15.53271
395.02        15.57835
395.47        15.58564
395.91        15.49116
396.36        15.49695
396.81        15.60095
397.26        15.68062
397.71        15.69433
398.15        15.64452
398.60        15.54845
399.05        15.35311
399.50        15.13406
399.95        15.09386
400.39        15.20043
400.84        15.20904
401.29        15.10122
401.74        14.99358
402.18        14.91978
402.63        14.91536
403.08         14.9712
403.53        14.98684
403.97         14.9583
404.42        14.96811
404.87         14.9988
405.32        14.99515
405.76        14.95099
406.21        14.84611
406.66        14.72597
407.11         14.7305
407.55        14.83319
408.00        14.86485
408.45        14.79908
408.90        14.64321
409.34        14.46145
409.79        14.45071
410.24        14.59068
410.68         14.6594
411.13        14.64185
411.58        14.68314
412.03        14.76986
412.47        14.80106
412.92        14.75915
413.37        14.68289
413.81        14.58955
414.26        14.51388
414.71        14.46234
415.15        14.42545
415.60        14.40197
416.05        14.39533
416.49        14.40487
416.94        14.42871
417.39        14.45288
417.83        14.45553
418.28        14.42766
418.73        14.36886
419.17         14.3031
419.62        14.27314
420.07         14.2947
420.51        14.36433
420.96        14.44072
421.41        14.47773
421.85        14.45996
422.30        14.33065
422.74        14.17658
423.19          14.306
423.64         14.6638
424.08         14.8521
424.53        14.76593
424.98        14.66339
425.42        14.54946
425.87        14.16976
426.31        13.68469
426.76        13.63123
427.21        13.96323
427.65        14.14466
428.10        14.11922
428.54        14.16747
428.99        14.26733
429.44        14.36695
429.88        14.40191
430.33        14.10652
430.77        13.65634
431.22        13.63389
431.66        13.99626
432.11        14.24494
432.56         14.2894
433.00        14.25276
433.45        14.05519
433.89        13.74781
434.34        13.59836
434.78        13.01732
435.23         13.6257
435.67        14.13778
436.12        14.35025
436.57         14.3809
437.01        14.15965
437.46        14.04166
437.90        14.11834
438.35        14.28233
438.79        14.06115
439.24        13.99542
439.68        13.96243
440.13        13.93299
440.57        13.89654
441.02        13.96001
441.46        14.08493
441.91         13.9495
442.35         13.6636
442.80         13.8228
443.24        14.30232
443.69        14.29647
444.13        13.84289
444.58        13.65829
445.02        13.75182
445.47        13.75491
445.91        13.65371
446.36        13.62049
446.80        13.65208
447.24        13.69507
447.69        13.74391
448.13        13.82735
448.58        13.91926
449.02        13.94514
449.47         13.9169
449.91        13.91841
450.36        13.95733
450.80        13.98278
451.25        13.98952
451.69        13.99281
452.13        13.98754
452.58        13.95754
453.02         13.9128
453.47        13.87681
453.91        13.85238
454.36        13.85728
454.80        13.85739
455.24        13.78262
455.69        13.66227
456.13        13.53286
456.58        13.44547
457.02        13.52469
457.46        13.69774
457.91        13.70656
458.35           13.61
458.79        13.58513
459.24        13.65075
459.68        13.68166
460.13         13.6811
460.57        13.63228
461.01        13.59924
461.46        13.59514
461.90        13.55771
462.34        13.53886
462.79        13.74783
463.23         13.8104
463.68        13.78964
464.12        13.75712
464.56        13.72943
465.01        13.74695
465.45        13.75763
465.89        13.68011
466.34        13.56363
466.78        13.47581
467.22        13.41802
467.67        13.67412
468.11         13.6304
468.55        13.63041
468.99        13.52137
469.44        13.48652
469.88         13.5294
470.32        13.54053
470.77        13.52547
471.21         13.5356
471.65        13.57566
472.10         13.6378
472.54        13.69153
472.98        13.70941
473.42        13.69105
473.87        13.60509
474.31        13.50689
474.75        13.60904
475.20        13.87144
475.64        14.00988
476.08        13.97956
476.52        13.98594
476.97        14.03592
477.41        13.86979
477.85        13.67002
478.29        13.70066
478.74          13.637
479.18        13.61201
479.62        13.93211
480.06        14.02712
480.50        14.02414
480.95        13.94172
481.39        13.80142
481.83        13.93397
482.27        13.93232
482.72        13.89168
483.16        14.10237
483.60        14.13521
484.04        14.07023
484.48        14.06393
484.93        14.26807
485.37        14.11327
485.81        14.14764
486.25        14.98624
486.69        14.34119
487.14        14.03583
487.58        14.95523
488.02        14.77762
488.46        14.67451
488.90        14.92796
489.34        14.35543
489.79        14.20066
490.23        14.60242
490.67        14.82991
491.11        14.96324
491.55        14.94326
491.99        14.83824
492.43        14.86488
492.88        15.03484
493.32        15.17499
493.76        15.25813
494.20        15.36846
494.64        15.51389
495.08        15.62555
495.52        15.70269
495.96        15.87759
496.41        16.14203
496.85         16.0632
497.29        15.77642
497.73        15.91164
498.17        16.40447
498.61        16.69913
499.05        16.69595
499.49        16.65719
499.93        16.63003
500.37        16.57061
500.82        16.51988
501.26         16.5819
501.70        16.78061
502.14        16.74268
502.58        17.02552
503.02        17.12276
503.46        17.12449
503.90        17.07427
504.34        16.99794
504.78        16.99229
505.22        17.06815
505.66        17.16638
506.10        17.26756
506.54        17.38884
506.98        17.52224
507.42        17.57938
507.86        17.69091
508.30        17.73494
508.74        17.75335
509.18        17.74402
509.62        17.72646
510.06        17.73212
510.50         17.7677
510.94        17.82584
511.38         17.8929
511.82        17.94581
512.26        17.97605
512.70        17.99045
513.14        17.99266
513.58        17.98113
514.02        17.95872
514.46        17.93994
514.90        17.93067
515.34        17.87775
515.78        17.88746
516.22        17.87632
516.66        17.88273
517.10        17.91392
517.54        17.96958
517.98        18.04505
518.42        18.11815
518.86        18.15661
519.30        18.15292
519.74        18.11417
520.18         18.0661
520.62        18.05052
521.06        18.07615
521.50        18.13045
521.93        18.18703
522.37        18.19486
522.81        18.14559
523.25        18.05391
523.69        17.94899
524.13        17.87564
524.57        17.84527
525.01        17.84575
525.45        17.85185
525.89        17.82305
526.32         17.7491
526.76        17.65296
527.20        17.56038
527.64        17.51413
528.08         17.5219
528.52        17.56272
528.96        17.61556
529.40        17.64921
529.83        17.65136
530.27        17.63314
530.71        17.58992
531.15        17.51453
531.59        17.41301
532.03        17.29084
532.46        17.17373
532.90        17.11455
533.34        17.12018
533.78        17.17734
534.22        17.25694
534.66        17.31279
535.09           17.33
535.53        17.32195
535.97        17.30166
536.41        17.29347
536.85        17.30417
537.28        17.32618
537.72        17.34887
538.16        17.35378
538.60        17.34061
539.04         17.3242
539.47        17.31497
539.91        17.33754
540.35        17.39124
540.79        17.46905
541.22        17.55977
541.66        17.64653
542.10        17.72147
542.54        17.78997
542.97         17.8459
543.41        17.89111
543.85        17.92583
544.29        17.95167
544.72        17.98016
545.16        18.04417
545.60        18.14346
546.04        18.27142
546.47        18.41124
546.91        18.52953
547.35        18.61709
547.79        18.69108
548.22          18.761
548.66        18.83929
549.10        18.94189
549.53        19.12902
549.97        19.37102
550.41        19.55428
550.84        19.66248
551.28        19.75431
551.72        19.84408
552.15        19.93072
552.59        20.02674
553.03        20.12439
553.46        20.22359
553.90        20.34062
554.34        20.47221
554.77        20.62263
555.21        20.77202
555.65         20.8882
556.08        20.94339
556.52        20.99285
556.96        21.04385
557.39        21.14005
557.83        21.26987
558.27        21.33291
558.70        21.33213
559.14        21.35142
559.57        21.38939
560.01        21.42834
560.45        21.45714
560.88        21.44468
561.32         21.4354
561.75        21.49103
562.19        21.61078
562.63        21.76706
563.06        21.90791
563.50        21.90737
563.93         21.7945
564.37        21.78061
564.80        21.87283
565.24        21.96812
565.68        22.05395
566.11        22.14996
566.55        22.25627
566.98        22.38268
567.42        22.52093
567.85        22.59456
568.29        22.64298
568.72        22.73104
569.16        22.85614
569.60        23.02931
570.03        23.26901
570.47        23.28289
570.90        23.33628
571.34        23.85564
571.77        23.81844
572.21        23.82803
572.64        24.07882
573.08        24.03072
573.51         24.3752
573.95        24.41725
574.38        24.27486
574.82        24.52969
