SpectraSmart Spectrum 2.9.0.0
--------- Device Information -----------
Spectrum Name :  反射率_0
Saving Time :  2024/04/27 22:14:16
Spectro-Module Model Name : SE2030-DUVN
Spectro-Module Serial Number : OS361AC55029948
Wavelength Start : 200
Wavelength End : 1025
Wavelength Unit : Wavelength(nm)
Spectrum Unit : Reflectance(%)
-----------Spectrum Setting ------------
Integration Time : 20ms
Average : 10
Boxcar : 0
Background removal :  enabled
linearity correction :  enabled
SC :  disabled
Intensity correction :  disabled
DWT denoise :  enabled
savitzky-golay :  disabled
FFT :  disabled
Running average :  disabled
Kalman :  disabled
High pass :  disabled
---------------BEGIN--------------------
Wavelength(nm)             Reflectance(%)
200.29               0
200.75       -69.79648
201.21       -62.06052
201.67       -46.98862
202.13       -33.26708
202.58       -20.57582
203.04       -7.444702
203.50        7.629946
203.96        23.77539
204.42        38.27641
204.88        50.22668
205.34        58.29749
205.80        61.87319
206.26        61.32498
206.72        55.61074
207.18        43.45675
207.64        31.12058
208.10        27.71468
208.55        32.17849
209.01        35.23066
209.47        32.03625
209.93         19.8695
210.39       -13.73923
210.85       -115.1333
211.31        -230.811
211.77       -78.27763
212.23        17.72576
212.69          49.592
213.14        56.05315
213.60         48.7735
214.06        28.25935
214.52       -8.211631
214.98       -33.06948
215.44       -18.34544
215.90        9.885442
216.36        32.10514
216.81        42.83981
217.27        45.35344
217.73        44.14157
218.19        40.40441
218.65        35.25136
219.11        29.49522
219.57        22.31199
220.02        15.05243
220.48        13.10207
220.94        17.31297
221.40        25.30149
221.86        34.01896
222.32         40.4185
222.77        44.26975
223.23        46.50763
223.69        47.20333
224.15        46.22504
224.61        43.90981
225.06        40.15485
225.52        36.72645
225.98        36.52909
226.44        39.41126
226.90        43.36931
227.36        46.57405
227.81        47.68055
228.27        46.81445
228.73        44.46679
229.19        41.05808
229.65        37.62098
230.10        34.83169
230.56        32.95656
231.02        31.70139
231.48        30.68208
231.93        29.76447
232.39        29.06244
232.85        29.17038
233.31        30.89425
233.77          34.009
234.22        38.06516
234.68        41.53703
235.14        42.54621
235.60        40.78563
236.05        36.45773
236.51        31.14833
236.97        28.61888
237.43        30.44454
237.88        35.86626
238.34        41.85352
238.80        44.90299
239.26         44.0085
239.71        38.66015
240.17        29.26184
240.63        24.28052
241.08         30.9358
241.54        42.73713
242.00         51.9509
242.46        55.55121
242.91        54.27544
243.37        47.50228
243.83         30.9497
244.28         6.26968
244.74       -2.509382
245.20        9.623753
245.66        23.77969
246.11        29.26891
246.57        27.24694
247.03         20.5697
247.48         8.70024
247.94       -1.489033
248.40       -1.286004
248.85        4.375979
249.31        13.61331
249.77        25.88684
250.22        38.45595
250.68        49.82798
251.14        57.73085
251.59        60.16451
252.05        57.55288
252.51         49.5363
252.96        36.74671
253.42        28.18247
253.88         29.5209
254.33        36.91706
254.79        43.74195
255.25        45.51539
255.70        43.41168
256.16        40.22165
256.62        38.10121
257.07        39.20466
257.53        42.76609
257.99        46.62437
258.44         49.3796
258.90        50.18778
259.35        49.14653
259.81        47.41427
260.27        45.30563
260.72        43.18039
261.18        41.52082
261.63        40.04564
262.09        39.03736
262.55        38.55574
263.00        38.44596
263.46        38.68534
263.91        38.97824
264.37        39.16431
264.83        39.12283
265.28        38.90118
265.74        38.55973
266.19        38.03783
266.65        37.41468
267.11        36.66979
267.56        35.89199
268.02         35.3149
268.47        34.94574
268.93        34.74932
269.38        34.60214
269.84        34.32151
270.30        33.84984
270.75        33.22577
271.21        32.52845
271.66        31.84468
272.12        31.22441
272.57        30.62024
273.03        30.01073
273.48        29.29065
273.94        28.51161
274.39        27.70271
274.85        27.00176
275.31        26.53053
275.76        26.27366
276.22        26.17833
276.67        26.11034
277.13        25.95929
277.58        25.65398
278.04        25.28028
278.49        24.81885
278.95        24.33741
279.40        23.82441
279.86        23.32395
280.31        22.85951
280.77        22.56947
281.22         22.4289
281.68        22.42801
282.13        22.46214
282.59        22.41481
283.04        22.25042
283.50        22.01256
283.95        21.75417
284.41        21.58742
284.86        21.52167
285.32        21.53283
285.77        21.54939
286.22        21.49718
286.68        21.37735
287.13        21.19233
287.59        21.02084
288.04        20.91145
288.50          20.902
288.95        20.94767
289.41        21.01766
289.86         21.0274
290.32          20.981
290.77        20.90501
291.22        20.85157
291.68        20.89298
292.13        21.03709
292.59         21.2649
293.04        21.54864
293.50        21.86751
293.95         22.1988
294.40        22.56049
294.86        22.93164
295.31        23.27293
295.77        23.58785
296.22        23.86752
296.68        24.17078
297.13        24.57149
297.58        25.08052
298.04        25.66441
298.49        26.23721
298.95        26.67925
299.40        26.96857
299.85         27.1451
300.31        27.30978
300.76        27.58563
301.21        28.00774
301.67        28.53171
302.12        29.05392
302.58        29.45246
303.03        29.69065
303.48        29.82507
303.94        29.94702
304.39        30.15148
304.84        30.46909
305.30         30.8533
305.75        31.22649
306.20        31.50871
306.66         31.6863
307.11        31.76527
307.57        31.78465
308.02        31.74319
308.47        31.67046
308.93        31.56604
309.38        31.43871
309.83        31.32179
310.29        31.23273
310.74        31.16129
311.19        31.09709
311.65        31.01434
312.10        30.89129
312.55        30.73958
313.00        30.59018
313.46        30.49333
313.91        30.44791
314.36        30.43387
314.82        30.38992
315.27        30.21691
315.72        29.90129
316.18        29.48861
316.63        29.04632
317.08        28.69937
317.53        28.48217
317.99        28.35839
318.44        28.28813
318.89        28.18899
319.35        28.03468
319.80        27.85041
320.25        27.65581
320.70        27.48639
321.16         27.3429
321.61        27.21042
322.06        27.06693
322.51        26.88591
322.97        26.65818
323.42        26.40832
323.87         26.1389
324.32        25.86044
324.78        25.57893
325.23         25.2931
325.68        25.02708
326.13         24.8243
326.59        24.67833
327.04        24.59872
327.49        24.51489
327.94        24.31649
328.39        23.97992
328.85        23.53084
329.30        23.06324
329.75        22.73988
330.20        22.61257
330.66         22.6329
331.11        22.72389
331.56        22.71041
332.01        22.54582
332.46        22.27875
332.92        21.99147
333.37        21.84801
333.82        21.88412
334.27         22.0347
334.72        22.22008
335.17        22.31675
335.63         22.2745
336.08        22.14608
336.53        21.93913
336.98         21.6771
337.43        21.38788
337.88        21.07257
338.34        20.78261
338.79        20.60373
339.24        20.55563
339.69        20.61896
340.14        20.73945
340.59        20.82033
341.05        20.82653
341.50        20.78118
341.95        20.69212
342.40        20.58637
342.85        20.47423
343.30        20.34065
343.75        20.19623
344.20         20.0617
344.66         19.9491
345.11        19.86465
345.56        19.79199
346.01        19.69677
346.46        19.57478
346.91        19.43115
347.36        19.31561
347.81        19.30228
348.26        19.39946
348.72         19.5861
349.17        19.77335
349.62        19.81828
350.07        19.69342
350.52        19.43548
350.97        19.16892
351.42        19.09542
351.87        19.24977
352.32        19.56044
352.77        19.87666
353.22        19.96934
353.67        19.79119
354.13        19.43402
354.58        19.00443
355.03        18.72287
355.48        18.65254
355.93        18.73075
356.38        18.86878
356.83        18.92814
357.28        18.87092
357.73        18.74653
358.18        18.61053
358.63        18.54401
359.08        18.56312
359.53        18.62676
359.98        18.69111
360.43        18.69705
360.88        18.62633
361.33        18.49566
361.78        18.31731
362.23        18.14791
362.68        18.01115
363.13         17.8301
363.58        17.58742
364.03        17.63415
364.48        17.35999
364.93        17.26133
365.38        17.17326
365.83        17.13606
366.28        17.14269
366.73        17.18294
367.18        17.22247
367.63        17.19205
368.08        17.07849
368.53        16.90254
368.98          16.698
369.43         16.5208
369.88        16.39279
370.33        16.30331
370.78        16.24257
371.23        16.19464
371.68        16.14748
372.13        16.09721
372.58        16.04986
373.03        16.01135
373.48        15.98208
373.93        15.96996
374.38        15.93316
374.83        15.80749
375.28         15.5937
375.72        15.30389
376.17         15.0629
376.62        15.02752
377.07        15.21272
377.52        15.54848
377.97        15.89152
378.42        16.01808
378.87        15.87952
379.32        15.55812
379.77        15.15409
380.22        14.81947
380.67        14.60371
381.11        14.46055
381.56        14.38099
382.01        14.34945
382.46        14.35023
382.91        14.39606
383.36         14.4431
383.81        14.41504
384.26        14.29967
384.71         14.1137
385.15        13.90658
385.60        13.79161
386.05        13.78399
386.50        13.85702
386.95        13.96226
387.40        14.02189
387.85        14.01757
388.29        13.96555
388.74        13.91886
389.19        13.92124
389.64        13.97584
390.09        14.05099
390.54        14.11502
390.98        14.11921
391.43        14.05787
391.88        13.95722
392.33        13.81951
392.78        13.66848
393.23        13.52411
393.67        13.32487
394.12        13.12667
394.57        13.15737
395.02        13.18584
395.47        13.17321
395.91         13.0629
396.36         13.0216
396.81        13.05256
397.26        13.05729
397.71        13.02497
398.15        12.99027
398.60        12.96754
399.05        12.89818
399.50        12.81206
399.95        12.83362
400.39        12.92629
400.84        12.89321
401.29        12.74347
401.74        12.61993
402.18        12.56252
402.63        12.58674
403.08        12.66487
403.53        12.67966
403.97         12.6202
404.42        12.57107
404.87        12.53084
405.32        12.47159
405.76         12.3952
406.21        12.27815
406.66        12.15796
407.11         12.1509
407.55        12.23174
408.00        12.25985
408.45        12.20644
408.90        12.06401
409.34        11.88557
409.79        11.84327
410.24        11.92296
410.68         11.9484
411.13        11.91187
411.58        11.92638
412.03        12.00091
412.47        12.08639
412.92        12.16537
413.37        12.25362
413.81        12.31433
414.26        12.30264
414.71        12.21209
415.15        12.05517
415.60        11.88175
416.05        11.78534
416.49        11.79261
416.94        11.87467
417.39        11.97913
417.83        12.02256
418.28         11.9784
418.73        11.86972
419.17         11.7353
419.62        11.64034
420.07        11.60974
420.51        11.62951
420.96        11.66577
421.41        11.68263
421.85        11.66583
422.30        11.57252
422.74        11.46403
423.19        11.57539
423.64        11.85935
424.08        11.99617
424.53         11.9105
424.98        11.83156
425.42        11.76556
425.87        11.49837
426.31         11.1416
426.76        11.10951
427.21        11.35726
427.65         11.4585
428.10        11.38008
428.54        11.36594
428.99        11.40531
429.44        11.45526
429.88        11.46769
430.33        11.23828
430.77        10.90222
431.22        10.91736
431.66        11.24803
432.11        11.48249
432.56        11.54198
433.00        11.54269
433.45        11.40541
433.89        11.10921
434.34        10.89256
434.78        10.37417
435.23        10.85575
435.67        11.26323
436.12        11.43443
436.57        11.49829
437.01         11.3788
437.46         11.3047
437.90        11.34247
438.35        11.42313
438.79         11.1827
439.24        11.07629
439.68        11.01512
440.13        10.97242
440.57        10.94464
441.02        11.02347
441.46         11.1749
441.91        11.13219
442.35        10.97014
442.80        11.15503
443.24        11.58647
443.69        11.61501
444.13        11.25683
444.58        11.07912
445.02         11.0904
445.47        11.00138
445.91        10.83118
446.36        10.76493
446.80        10.80828
447.24        10.90493
447.69        11.02385
448.13        11.14778
448.58        11.24307
449.02         11.2628
449.47        11.22305
449.91         11.2044
450.36        11.21732
450.80        11.21279
451.25        11.19437
451.69        11.18885
452.13        11.19267
452.58        11.19245
453.02        11.17473
453.47        11.12244
453.91        11.03402
454.36        10.93708
454.80        10.83762
455.24        10.73507
455.69        10.66271
456.13        10.62756
456.58        10.63879
457.02         10.7481
457.46         10.8852
457.91        10.86024
458.35        10.73463
458.79         10.6675
459.24        10.68224
459.68        10.67501
460.13        10.65329
460.57        10.61138
461.01         10.5992
461.46         10.6242
461.90        10.63119
462.34        10.64739
462.79        10.83188
463.23        10.89342
463.68        10.87744
464.12        10.83869
464.56        10.79172
465.01        10.77029
465.45        10.74361
465.89        10.66519
466.34        10.57572
466.78        10.52269
467.22        10.49597
467.67        10.69734
468.11        10.64184
468.55        10.60628
468.99        10.48282
469.44        10.43079
469.88        10.45839
470.32        10.47669
470.77        10.48701
471.21        10.52402
471.65         10.5865
472.10        10.66489
472.54        10.73404
472.98        10.76974
473.42        10.77053
473.87        10.71508
474.31        10.63764
474.75        10.69296
475.20          10.852
475.64        10.90071
476.08        10.83272
476.52        10.84703
476.97        10.95473
477.41        10.93892
477.85        10.91167
478.29        11.03287
478.74        11.02493
479.18        11.00954
479.62        11.24977
480.06        11.30974
480.50        11.30265
480.95        11.23503
481.39        11.13034
481.83        11.26788
482.27        11.32118
482.72        11.36445
483.16        11.61731
483.60        11.71089
484.04          11.714
484.48        11.71149
484.93         11.8487
485.37        11.81092
485.81        12.02201
486.25          12.582
486.69        12.00324
487.14         11.6738
487.58        12.78406
488.02        12.66844
488.46        12.52136
488.90         12.7656
489.34        12.39674
489.79        12.26687
490.23        12.50875
490.67        12.76261
491.11        13.06937
491.55        13.14014
491.99        13.02852
492.43        13.08256
492.88        13.31352
493.32        13.47439
493.76        13.55188
494.20        13.68532
494.64        13.88721
495.08        14.07574
495.52        14.23569
495.96        14.46254
496.41        14.74813
496.85         14.7008
497.29        14.45098
497.73        14.58402
498.17        15.04651
498.61        15.32758
499.05        15.33817
499.49        15.32329
499.93        15.32754
500.37        15.31143
500.82        15.30907
501.26        15.40841
501.70        15.62959
502.14        15.62547
502.58        15.91992
503.02        16.04784
503.46        16.09499
503.90        16.10004
504.34        16.08051
504.78        16.11696
505.22        16.21628
505.66        16.32401
506.10        16.43107
506.54         16.5689
506.98        16.73346
507.42        16.83714
507.86        16.99026
508.30        17.05287
508.74        17.06047
509.18        17.01686
509.62        16.96338
510.06        16.96609
510.50        17.03922
510.94          17.167
511.38        17.30624
511.82        17.38647
512.26        17.39054
512.70        17.34021
513.14         17.2768
513.58        17.25983
514.02        17.30451
514.46        17.40322
514.90        17.52162
515.34        17.54347
515.78        17.55578
516.22        17.49717
516.66        17.43442
517.10        17.42084
517.54        17.47055
517.98        17.56428
518.42        17.66621
518.86        17.72317
519.30        17.71991
519.74        17.67093
520.18        17.60851
520.62        17.58197
521.06        17.60328
521.50        17.65943
521.93         17.7162
522.37        17.71122
522.81         17.6359
523.25        17.50824
523.69        17.37698
524.13        17.31744
524.57        17.34222
525.01        17.42461
525.45        17.50782
525.89         17.5023
526.32        17.38689
526.76         17.2015
527.20        16.99583
527.64        16.85151
528.08        16.79103
528.52        16.78452
528.96        16.80813
529.40        16.82478
529.83        16.81866
530.27        16.80484
530.71        16.77306
531.15        16.70475
531.59        16.60328
532.03        16.47475
532.46        16.35016
532.90        16.29311
533.34        16.31183
533.78        16.38717
534.22        16.48441
534.66        16.54983
535.09        16.56537
535.53        16.54578
535.97        16.50488
536.41        16.46718
536.85        16.44254
537.28        16.42775
537.72        16.41397
538.16        16.38582
538.60        16.34557
539.04        16.30623
539.47        16.28916
539.91        16.33399
540.35        16.43964
540.79        16.59407
541.22        16.75946
541.66        16.87622
542.10         16.9295
542.54         16.9381
542.97         16.9317
543.41        16.96787
543.85        17.05876
544.29        17.18832
544.72        17.33474
545.16        17.47834
545.60         17.6055
546.04         17.7251
546.47        17.84551
546.91        17.97354
547.35        18.10895
547.79         18.2529
548.22        18.39364
548.66        18.51269
549.10        18.62042
549.53          18.791
549.97        19.01099
550.41        19.19257
550.84        19.32728
551.28        19.46292
551.72        19.61044
552.15        19.76389
552.59        19.92937
553.03        20.09891
553.46        20.25958
553.90        20.40891
554.34        20.54185
554.77        20.66806
555.21         20.7849
555.65        20.88917
556.08        20.96106
556.52        21.04921
556.96        21.14752
557.39        21.27834
557.83         21.4264
558.27        21.49909
558.70        21.51016
559.14        21.56139
559.57        21.65306
560.01        21.75512
560.45        21.84766
560.88        21.88977
561.32        21.92264
561.75        22.00822
562.19        22.13999
562.63        22.29571
563.06        22.41777
563.50         22.3472
563.93        22.14947
564.37        22.12497
564.80        22.28886
565.24         22.4975
565.68         22.7022
566.11         22.8765
566.55        23.00637
566.98        23.11702
567.42        23.21702
567.85        23.25532
568.29        23.28231
568.72        23.35864
569.16        23.49013
569.60        23.67076
570.03        23.91435
570.47         23.9802
570.90        24.13823
571.34         24.5612
571.77        24.60518
572.21        24.57688
572.64         24.8308
573.08        24.76629
573.51        25.10235
573.95        25.30296
574.38         25.4232
574.82        25.49833
