SpectraSmart Spectrum 2.9.0.0
--------- Device Information -----------
Spectrum Name :  反射率_0
Saving Time :  2024/04/27 22:51:30
Spectro-Module Model Name : SE2030-DUVN
Spectro-Module Serial Number : OS361AC55029948
Wavelength Start : 200
Wavelength End : 1025
Wavelength Unit : Wavelength(nm)
Spectrum Unit : Reflectance(%)
-----------Spectrum Setting ------------
Integration Time : 20ms
Average : 10
Boxcar : 0
Background removal :  enabled
linearity correction :  enabled
SC :  disabled
Intensity correction :  disabled
DWT denoise :  enabled
savitzky-golay :  disabled
FFT :  disabled
Running average :  disabled
Kalman :  disabled
High pass :  disabled
---------------BEGIN--------------------
Wavelength(nm)             Reflectance(%)
200.29               0
200.75       -32.06245
201.21        43.04811
201.67        93.48618
202.13        103.1603
202.58        86.56222
203.04        56.59433
203.50        26.74236
203.96        16.68114
204.42        26.89219
204.88        46.11487
205.34        64.56897
205.80        74.66859
206.26        75.84576
206.72        69.35236
207.18        55.05659
207.64        43.43714
208.10        44.69722
208.55        52.90886
209.01        57.77717
209.47        54.93461
209.93         41.9472
210.39         6.15571
210.85       -102.4173
211.31       -231.4894
211.77       -71.46568
212.23        31.99315
212.69         68.0974
213.14        78.92593
213.60         78.2206
214.06        68.82796
214.52        49.41927
214.98        34.54259
215.44        40.07669
215.90        52.95358
216.36        62.86805
216.81        66.27794
217.27        64.80128
217.73        61.20939
218.19        56.33332
218.65        51.11023
219.11         46.2608
219.57        41.09433
220.02        36.99636
220.48         38.5358
220.94        45.60131
221.40        55.47046
221.86        64.38259
222.32        68.95759
222.77        69.47221
223.23        67.52201
223.69        64.48727
224.15        61.56426
224.61        59.06089
225.06        56.55378
225.52        54.61057
225.98        54.02267
226.44        54.68338
226.90        55.80061
227.36        56.97437
227.81        57.92641
228.27        58.66428
228.73        59.32923
229.19         59.2119
229.65        57.07134
230.10        52.84721
230.56        47.46639
231.02        42.61159
231.48        40.56947
231.93        41.44254
232.39        44.42015
232.85        48.02334
233.31        50.22277
233.77        50.66604
234.22        50.16262
234.68        49.30815
235.14        49.03679
235.60        49.58987
236.05        50.50564
236.51        51.90673
236.97        53.81753
237.43        55.93918
237.88        58.39006
238.34        60.13634
238.80        60.35347
239.26        58.74408
239.71        54.55109
240.17         47.6651
240.63        43.27071
241.08        46.49916
241.54        53.88889
242.00        60.33606
242.46        63.65739
242.91        64.56058
243.37        63.22604
243.83         58.6707
244.28        52.25415
244.74        51.32772
245.20        56.26146
245.66        59.93652
246.11        58.56062
246.57        51.89121
247.03        38.93462
247.48        20.09389
247.94        10.13037
248.40        22.09353
248.85         46.1497
249.31        68.08012
249.77        77.14714
250.22        75.81496
250.68        70.03119
251.14        63.95647
251.59        60.71996
252.05        60.48478
252.51        61.74348
252.96        64.06919
253.42        66.62887
253.88        67.52309
254.33        67.63896
254.79        66.67168
255.25        63.56004
255.70        59.02969
256.16        54.41836
256.62        51.49472
257.07        52.21931
257.53        55.76584
257.99        59.98749
258.44        63.13573
258.90        64.14543
259.35        63.08194
259.81        61.25242
260.27        59.16922
260.72        57.44733
261.18        56.51872
261.63        55.80662
262.09         55.4012
262.55         55.0509
263.00        54.60148
263.46        54.24597
263.91        53.80495
264.37        53.36744
264.83        52.86533
265.28          52.277
265.74        51.67252
266.19        50.92699
266.65        50.12413
267.11        49.25264
267.56        48.37954
268.02        47.71716
268.47        47.24867
268.93        46.92018
269.38        46.62906
269.84        46.24259
270.30        45.70633
270.75        45.06114
271.21        44.29454
271.66        43.34301
272.12        42.25315
272.57         41.0149
273.03        39.81847
273.48        38.86995
273.94        38.26043
274.39        37.88601
274.85        37.61359
275.31        37.15332
275.76        36.44034
276.22        35.60684
276.67         34.7599
277.13        34.16031
277.58        33.78807
278.04        33.59221
278.49        33.39126
278.95        33.05017
279.40        32.48703
279.86        31.83353
280.31        31.14222
280.77        30.61102
281.22        30.23514
281.68        30.00287
282.13        29.81981
282.59        29.61358
283.04         29.3433
283.50          29.055
283.95        28.78135
284.41        28.61343
284.86        28.54246
285.32        28.55028
285.77        28.55437
286.22        28.48167
286.68         28.3331
287.13        28.10249
287.59        27.86951
288.04        27.67537
288.50        27.56536
288.95        27.49394
289.41        27.44819
289.86        27.35796
290.32        27.23652
290.77        27.10425
291.22        27.00561
291.68        26.99578
292.13        27.08005
292.59        27.25527
293.04        27.50363
293.50        27.82544
293.95        28.19979
294.40        28.63221
294.86        29.10655
295.31        29.58865
295.77        30.07869
296.22        30.56869
296.68        31.07851
297.13        31.61692
297.58        32.18869
298.04        32.78308
298.49        33.38153
298.95        33.97963
299.40        34.56753
299.85        35.14434
300.31        35.73247
300.76        36.32282
301.21        36.91684
301.67        37.51904
302.12        38.06481
302.58        38.51073
303.03        38.83408
303.48        39.06141
303.94        39.29579
304.39        39.63865
304.84        40.11913
305.30        40.70324
305.75        41.24832
306.20        41.58555
306.66        41.69842
307.11        41.61534
307.57        41.48608
308.02        41.47084
308.47        41.62245
308.93        41.88177
309.38        42.12247
309.83        42.18718
310.29        42.05718
310.74        41.78631
311.19        41.47131
311.65        41.25571
312.10        41.16389
312.55        41.15248
313.00        41.19065
313.46        41.23491
313.91        41.25298
314.36        41.26072
314.82        41.21968
315.27        41.06264
315.72        40.78659
316.18        40.42025
316.63        40.02361
317.08        39.71821
317.53        39.53737
317.99        39.45144
318.44        39.41881
318.89        39.35069
319.35        39.21877
319.80        39.04548
320.25        38.86374
320.70        38.73083
321.16        38.65073
321.61        38.61025
322.06        38.55478
322.51         38.4051
322.97        38.14325
323.42        37.81181
323.87        37.47327
324.32        37.23955
324.78        37.13434
325.23        37.12928
325.68         37.1643
326.13        37.14615
326.59        37.02935
327.04        36.86546
327.49        36.65617
327.94        36.41785
328.39        36.16412
328.85        35.87844
329.30        35.60872
329.75        35.41494
330.20        35.31548
330.66        35.29109
331.11         35.3096
331.56        35.25491
332.01        35.10019
332.46        34.87062
332.92         34.6203
333.37        34.48825
333.82        34.49343
334.27        34.58911
334.72        34.70969
335.17        34.74933
335.63        34.66694
336.08        34.52161
336.53        34.32552
336.98        34.11253
337.43        33.91296
337.88        33.72498
338.34        33.59132
338.79        33.59092
339.24        33.72771
339.69        33.96847
340.14        34.24693
340.59        34.45231
341.05        34.54369
341.50        34.55195
341.95        34.47427
342.40        34.32234
342.85         34.1191
343.30         33.8676
343.75        33.63139
344.20         33.5137
344.66        33.53854
345.11        33.67614
345.56        33.85849
346.01        33.96546
346.46        33.96207
346.91        33.87957
347.36        33.76223
347.81        33.67919
348.26        33.65352
348.72        33.66666
349.17        33.69148
349.62        33.69099
350.07        33.65137
350.52         33.5746
350.97        33.50426
351.42        33.50542
351.87         33.5836
352.32        33.72157
352.77        33.82025
353.22        33.73108
353.67        33.43727
354.13        32.99988
354.58        32.54467
355.03        32.32682
355.48         32.3959
355.93        32.67144
356.38        32.98266
356.83        33.05989
357.28        32.84446
357.73        32.43191
358.18        31.95702
358.63        31.62958
359.08        31.50332
359.53        31.49785
359.98        31.54595
360.43        31.54743
360.88        31.46426
361.33        31.33337
361.78        31.14037
362.23        30.88962
362.68        30.59902
363.13        30.20839
363.58        29.76113
364.03        29.65615
364.48         29.3884
364.93        29.35033
365.38         29.3285
365.83        29.23966
366.28        29.05344
366.73        28.80403
367.18        28.52373
367.63        28.25234
368.08        28.00903
368.53        27.77906
368.98        27.56584
369.43        27.37632
369.88        27.21016
370.33        27.07213
370.78        26.94518
371.23         26.7983
371.68        26.62169
372.13        26.41493
372.58        26.20342
373.03        26.03112
373.48        25.90814
373.93        25.82874
374.38        25.74754
374.83        25.59102
375.28        25.35118
375.72        25.04424
376.17        24.76686
376.62        24.62774
377.07        24.64041
377.52         24.7508
377.97        24.87547
378.42        24.88533
378.87        24.74868
379.32        24.51735
379.77        24.22631
380.22          23.927
380.67        23.64471
381.11        23.36197
381.56         23.1187
382.01        22.98254
382.46        22.96042
382.91        23.03722
383.36        23.12665
383.81        23.08851
384.26         22.8955
384.71        22.58782
385.15        22.24901
385.60        22.04708
386.05         22.0082
386.50        22.08474
386.95        22.20027
387.40        22.23582
387.85        22.16478
388.29        22.01754
388.74        21.87354
389.19        21.79267
389.64        21.78292
390.09        21.80327
390.54        21.82446
390.98        21.80009
391.43        21.73117
391.88        21.64553
392.33        21.52751
392.78        21.38801
393.23        21.24564
393.67        21.00146
394.12        20.74643
394.57        20.85528
395.02        20.96443
395.47          21.011
395.91        20.87677
396.36        20.78568
396.81        20.74439
397.26        20.61992
397.71        20.45409
398.15         20.3851
398.60        20.44236
399.05        20.49369
399.50        20.53371
399.95        20.69013
400.39        20.88477
400.84        20.82169
401.29         20.5228
401.74         20.2336
402.18        20.03693
402.63        19.95948
403.08        19.98403
403.53        19.96906
403.97        19.90668
404.42        19.91738
404.87         19.9838
405.32        20.03411
405.76        20.05324
406.21        20.00406
406.66         19.9208
407.11        19.95635
407.55        20.06633
408.00         20.0292
408.45        19.83713
408.90        19.55071
409.34        19.27369
409.79         19.2586
410.24        19.46144
410.68        19.55604
411.13        19.51673
411.58        19.55093
412.03        19.65598
412.47        19.72112
412.92         19.7262
413.37        19.70374
413.81        19.66504
414.26        19.64393
414.71        19.64324
415.15        19.65757
415.60        19.66657
416.05        19.64702
416.49        19.59714
416.94        19.52342
417.39        19.45148
417.83        19.42146
418.28        19.43339
418.73        19.46414
419.17        19.49423
419.62        19.49514
420.07        19.46699
420.51        19.43427
420.96        19.38461
421.41        19.31999
421.85        19.24396
422.30        19.06999
422.74        18.89241
423.19        19.09147
423.64         19.5871
424.08        19.85036
424.53        19.77586
424.98        19.75851
425.42         19.8081
425.87        19.55089
426.31        19.11883
426.76        19.12965
427.21        19.49572
427.65        19.50248
428.10        19.18617
428.54        19.08905
428.99        19.21872
429.44        19.46973
429.88        19.68404
430.33        19.37529
430.77        18.75523
431.22        18.66245
431.66        19.09998
432.11        19.48562
432.56        19.71605
433.00        19.94938
433.45        19.97114
433.89        19.60261
434.34        19.21371
434.78        18.19352
435.23        18.87493
435.67        19.43219
436.12         19.6248
436.57        19.66386
437.01        19.42792
437.46        19.32941
437.90        19.47593
438.35        19.74491
438.79        19.48567
439.24        19.44217
439.68        19.44687
440.13        19.45064
440.57        19.43362
441.02        19.54553
441.46        19.73105
441.91        19.53987
442.35        19.13625
442.80         19.3704
443.24        20.07053
443.69         20.1052
444.13        19.50625
444.58        19.25096
445.02        19.35037
445.47         19.2925
445.91         19.0888
446.36        19.02276
446.80        19.09828
447.24        19.22382
447.69        19.36396
448.13        19.51179
448.58        19.62204
449.02        19.60422
449.47        19.49726
449.91        19.45054
450.36        19.48553
450.80        19.51936
451.25        19.53839
451.69        19.55322
452.13        19.55185
452.58        19.51522
453.02         19.4553
453.47        19.39941
453.91        19.35262
454.36        19.34215
454.80        19.32364
455.24        19.20484
455.69        19.02851
456.13        18.84269
456.58        18.72456
457.02        18.85776
457.46        19.13924
457.91        19.20526
458.35        19.11385
458.79        19.08279
459.24        19.13414
459.68        19.10192
460.13        19.01746
460.57         18.9015
461.01        18.85089
461.46        18.87284
461.90        18.85388
462.34         18.8223
462.79        19.06105
463.23        19.06529
463.68        18.95384
464.12        18.86875
464.56        18.84278
465.01        18.90981
465.45        18.98049
465.89        18.91451
466.34        18.77038
466.78        18.65272
467.22        18.56064
467.67        18.88208
468.11         18.7723
468.55        18.70816
468.99        18.49938
469.44        18.42776
469.88        18.50521
470.32         18.5758
470.77        18.62472
471.21        18.68573
471.65        18.75149
472.10         18.8158
472.54        18.85583
472.98        18.86545
473.42        18.85198
473.87        18.76738
474.31        18.65755
474.75        18.76818
475.20        19.03922
475.64        19.09456
476.08        18.93704
476.52        18.93445
476.97         19.1075
477.41        19.07783
477.85         19.0108
478.29        19.13655
478.74        18.97193
479.18        18.75014
479.62        18.98129
480.06        19.02139
480.50        19.07708
480.95         19.1258
481.39        19.12514
481.83        19.42423
482.27        19.43147
482.72        19.31511
483.16         19.5182
483.60         19.5396
484.04        19.55232
484.48        19.58965
484.93        19.80028
485.37        19.78253
485.81        20.34323
486.25        20.55978
486.69        20.07094
487.14        19.52385
487.58        20.90106
488.02        20.41714
488.46        20.41822
488.90        20.80612
489.34        20.09134
489.79        19.86298
490.23         20.3417
490.67        20.76458
491.11        21.18192
491.55        21.16669
491.99        20.83566
492.43        20.80725
492.88        21.11747
493.32        21.35238
493.76        21.45899
494.20        21.61373
494.64        21.82345
495.08        21.96808
495.52        22.06203
495.96        22.32538
496.41        22.72331
496.85        22.67927
497.29        22.32984
497.73        22.46784
498.17        23.00353
498.61        23.23941
499.05        23.10518
499.49        23.00267
499.93        23.01337
500.37        23.08772
500.82        23.20227
501.26        23.35653
501.70        23.55218
502.14        23.31175
502.58        23.50107
503.02        23.55111
503.46        23.61918
503.90        23.72052
504.34        23.81357
504.78        23.90718
505.22        23.98115
505.66        23.99389
506.10        23.98057
506.54        24.06168
506.98        24.25369
507.42        24.40281
507.86        24.64928
508.30        24.76092
508.74        24.77654
509.18        24.71347
509.62        24.62839
510.06         24.6093
510.50         24.6776
510.94        24.80966
511.38        24.95622
511.82        25.03889
512.26        25.03814
512.70        24.98051
513.14        24.91178
513.58        24.89381
514.02        24.94275
514.46        25.05482
514.90        25.19323
515.34        25.21116
515.78        25.23804
516.22        25.17731
516.66        25.11274
517.10        25.10316
517.54        25.16284
517.98         25.2682
518.42        25.37598
518.86        25.42242
519.30        25.39121
519.74        25.30377
520.18        25.19819
520.62        25.13199
521.06        25.12159
521.50        25.15198
521.93        25.19565
522.37        25.19958
522.81        25.15439
523.25        25.07327
523.69        24.98837
524.13        24.94908
524.57        24.96229
525.01        25.00825
525.45         25.0444
525.89        25.00514
526.32        24.87559
526.76        24.68956
527.20        24.48899
527.64        24.34337
528.08        24.27223
528.52        24.25237
528.96        24.26245
529.40        24.26803
529.83        24.25427
530.27        24.23562
530.71         24.2044
531.15        24.14877
531.59         24.0708
532.03        23.97209
532.46        23.87362
532.90        23.82474
533.34        23.83025
533.78        23.87741
534.22         23.9382
534.66        23.96828
535.09        23.95496
535.53         23.9168
535.97        23.86994
536.41         23.8445
536.85        23.84917
537.28        23.87459
537.72        23.91109
538.16        23.94002
538.60        23.95821
539.04        23.97972
539.47        24.00309
539.91        24.03952
540.35        24.08516
540.79        24.13925
541.22        24.20159
541.66        24.27458
542.10        24.35546
542.54        24.44432
542.97        24.52941
543.41        24.60628
543.85        24.67198
544.29        24.73353
544.72        24.79854
545.16        24.89644
545.60        25.02519
546.04        25.17478
546.47        25.34015
546.91        25.50844
547.35         25.6692
547.79        25.83479
548.22        25.98574
548.66        26.08601
549.10        26.15075
549.53        26.28043
549.97        26.47263
550.41        26.63294
550.84        26.75647
551.28        26.90639
551.72        27.07142
552.15        27.19978
552.59        27.29574
553.03        27.36681
553.46        27.43651
553.90        27.56229
554.34        27.74604
554.77        27.97692
555.21        28.21139
555.65        28.38055
556.08        28.43969
556.52         28.4757
556.96        28.50404
557.39        28.59011
557.83        28.72385
558.27        28.76961
558.70        28.74317
559.14        28.77719
559.57        28.87076
560.01        28.98913
560.45         29.1012
560.88        29.14268
561.32        29.16605
561.75        29.25184
562.19        29.40125
562.63        29.59921
563.06        29.77054
563.50        29.69878
563.93        29.45293
564.37        29.40275
564.80        29.56501
565.24        29.75936
565.68        29.94675
566.11        30.13008
566.55        30.29983
566.98        30.47852
567.42        30.65224
567.85        30.71563
568.29        30.72788
568.72        30.77484
569.16        30.87384
569.60        31.09426
570.03        31.46601
570.47        31.53846
570.90        31.62394
571.34        32.42748
571.77        32.22309
572.21        32.13965
572.64        32.38675
573.08        32.21695
573.51        32.56485
573.95         32.7037
574.38        32.79486
574.82        32.92235
