SpectraSmart Spectrum 2.9.0.0
--------- Device Information -----------
Spectrum Name :  反射率_0
Saving Time :  2024/04/27 22:50:23
Spectro-Module Model Name : SE2030-DUVN
Spectro-Module Serial Number : OS361AC55029948
Wavelength Start : 200
Wavelength End : 1025
Wavelength Unit : Wavelength(nm)
Spectrum Unit : Reflectance(%)
-----------Spectrum Setting ------------
Integration Time : 20ms
Average : 10
Boxcar : 0
Background removal :  enabled
linearity correction :  enabled
SC :  disabled
Intensity correction :  disabled
DWT denoise :  enabled
savitzky-golay :  disabled
FFT :  disabled
Running average :  disabled
Kalman :  disabled
High pass :  disabled
---------------BEGIN--------------------
Wavelength(nm)             Reflectance(%)
200.29               0
200.75       -36.60296
201.21        -15.8978
201.67        5.868864
202.13        18.23154
202.58         24.1632
203.04        27.83289
203.50        32.51484
203.96        40.81137
204.42        51.38327
204.88        62.04617
205.34        70.39347
205.80        75.01486
206.26        76.23433
206.72        73.65351
207.18         67.6491
207.64         64.1797
208.10        67.07134
208.55         73.0041
209.01        75.53199
209.47        71.63617
209.93        58.69976
210.39        23.57346
210.85       -85.97904
211.31       -233.5101
211.77       -86.22489
212.23        19.51415
212.69        57.49117
213.14        67.43041
213.60        63.18711
214.06        47.29143
214.52        17.40577
214.98        -4.71254
215.44        4.849431
215.90        25.66013
216.36        42.48969
216.81         51.0374
217.27         53.4962
217.73        53.25952
218.19        50.96159
218.65        46.76193
219.11         41.0721
219.57        33.56616
220.02        25.05282
220.48        19.98564
220.94        19.97128
221.40        23.63181
221.86        29.81557
222.32          37.238
222.77        44.72633
223.23         51.5232
223.69        56.22017
224.15        57.20901
224.61        54.72355
225.06        49.45235
225.52        42.88856
225.98        38.18851
226.44         36.6184
226.90        36.77048
227.36        37.74083
227.81        38.80316
228.27        39.73119
228.73        40.87315
229.19        41.56767
229.65        40.44724
230.10        37.35839
230.56        33.20314
231.02        29.38106
231.48        27.93491
231.93        28.95179
232.39        31.51867
232.85        34.73235
233.31        37.36521
233.77         39.0503
234.22        40.37136
234.68        40.95449
235.14        40.36455
235.60        38.65164
236.05        35.59093
236.51        32.54204
236.97        32.51597
237.43        36.46207
237.88        43.65256
238.34        51.02457
238.80        55.31815
239.26        55.78414
239.71        52.02487
240.17        44.12095
240.63        39.10612
241.08        43.47486
241.54         52.3923
242.00        59.52211
242.46        61.97396
242.91        60.12344
243.37         53.1083
243.83        37.29193
244.28        16.51972
244.74        14.51841
245.20        31.97231
245.66         47.8336
246.11        53.15096
246.57        49.92117
247.03        39.39836
247.48         21.4277
247.94        8.264665
248.40        13.21163
248.85        28.90221
249.31        45.79148
249.77        56.69279
250.22        61.60312
250.68         63.3575
251.14        63.85549
251.59        64.64619
252.05        66.22276
252.51        68.00269
252.96        68.89713
253.42        67.22493
253.88        62.63886
254.33        57.79452
254.79         54.1504
255.25        51.12108
255.70        48.49704
256.16        46.76764
256.62        46.42294
257.07        48.02954
257.53        51.03657
257.99        54.14384
258.44         56.3855
258.90        57.32728
259.35        56.88004
259.81        55.83895
260.27        54.39236
260.72        52.78598
261.18        51.47781
261.63        50.22185
262.09        49.16787
262.55        48.12781
263.00        47.02368
263.46        46.00674
263.91        45.13664
264.37        44.79224
264.83        44.86496
265.28         45.1622
265.74        45.38831
266.19        44.98814
266.65        43.99359
267.11        42.55525
267.56        41.00489
268.02        39.96177
268.47        39.51493
268.93        39.48026
269.38        39.56877
269.84        39.34911
270.30        38.70549
270.75        37.80104
271.21        36.77756
271.66        35.80153
272.12        34.96296
272.57        34.15281
273.03        33.44035
273.48        32.86486
273.94        32.45743
274.39        32.17737
274.85        31.92279
275.31        31.46036
275.76        30.75513
276.22        29.91521
276.67        29.07326
277.13        28.51418
277.58        28.22447
278.04         28.1374
278.49         28.0555
278.95        27.79654
279.40        27.28046
279.86        26.65543
280.31        25.98216
280.77        25.45786
281.22        25.08963
281.68        24.84705
282.13         24.6802
282.59        24.56472
283.04        24.46202
283.50        24.39402
283.95        24.31654
284.41        24.19087
284.86        24.00282
285.32        23.78698
285.77        23.57049
286.22        23.42716
286.68        23.38433
287.13        23.38715
287.59        23.43879
288.04        23.47347
288.50        23.49726
288.95        23.49373
289.41        23.47851
289.86        23.43123
290.32        23.37383
290.77        23.31259
291.22         23.2599
291.68        23.22872
292.13        23.22598
292.59          23.269
293.04         23.3949
293.50        23.68103
293.95         24.1221
294.40        24.69726
294.86        25.33079
295.31        25.89679
295.77        26.37068
296.22        26.76888
296.68         27.1588
297.13        27.62849
297.58        28.20214
298.04        28.84224
298.49        29.48916
298.95        30.07203
299.40        30.57349
299.85        31.02111
300.31         31.4815
300.76        32.01392
301.21        32.63554
301.67        33.32252
302.12        33.98204
302.58        34.52261
303.03        34.91022
303.48        35.18459
303.94        35.45301
304.39        35.82714
304.84         36.3412
305.30        36.95809
305.75        37.54557
306.20        37.94769
306.66        38.14763
307.11        38.16817
307.57        38.15062
308.02        38.24466
308.47        38.49513
308.93        38.84324
309.38        39.15326
309.83        39.25213
310.29        39.12073
310.74         38.8169
311.19        38.45975
311.65        38.23011
312.10        38.16066
312.55        38.19957
313.00        38.28875
313.46        38.33998
313.91         38.3156
314.36        38.24978
314.82        38.13577
315.27        37.95586
315.72        37.71969
316.18        37.43779
316.63        37.14785
317.08        36.93685
317.53        36.82341
317.99          36.783
318.44        36.77739
318.89        36.72422
319.35        36.59808
319.80        36.41982
320.25        36.21634
320.70        36.03754
321.16         35.8903
321.61        35.76682
322.06        35.63692
322.51        35.45757
322.97        35.21891
323.42        34.95483
323.87        34.69487
324.32        34.49435
324.78        34.36272
325.23        34.28319
325.68        34.23264
326.13        34.18082
326.59        34.09659
327.04        34.00884
327.49        33.87971
327.94        33.65929
328.39        33.34518
328.85        32.94723
329.30        32.54303
329.75        32.24974
330.20        32.10653
330.66        32.07424
331.11        32.11456
331.56        32.10389
332.01        32.00479
332.46        31.84808
332.92        31.65469
333.37        31.50043
333.82        31.39503
334.27        31.30593
334.72         31.2274
335.17        31.15609
335.63        31.07782
336.08        31.02332
336.53        30.94814
336.98        30.78659
337.43         30.5393
337.88        30.23404
338.34         29.9565
338.79        29.85388
339.24        29.95422
339.69        30.20433
340.14        30.51309
340.59        30.73101
341.05        30.80599
341.50        30.78198
341.95        30.67744
342.40        30.53576
342.85        30.38192
343.30        30.20063
343.75        30.02821
344.20        29.92483
344.66        29.90907
345.11        29.97744
345.56        30.07647
346.01        30.11052
346.46        30.05472
346.91        29.92059
347.36        29.78538
347.81        29.77042
348.26        29.89213
348.72        30.11497
349.17        30.31208
349.62        30.28349
350.07        29.99792
350.52        29.52339
350.97        29.04037
351.42        28.83505
351.87         28.9651
352.32        29.33316
352.77        29.75076
353.22        29.92917
353.67        29.79747
354.13        29.45744
354.58        29.02167
355.03        28.72343
355.48        28.62855
355.93        28.66657
356.38        28.73955
356.83         28.6986
357.28        28.50987
357.73        28.23423
358.18        27.95013
358.63        27.77204
359.08         27.7204
359.53        27.73943
359.98        27.76932
360.43        27.72191
360.88        27.57343
361.33        27.36115
361.78        27.08825
362.23         26.7945
362.68        26.50634
363.13        26.14734
363.58         25.7633
364.03        25.76973
364.48        25.62108
364.93        25.73113
365.38        25.82825
365.83        25.75285
366.28        25.46833
366.73         25.0366
367.18        24.56892
367.63         24.2333
368.08        24.07822
368.53        24.04829
368.98        24.07926
369.43        24.06615
369.88        23.97221
370.33        23.83285
370.78        23.65979
371.23        23.47055
371.68        23.27402
372.13        23.05254
372.58        22.82716
373.03        22.63849
373.48        22.49673
373.93        22.40592
374.38        22.32338
374.83        22.17425
375.28        21.94913
375.72        21.66043
376.17        21.40336
376.62        21.28733
377.07        21.32365
377.52        21.45739
377.97        21.59614
378.42        21.59746
378.87        21.43046
379.32        21.15432
379.77        20.82199
380.22        20.51131
380.67        20.25406
381.11        20.02651
381.56        19.85461
382.01        19.78125
382.46        19.80414
382.91         19.9114
383.36        20.02692
383.81        20.02762
384.26        19.88828
384.71        19.64153
385.15        19.35406
385.60        19.16777
386.05        19.10621
386.50        19.13305
386.95        19.19378
387.40        19.20298
387.85        19.14045
388.29        19.02485
388.74        18.91556
389.19        18.85084
389.64        18.83247
390.09        18.82765
390.54        18.80932
390.98        18.73676
391.43        18.61324
391.88        18.46581
392.33        18.29011
392.78        18.10679
393.23        17.93593
393.67        17.69557
394.12        17.45679
394.57        17.52277
395.02        17.58525
395.47         17.5923
395.91        17.46058
396.36        17.40226
396.81        17.42327
397.26        17.39919
397.71        17.33293
398.15        17.29605
398.60        17.30848
399.05        17.27674
399.50        17.22648
399.95        17.30659
400.39        17.46121
400.84        17.43115
401.29        17.21997
401.74        17.00707
402.18         16.8526
402.63        16.78821
403.08        16.80502
403.53        16.79251
403.97          16.747
404.42        16.76446
404.87         16.8283
405.32        16.87671
405.76        16.89642
406.21        16.85723
406.66        16.78846
407.11        16.81919
407.55        16.91137
408.00        16.87676
408.45        16.70885
408.90         16.4589
409.34         16.2154
409.79        16.19427
410.24        16.35433
410.68        16.41535
411.13        16.35549
411.58        16.34802
412.03        16.40607
412.47        16.46336
412.92        16.50625
413.37         16.5551
413.81        16.58683
414.26        16.58191
414.71        16.53502
415.15        16.45268
415.60        16.36096
416.05        16.31432
416.49        16.32919
416.94        16.38896
417.39        16.46116
417.83        16.49508
418.28        16.47293
418.73        16.40357
419.17        16.32211
419.62        16.28801
420.07        16.32102
420.51        16.41019
420.96        16.50349
421.41          16.541
421.85        16.50726
422.30        16.34822
422.74        16.16429
423.19        16.30713
423.64        16.71692
424.08        16.93612
424.53        16.86668
424.98        16.83618
425.42        16.85148
425.87        16.60117
426.31        16.21312
426.76        16.23528
427.21        16.59593
427.65         16.6787
428.10         16.4835
428.54        16.43443
428.99        16.53168
429.44        16.69799
429.88        16.81971
430.33        16.52001
430.77        15.98813
431.22        15.92383
431.66        16.32154
432.11          16.668
432.56        16.87097
433.00        17.07829
433.45         17.1014
433.89          16.776
434.34        16.42149
434.78        15.51446
435.23        16.07595
435.67        16.59886
436.12        16.88126
436.57        17.08332
437.01        17.03341
437.46        16.98912
437.90        17.02937
438.35        17.07846
438.79        16.64352
439.24         16.4782
439.68        16.46372
440.13         16.5242
440.57        16.60405
441.02        16.76492
441.46        16.93812
441.91        16.76324
442.35        16.38922
442.80        16.54923
443.24        17.10107
443.69        17.07616
444.13        16.52729
444.58        16.32229
445.02        16.47344
445.47        16.53261
445.91        16.47832
446.36         16.5071
446.80        16.60835
447.24        16.71684
447.69        16.80916
448.13          16.894
448.58        16.94139
449.02        16.87193
449.47        16.73516
449.91        16.68551
450.36        16.74393
450.80        16.83165
451.25        16.91758
451.69        16.97845
452.13        16.99513
452.58        16.96134
453.02        16.89264
453.47        16.82338
453.91        16.76235
454.36        16.72617
454.80        16.68814
455.24        16.58817
455.69        16.46449
456.13        16.35545
456.58        16.29845
457.02        16.40726
457.46        16.58532
457.91        16.53053
458.35        16.34142
458.79        16.27168
459.24        16.35018
459.68        16.41521
460.13        16.44385
460.57         16.3757
461.01        16.28074
461.46        16.19026
461.90        16.05896
462.34          15.995
462.79        16.25717
463.23        16.38665
463.68        16.43138
464.12        16.43323
464.56         16.3996
465.01        16.38945
465.45        16.35686
465.89        16.22639
466.34        16.06271
466.78        15.94116
467.22        15.85214
467.67        16.11431
468.11        16.00216
468.55        15.92912
468.99        15.73922
469.44        15.67883
469.88        15.75801
470.32        15.84022
470.77        15.90094
471.21        15.95111
471.65        15.98196
472.10        15.99425
472.54        15.98457
472.98        15.97221
473.42        15.96743
473.87        15.92019
474.31        15.85653
474.75        15.96579
475.20        16.19264
475.64        16.22746
476.08        16.07503
476.52        16.05077
476.97         16.1741
477.41         16.1186
477.85        16.04022
478.29        16.15933
478.74        16.06935
479.18        15.95918
479.62        16.22525
480.06        16.25928
480.50         16.2288
480.95        16.13359
481.39        15.99149
481.83        16.17588
482.27        16.20893
482.72        16.20638
483.16        16.48985
483.60        16.54258
484.04        16.46329
484.48        16.39464
484.93        16.53619
485.37        16.38648
485.81        16.58122
486.25        17.42658
486.69        16.71665
487.14         16.3604
487.58        17.54886
488.02         17.3028
488.46        17.21995
488.90        17.43725
489.34        17.00685
489.79        16.80496
490.23         17.1447
490.67        17.45792
491.11        17.81021
491.55        17.83704
491.99        17.62391
492.43        17.65367
492.88        17.94695
493.32        18.17928
493.76        18.30219
494.20        18.44436
494.64        18.61242
495.08        18.71531
495.52        18.76773
495.96        18.95898
496.41        19.27451
496.85        19.20631
497.29        18.89385
497.73        19.06184
498.17        19.62769
498.61        19.93287
499.05        19.88799
499.49        19.85013
499.93        19.88224
500.37         19.9185
500.82        19.96634
501.26         20.0867
501.70        20.29338
502.14        20.15516
502.58         20.3925
503.02        20.47137
503.46        20.51733
503.90        20.55902
504.34        20.58181
504.78        20.62669
505.22         20.6869
505.66        20.71638
506.10        20.73146
506.54        20.81463
506.98        20.97347
507.42        21.08174
507.86        21.27057
508.30        21.35408
508.74        21.36971
509.18        21.32791
509.62        21.26638
510.06        21.24424
510.50        21.27663
510.94        21.34824
511.38        21.43317
511.82        21.48925
512.26        21.50534
512.70        21.49853
513.14        21.48678
513.58        21.48874
514.02        21.51072
514.46        21.55844
514.90        21.62789
515.34        21.63767
515.78        21.70723
516.22        21.73855
516.66         21.7691
517.10        21.79529
517.54        21.81767
517.98        21.83394
518.42        21.84047
518.86        21.83635
519.30        21.82179
519.74        21.79792
520.18        21.77227
520.62        21.75479
521.06        21.74931
521.50        21.75736
521.93        21.77022
522.37        21.76465
522.81        21.73893
523.25        21.69271
523.69        21.64739
524.13        21.63771
524.57        21.66497
525.01         21.7156
525.45        21.74704
525.89        21.69229
526.32        21.53939
526.76        21.32327
527.20        21.09399
527.64        20.93438
528.08        20.86617
528.52          20.861
528.96        20.89172
529.40        20.91381
529.83        20.90885
530.27        20.89404
530.71        20.85802
531.15         20.7829
531.59        20.67168
532.03        20.52724
532.46         20.3849
532.90        20.31664
533.34        20.33124
533.78         20.4091
534.22        20.50293
534.66        20.53885
535.09         20.4978
535.53        20.40478
535.97        20.29479
536.41        20.22696
536.85        20.21771
537.28        20.25116
537.72        20.29888
538.16        20.31256
538.60        20.28469
539.04         20.2402
539.47        20.20536
539.91        20.23007
540.35        20.31728
540.79        20.45061
541.22        20.60087
541.66        20.72382
542.10        20.80518
542.54        20.85988
542.97        20.89795
543.41        20.94792
543.85        21.01542
544.29        21.09274
544.72        21.17857
545.16        21.28756
545.60        21.41342
546.04        21.55573
546.47        21.70406
546.91        21.83457
547.35        21.94141
547.79        22.04104
548.22          22.139
548.66         22.2407
549.10         22.3627
549.53        22.57671
549.97        22.85659
550.41        23.08084
550.84        23.23156
551.28        23.37489
551.72        23.50883
552.15        23.60273
552.59        23.66802
553.03        23.70647
553.46        23.74813
553.90        23.85762
554.34         24.0388
554.77        24.28179
555.21        24.53279
555.65        24.70362
556.08        24.74959
556.52        24.75385
556.96        24.75053
557.39        24.82857
557.83        24.98498
558.27        25.09061
558.70        25.13532
559.14        25.19741
559.57         25.2675
560.01        25.32798
560.45        25.37383
560.88        25.38249
561.32        25.40795
561.75        25.51031
562.19        25.67379
562.63        25.86116
563.06        25.99991
563.50        25.90797
563.93        25.66152
564.37        25.60662
564.80        25.76322
565.24        25.96961
565.68         26.1723
566.11        26.33819
566.55        26.45183
566.98        26.55017
567.42        26.65932
567.85        26.67158
568.29        26.78603
568.72         26.8955
569.16        27.02599
569.60        27.21177
570.03        27.47614
570.47        27.44256
570.90        27.42637
571.34        28.05699
571.77        27.95256
572.21        27.95242
572.64        28.26144
573.08        28.24596
573.51         28.6736
573.95         28.8246
574.38         28.8648
574.82        28.73502
