SpectraSmart Spectrum 2.9.0.0
--------- Device Information -----------
Spectrum Name :  反射率_0
Saving Time :  2024/04/27 22:17:33
Spectro-Module Model Name : SE2030-DUVN
Spectro-Module Serial Number : OS361AC55029948
Wavelength Start : 200
Wavelength End : 1025
Wavelength Unit : Wavelength(nm)
Spectrum Unit : Reflectance(%)
-----------Spectrum Setting ------------
Integration Time : 20ms
Average : 10
Boxcar : 0
Background removal :  enabled
linearity correction :  enabled
SC :  disabled
Intensity correction :  disabled
DWT denoise :  enabled
savitzky-golay :  disabled
FFT :  disabled
Running average :  disabled
Kalman :  disabled
High pass :  disabled
---------------BEGIN--------------------
Wavelength(nm)             Reflectance(%)
200.29               0
200.75       -21.60897
201.21        11.11981
201.67        34.44133
202.13         41.6375
202.58        38.64238
203.04        30.32276
203.50        22.15079
203.96        21.55786
204.42        28.29189
204.88        38.05936
205.34        46.91974
205.80        51.93233
206.26        53.03607
206.72        50.59545
207.18        44.62738
207.64        39.78625
208.10        40.45863
208.55        44.52529
209.01        46.32622
209.47        43.68073
209.93        34.73378
210.39        10.43727
210.85       -63.63988
211.31       -154.2926
211.77       -47.68587
212.23        23.06109
212.69        47.52967
213.14        53.67328
213.60        50.15471
214.06        38.55591
214.52        17.39978
214.98        2.818205
215.44        11.39012
215.90        27.75172
216.36        40.97171
216.81        48.35937
217.27        51.58814
217.73        53.01728
218.19        52.98968
218.65         51.3905
219.11        48.40323
219.57         43.9432
220.02        38.33617
220.48        34.49834
220.94        33.53656
221.40        34.76526
221.86        38.02764
222.32        42.99377
222.77        48.80925
223.23        54.71289
223.69        59.22418
224.15        60.71786
224.61        59.34533
225.06        55.61142
225.52        51.14058
225.98         48.8564
226.44        49.36113
226.90        51.10275
227.36        52.76326
227.81        53.28095
228.27        52.66752
228.73        51.32526
229.19         49.4144
229.65        47.33539
230.10        45.41682
230.56        43.91175
231.02        42.85427
231.48        42.39994
231.93        42.40653
232.39        42.77876
232.85        43.51369
233.31        44.62833
233.77        45.99471
234.22        47.66505
234.68        48.90679
235.14        48.83218
235.60        47.33643
236.05        44.38467
236.51        41.23114
236.97        40.70298
237.43        43.73936
237.88        49.63195
238.34        55.58697
238.80        58.57304
239.26        57.72636
239.71        52.44871
240.17        42.44967
240.63        34.96698
241.08        37.78599
241.54        46.46873
242.00        54.05149
242.46        57.02817
242.91        55.73028
243.37        49.68098
243.83        35.48919
244.28         15.9058
244.74        12.16285
245.20        25.91743
245.66        39.22643
246.11        43.76969
246.57        40.96667
247.03        32.23155
247.48        17.57947
247.94         7.56769
248.40        12.84544
248.85        26.50864
249.31        40.53344
249.77        49.17416
250.22        52.68666
250.68        53.60723
251.14        53.26665
251.59        52.47208
252.05        51.42918
252.51        49.21942
252.96        45.67899
253.42        43.50565
253.88        43.93207
254.33        46.48484
254.79        48.71801
255.25        48.47989
255.70        46.52914
256.16        44.44861
256.62        43.84982
257.07        46.36192
257.53        51.09464
257.99         56.0304
258.44        59.70084
258.90        61.30591
259.35        60.87916
259.81        59.57551
260.27        57.76401
260.72        55.87301
261.18        54.42754
261.63        53.09885
262.09        52.07062
262.55        51.18326
263.00         50.3311
263.46        49.65376
263.91        49.11895
264.37         48.9935
264.83        49.15097
265.28        49.43647
265.74        49.64352
266.19        49.31172
266.65        48.49996
267.11        47.33051
267.56        46.06918
268.02        45.23977
268.47        44.90463
268.93        44.89908
269.38        45.01575
269.84          44.958
270.30        44.61543
270.75        44.09048
271.21        43.38777
271.66        42.45926
272.12        41.37689
272.57        40.13343
273.03        38.94883
273.48        38.08551
273.94        37.63797
274.39        37.46938
274.85         37.4408
275.31         37.2531
275.76        36.81821
276.22         36.2644
276.67        35.62235
277.13        35.04762
277.58        34.52414
278.04        34.05074
278.49        33.56641
278.95        33.11426
279.40        32.63619
279.86        32.19679
280.31        31.74657
280.77        31.33133
281.22        30.91885
281.68        30.56599
282.13        30.23255
282.59        29.91918
283.04         29.6075
283.50        29.31436
283.95        29.08092
284.41        29.01482
284.86        29.09552
285.32        29.29522
285.77         29.4804
286.22         29.5057
286.68        29.35985
287.13        29.05266
287.59        28.71368
288.04        28.46086
288.50        28.35895
288.95        28.34517
289.41           28.36
289.86        28.26073
290.32        28.05255
290.77         27.7821
291.22        27.55941
291.68        27.53551
292.13        27.72777
292.59        28.09793
293.04        28.55182
293.50        28.97036
293.95        29.31165
294.40        29.62891
294.86        29.97457
295.31        30.42303
295.77        30.99952
296.22        31.64738
296.68        32.35759
297.13        33.09211
297.58        33.82992
298.04        34.58093
298.49        35.28474
298.95        35.87545
299.40        36.34702
299.85        36.71869
300.31        37.11307
300.76        37.68314
301.21        38.45599
301.67        39.38067
302.12        40.27369
302.58        40.91449
303.03        41.24478
303.48        41.35759
303.94        41.44416
304.39        41.73388
304.84        42.29216
305.30        43.04228
305.75        43.79873
306.20        44.33556
306.66        44.61526
307.11        44.67998
307.57        44.69545
308.02        44.83715
308.47        45.16047
308.93        45.60003
309.38        45.99839
309.83         46.1623
310.29        46.07198
310.74        45.79015
311.19        45.46838
311.65        45.33645
312.10        45.42588
312.55        45.65842
313.00        45.92388
313.46        46.05632
313.91        46.00046
314.36        45.82053
314.82        45.54567
315.27          45.218
315.72        44.87164
316.18        44.50336
316.63        44.15502
317.08        43.91894
317.53         43.8097
317.99        43.80643
318.44        43.84411
318.89        43.79166
319.35        43.61407
319.80        43.34269
320.25        43.03805
320.70         42.8098
321.16        42.67456
321.61        42.60085
322.06          42.525
322.51        42.35039
322.97        42.05026
323.42        41.68221
323.87        41.28532
324.32        40.93161
324.78        40.64439
325.23        40.40765
325.68        40.22448
326.13        40.10889
326.59        40.03518
327.04        40.02292
327.49        39.99242
327.94        39.82304
328.39        39.48989
328.85        39.01354
329.30        38.50163
329.75        38.11929
330.20         37.9226
330.66        37.85454
331.11        37.86533
331.56        37.80714
332.01        37.63543
332.46        37.39404
332.92        37.10797
333.37        36.86438
333.82        36.67942
334.27        36.52354
334.72        36.39812
335.17        36.31152
335.63        36.24812
336.08        36.23087
336.53        36.21064
336.98        36.11667
337.43        35.93795
337.88        35.69556
338.34        35.44415
338.79        35.28696
339.24        35.24709
339.69        35.29182
340.14        35.37402
340.59        35.41599
341.05          35.391
341.50        35.32847
341.95        35.23167
342.40         35.1149
342.85        34.98792
343.30        34.84018
343.75        34.69601
344.20        34.59732
344.66        34.55614
345.11        34.56546
345.56        34.58246
346.01        34.53326
346.46        34.40265
346.91         34.2061
347.36        34.01274
347.81         33.9272
348.26        33.96851
348.72        34.11124
349.17        34.25659
349.62        34.24909
350.07        34.05892
350.52        33.72872
350.97        33.39877
351.42        33.29248
351.87        33.44892
352.32        33.79188
352.77        34.14396
353.22         34.2356
353.67        34.01118
354.13        33.56997
354.58        33.05647
355.03        32.75444
355.48        32.73655
355.93        32.91924
356.38         33.1554
356.83        33.21684
357.28        33.04916
357.73        32.73038
358.18        32.38127
358.63        32.18467
359.08        32.17756
359.53        32.28535
359.98        32.40422
360.43        32.37914
360.88        32.17181
361.33        31.83843
361.78        31.44177
362.23        31.11134
362.68        30.89331
363.13        30.69379
363.58        30.47959
364.03        30.51932
364.48        30.28087
364.93        30.18889
365.38        30.08854
365.83        29.98702
366.28        29.87629
366.73        29.75639
367.18        29.61842
367.63        29.43961
368.08        29.22309
368.53        28.98047
368.98         28.7418
369.43        28.55369
369.88        28.42854
370.33        28.35449
370.78        28.30742
371.23        28.24689
371.68        28.15511
372.13        28.03511
372.58        27.89752
373.03         27.7606
373.48        27.63204
373.93        27.51393
374.38        27.38372
374.83        27.20685
375.28        26.98279
375.72        26.71156
376.17        26.47631
376.62        26.36265
377.07        26.37586
377.52         26.4736
377.97        26.56395
378.42        26.50328
378.87         26.2672
379.32        25.91832
379.77         25.5286
380.22        25.20453
380.67        24.98148
381.11        24.82594
381.56        24.74123
382.01        24.73296
382.46        24.78489
382.91        24.89094
383.36        24.98688
383.81        24.96987
384.26        24.82193
384.71        24.57276
385.15        24.27818
385.60         24.0665
386.05        23.96027
386.50        23.92927
386.95        23.94573
387.40        23.96225
387.85        23.96321
388.29          23.953
388.74        23.95494
389.19        23.94649
389.64        23.92249
390.09         23.8661
390.54        23.80085
390.98        23.76574
391.43        23.77649
391.88        23.82336
392.33          23.835
392.78        23.74724
393.23        23.57029
393.67        23.23235
394.12        22.86377
394.57        22.91792
395.02        23.00726
395.47        23.04382
395.91        22.91111
396.36        22.87639
396.81        22.93991
397.26        22.94697
397.71        22.88571
398.15        22.82401
398.60        22.79149
399.05        22.67702
399.50        22.54535
399.95        22.63744
400.39        22.88698
400.84        22.93677
401.29        22.76494
401.74        22.56245
402.18        22.39171
402.63        22.30721
403.08        22.29723
403.53        22.21569
403.97        22.06918
404.42        21.99133
404.87        21.98636
405.32        22.01507
405.76         22.0665
406.21        22.08549
406.66        22.09018
407.11        22.21741
407.55        22.40449
408.00        22.41106
408.45        22.21309
408.90        21.85732
409.34        21.46473
409.79        21.32662
410.24        21.42708
410.68        21.46164
411.13        21.41544
411.58        21.50095
412.03        21.69145
412.47         21.8184
412.92         21.8434
413.37        21.81856
413.81        21.75979
414.26        21.71025
414.71        21.67815
415.15        21.65069
415.60        21.62589
416.05        21.61657
416.49        21.62607
416.94        21.65217
417.39         21.6809
417.83        21.68934
418.28        21.66471
418.73        21.59966
419.17        21.52003
419.62        21.47293
420.07         21.4755
420.51        21.52672
420.96        21.56861
421.41        21.53492
421.85        21.41608
422.30        21.14552
422.74        20.85818
423.19         21.0128
423.64         21.5324
424.08        21.82228
424.53          21.765
424.98        21.79075
425.42        21.90436
425.87        21.69155
426.31        21.28441
426.76        21.34675
427.21         21.7794
427.65        21.79078
428.10        21.42403
428.54        21.29552
428.99        21.41581
429.44         21.6533
429.88        21.85587
430.33         21.5204
430.77        20.88269
431.22        20.86973
431.66        21.42857
432.11        21.82506
432.56        21.93055
433.00         21.8847
433.45        21.56459
433.89        21.15751
434.34        21.02599
434.78        20.05966
435.23        20.81596
435.67        21.55537
436.12        21.99376
436.57        22.17765
437.01        21.93983
437.46        21.79911
437.90        21.88066
438.35        22.03214
438.79        21.57583
439.24        21.41911
439.68        21.39264
440.13        21.42596
440.57         21.4732
441.02         21.6472
441.46        21.86998
441.91        21.67231
442.35        21.22857
442.80        21.45239
443.24        22.16305
443.69        22.14988
444.13        21.47652
444.58        21.22214
445.02        21.40271
445.47        21.46399
445.91        21.36915
446.36        21.34412
446.80        21.37977
447.24        21.40279
447.69        21.42553
448.13        21.51823
448.58        21.65134
449.02        21.70028
449.47        21.67426
449.91        21.68599
450.36        21.74325
450.80        21.76918
451.25        21.76715
451.69        21.77556
452.13        21.78916
452.58        21.77806
453.02        21.73863
453.47        21.67774
453.91        21.59655
454.36        21.53162
454.80        21.46109
455.24        21.32416
455.69        21.17462
456.13        21.05354
456.58        21.00469
457.02        21.17071
457.46        21.42587
457.91          21.385
458.35        21.16973
458.79        21.10306
459.24        21.22148
459.68        21.31344
460.13        21.36124
460.57         21.3078
461.01        21.24456
461.46         21.2074
461.90        21.10849
462.34        21.04436
462.79        21.34842
463.23        21.43036
463.68        21.39738
464.12        21.36845
464.56        21.36872
465.01        21.45474
465.45        21.52874
465.89        21.43307
466.34        21.24067
466.78        21.06845
467.22        20.93658
467.67        21.32074
468.11        21.27298
468.55         21.3181
468.99        21.20332
469.44        21.19236
469.88        21.28602
470.32        21.32185
470.77        21.30716
471.21        21.32384
471.65        21.37825
472.10        21.44975
472.54        21.50839
472.98        21.54144
473.42        21.55228
473.87        21.49051
474.31        21.39662
474.75        21.53033
475.20        21.82193
475.64        21.84766
476.08        21.63209
476.52        21.62839
476.97        21.86571
477.41        21.89909
477.85        21.90303
478.29         22.1181
478.74        21.97665
479.18        21.75681
479.62         22.0469
480.06          22.093
480.50        22.13903
480.95        22.16209
481.39        22.13733
481.83        22.50182
482.27        22.57596
482.72        22.54987
483.16        22.90789
483.60        22.98949
484.04        22.96754
484.48        22.96982
484.93         23.2086
485.37        23.06503
485.81        23.52446
486.25        24.16588
486.69        23.79186
487.14        23.24188
487.58         24.2049
488.02        24.18093
488.46        24.42347
488.90        24.54818
489.34        23.97859
489.79        23.72378
490.23        24.50941
490.67        24.90307
491.11         25.0843
491.55        25.07968
491.99        24.98385
492.43         25.0657
492.88        25.34361
493.32        25.59918
493.76        25.78974
494.20        26.03114
494.64        26.33027
495.08        26.56081
495.52        26.73329
495.96        27.09391
496.41         27.5797
496.85        27.56542
497.29        27.20136
497.73        27.29466
498.17        27.80461
498.61        28.22931
499.05        28.41895
499.49        28.45021
499.93        28.39561
500.37        28.40731
500.82        28.51367
501.26        28.71691
501.70        29.03591
502.14        28.87683
502.58        29.25278
503.02         29.3712
503.46        29.40897
503.90        29.41035
504.34        29.38426
504.78         29.4425
505.22          29.585
505.66        29.72802
506.10        29.85521
506.54        30.02213
506.98        30.22549
507.42        30.30469
507.86        30.48342
508.30         30.5512
508.74         30.5789
509.18        30.56402
509.62        30.54146
510.06          30.565
510.50        30.64502
510.94        30.76943
511.38        30.90574
511.82        31.00006
512.26        31.03767
512.70        31.03607
513.14        31.02072
513.58        31.01991
514.02        31.04438
514.46        31.10788
514.90        31.19969
515.34        31.19306
515.78        31.26097
516.22        31.26373
516.66        31.27645
517.10        31.32732
517.54        31.41959
517.98        31.53747
518.42        31.63835
518.86        31.66085
519.30        31.59331
519.74        31.45808
520.18        31.30416
520.62        31.20624
521.06         31.1863
521.50        31.22814
521.93        31.29741
522.37        31.32767
522.81        31.30323
523.25        31.23544
523.69        31.16155
524.13        31.13942
524.57        31.17664
525.01        31.25303
525.45        31.30754
525.89        31.24618
526.32        31.05337
526.76        30.77477
527.20        30.49136
527.64        30.33473
528.08         30.3332
528.52         30.4394
528.96        30.58401
529.40        30.65754
529.83        30.62508
530.27        30.52556
530.71        30.38152
531.15        30.23056
531.59        30.09189
532.03        29.95388
532.46        29.82837
532.90        29.75182
533.34         29.7248
533.78        29.74246
534.22        29.78139
534.66        29.80066
535.09        29.78666
535.53        29.75674
535.97        29.71894
536.41        29.69369
536.85        29.68867
537.28        29.69861
537.72        29.72348
538.16        29.75961
538.60        29.80623
539.04        29.87101
539.47        29.94299
539.91        30.02251
540.35        30.10064
540.79        30.18304
541.22        30.26655
541.66        30.34921
542.10        30.43086
542.54        30.51451
542.97        30.60289
543.41        30.71779
543.85        30.85823
544.29         31.0221
544.72        31.19826
545.16        31.38887
545.60        31.58302
546.04        31.77892
546.47        31.97909
546.91         32.1842
547.35        32.38776
547.79        32.60007
548.22        32.80281
548.66        32.95819
549.10        33.08574
549.53        33.31105
549.97        33.61822
550.41        33.86306
550.84        34.03318
551.28        34.21363
551.72        34.40433
552.15        34.56483
552.59        34.70387
553.03        34.81961
553.46        34.92776
553.90        35.08027
554.34        35.27598
554.77        35.51393
555.21        35.74542
555.65        35.89249
556.08        35.90826
556.52        35.90311
556.96        35.91127
557.39        36.03728
557.83        36.26817
558.27        36.42168
558.70        36.49262
559.14        36.61132
559.57        36.76487
560.01        36.91103
560.45        37.02026
560.88         37.0467
561.32        37.05599
561.75        37.10721
562.19        37.22457
562.63        37.44998
563.06        37.69842
563.50        37.68335
563.93        37.45982
564.37        37.44016
564.80        37.63558
565.24        37.83585
565.68        38.02102
566.11        38.24088
566.55        38.49087
566.98        38.77312
567.42        39.03989
567.85        39.12481
568.29        39.08696
568.72        39.03336
569.16        39.02645
569.60        39.18528
570.03         39.5477
570.47        39.61995
570.90        39.82943
571.34        40.58501
571.77        40.52883
572.21        40.50621
572.64        40.97234
573.08        40.63295
573.51        40.73687
573.95        40.98577
574.38        41.51241
574.82         41.5393
