SpectraSmart Spectrum 2.9.0.0
--------- Device Information -----------
Spectrum Name :  反射率_0
Saving Time :  2024/04/27 22:31:42
Spectro-Module Model Name : SE2030-DUVN
Spectro-Module Serial Number : OS361AC55029948
Wavelength Start : 200
Wavelength End : 1025
Wavelength Unit : Wavelength(nm)
Spectrum Unit : Reflectance(%)
-----------Spectrum Setting ------------
Integration Time : 20ms
Average : 10
Boxcar : 0
Background removal :  enabled
linearity correction :  enabled
SC :  disabled
Intensity correction :  disabled
DWT denoise :  enabled
savitzky-golay :  disabled
FFT :  disabled
Running average :  disabled
Kalman :  disabled
High pass :  disabled
---------------BEGIN--------------------
Wavelength(nm)             Reflectance(%)
200.29               0
200.75       -45.73043
201.21       -29.46249
201.67       -12.24715
202.13       -3.684907
202.58       -1.319551
203.04       -1.666947
203.50      -0.6078618
203.96        5.923495
204.42        16.63747
204.88        28.69882
205.34        38.20814
205.80        42.22113
206.26        40.60956
206.72        32.00305
207.18        17.55647
207.64        11.92056
208.10        22.74751
208.55        39.60518
209.01        49.24521
209.47        47.56023
209.93        32.76088
210.39       -10.58515
210.85       -147.1238
211.31       -325.8638
211.77       -137.4298
212.23       -6.716629
212.69         40.4458
213.14        54.88013
213.60        54.30628
214.06        43.70286
214.52         20.1782
214.98       -3.095066
215.44       -4.594084
215.90        4.376628
216.36        14.62083
216.81        23.30769
217.27        30.58117
217.73        38.69896
218.19         45.8639
218.65        47.89441
219.11        43.69415
219.57         33.7044
220.02        20.60987
220.48        13.69617
220.94        15.98723
221.40        23.63913
221.86        32.70046
222.32        39.20144
222.77        42.67843
223.23        44.61823
223.69        44.88197
224.15        42.88125
224.61         38.9414
225.06        32.94101
225.52        27.26967
225.98        26.28892
226.44        29.90523
226.90        35.20992
227.36        39.55086
227.81        40.93472
228.27        39.51026
228.73        36.09681
229.19        31.23476
229.65         26.3284
230.10        22.34194
230.56        19.39898
231.02        17.51841
231.48        16.71898
231.93        16.75051
232.39        17.52681
232.85        18.92378
233.31        20.68958
233.77        22.61382
234.22        24.78225
234.68        26.38163
235.14        26.55725
235.60        25.20041
236.05        22.14137
236.51         18.8443
236.97        18.46132
237.43        22.02632
237.88        28.84814
238.34        35.56961
238.80        38.32139
239.26        35.94598
239.71        27.21533
240.17        12.44884
240.63        3.764302
241.08         12.2632
241.54        29.44899
242.00         43.7309
242.46        50.53759
242.91        51.35818
243.37        46.49961
243.83        32.85112
244.28        13.89004
244.74        11.12313
245.20        25.34386
245.66        38.09754
246.11         40.7151
246.57        34.34996
247.03        19.87171
247.48       -2.241359
247.94       -14.85479
248.40       -2.243242
248.85        23.48747
249.31         48.3909
249.77        62.56413
250.22        67.02253
250.68        66.70644
251.14         64.0443
251.59        60.40721
252.05        55.85092
252.51        48.49373
252.96        38.49265
253.42        32.61613
253.88        34.29113
254.33        40.44922
254.79        45.44377
255.25        45.20654
255.70        41.01295
256.16         35.7638
256.62        31.50767
257.07         30.4268
257.53        32.12023
257.99        34.65997
258.44        36.98309
258.90        38.46138
259.35        38.91914
259.81        38.94096
260.27        38.50629
260.72        37.57047
261.18        36.50585
261.63        35.25718
262.09         34.0615
262.55        32.93182
263.00        31.84903
263.46        30.89564
263.91        30.09965
264.37         29.7131
264.83        29.65467
265.28        29.78976
265.74        29.92673
266.19        29.71914
266.65        29.17465
267.11        28.39599
267.56        27.51307
268.02        26.81241
268.47        26.33956
268.93        26.01004
269.38        25.79073
269.84        25.64373
270.30        25.52053
270.75        25.42506
271.21        25.24845
271.66        24.78852
272.12        24.04665
272.57        23.07048
273.03        22.05507
273.48        21.24497
273.94        20.74258
274.39        20.44713
274.85        20.27929
275.31        20.07499
275.76        19.77078
276.22        19.42085
276.67        19.03164
277.13        18.66299
277.58        18.29958
278.04         17.9597
278.49        17.57775
278.95        17.13727
279.40        16.62101
279.86        16.10282
280.31        15.65075
280.77          15.439
281.22        15.45313
281.68        15.64175
282.13        15.87717
282.59        15.99621
283.04         15.9615
283.50        15.82144
283.95        15.64107
284.41        15.53717
284.86        15.52778
285.32        15.57893
285.77        15.63046
286.22        15.61325
286.68        15.52996
287.13        15.39122
287.59        15.26513
288.04        15.19221
288.50        15.20594
288.95        15.26884
289.41        15.36147
289.86         15.4267
290.32        15.46498
290.77        15.49539
291.22         15.5462
291.68        15.65498
292.13        15.82966
292.59        16.06775
293.04        16.36069
293.50        16.71219
293.95         17.1113
294.40        17.56447
294.86        18.05973
295.31        18.57456
295.77        19.10531
296.22        19.63437
296.68        20.18122
297.13        20.75533
297.58        21.35901
298.04        21.98651
298.49        22.59418
298.95        23.12402
299.40        23.57641
299.85        23.96894
300.31        24.40195
300.76        24.99433
301.21        25.76081
301.67        26.64576
302.12        27.49862
302.58        28.12893
303.03        28.49139
303.48        28.66112
303.94        28.78191
304.39        29.02997
304.84        29.46143
305.30         30.0215
305.75        30.59578
306.20        31.04396
306.66        31.34367
307.11        31.51774
307.57        31.66454
308.02        31.87157
308.47        32.16879
308.93        32.51028
309.38        32.80424
309.83        32.94096
310.29        32.91238
310.74        32.75409
311.19        32.54609
311.65        32.40874
312.10        32.35936
312.55        32.36642
313.00        32.39906
313.46        32.40978
313.91        32.37517
314.36         32.3171
314.82        32.21545
315.27        32.03162
315.72        31.77016
316.18        31.45004
316.63         31.1217
317.08        30.88913
317.53        30.77258
317.99        30.73849
318.44        30.73594
318.89        30.66261
319.35        30.49163
319.80        30.25827
320.25        29.99398
320.70        29.75572
321.16        29.55515
321.61         29.3732
322.06         29.2048
322.51        29.04851
322.97        28.89297
323.42        28.75385
323.87        28.58968
324.32        28.33819
324.78        27.98733
325.23        27.55604
325.68        27.11238
326.13        26.77634
326.59        26.56726
327.04        26.47931
327.49         26.4156
327.94        26.22006
328.39        25.85395
328.85        25.35464
329.30        24.83776
329.75        24.49846
330.20        24.39374
330.66        24.45722
331.11        24.57875
331.56         24.5326
332.01        24.25785
332.46         23.8157
332.92        23.32109
333.37        22.99832
333.82        22.90687
334.27        22.97653
334.72        23.10328
335.17         23.1178
335.63        22.96133
336.08        22.70489
336.53        22.39635
336.98        22.12257
337.43        21.92209
337.88        21.76867
338.34         21.6585
338.79        21.59131
339.24        21.55833
339.69        21.55808
340.14        21.57323
340.59        21.57129
341.05        21.53798
341.50        21.48068
341.95        21.38113
342.40         21.2249
342.85        21.01595
343.30        20.75947
343.75        20.50165
344.20        20.31482
344.66        20.22292
345.11        20.21503
345.56        20.23662
346.01         20.1943
346.46        20.06628
346.91        19.86934
347.36        19.68488
347.81        19.63771
348.26        19.74463
348.72        19.96629
349.17        20.17432
349.62         20.1653
350.07        19.90188
350.52        19.44532
350.97        18.96881
351.42        18.74933
351.87        18.84251
352.32        19.15757
352.77        19.50656
353.22        19.59964
353.67        19.37628
354.13        18.95107
354.58        18.45955
355.03        18.16774
355.48        18.14761
355.93        18.31156
356.38        18.54988
356.83        18.69583
357.28        18.69715
357.73        18.60849
358.18        18.47724
358.63         18.3727
359.08        18.31368
359.53         18.2653
359.98        18.20619
360.43        18.11202
360.88        17.97846
361.33        17.82269
361.78        17.64464
362.23        17.47769
362.68         17.3384
363.13        17.15014
363.58        16.91493
364.03        17.01805
364.48        16.84215
364.93        16.87011
365.38        16.88774
365.83        16.86249
366.28         16.7778
366.73        16.65293
367.18        16.50854
367.63         16.3648
368.08        16.23207
368.53        16.10013
368.98        15.97551
369.43        15.86767
369.88        15.77843
370.33        15.71491
370.78        15.65039
371.23        15.54016
371.68        15.37537
372.13        15.15981
372.58        14.95284
373.03        14.85086
373.48        14.87278
373.93        14.99941
374.38        15.13009
374.83        15.10458
375.28        14.89718
375.72        14.54718
376.17        14.21413
376.62        14.11229
377.07        14.27266
377.52        14.60312
377.97        14.94661
378.42        15.05939
378.87        14.88917
379.32         14.5355
379.77        14.09855
380.22        13.72593
380.67        13.47001
381.11        13.28154
381.56        13.17559
382.01        13.17684
382.46        13.27113
382.91        13.45483
383.36        13.63498
383.81        13.66026
384.26        13.50406
384.71        13.20606
385.15        12.86489
385.60        12.67278
386.05        12.66499
386.50        12.79065
386.95        12.96714
387.40        13.06139
387.85        13.04372
388.29        12.95642
388.74        12.87141
389.19         12.8592
389.64        12.92911
390.09        13.03384
390.54        13.14108
390.98        13.20342
391.43        13.20579
391.88        13.17114
392.33        13.07899
392.78        12.91858
393.23        12.71078
393.67        12.41575
394.12        12.11947
394.57         12.0778
395.02        12.08942
395.47        12.10789
395.91        12.06665
396.36        12.09149
396.81        12.17306
397.26        12.22394
397.71        12.23249
398.15        12.23098
398.60        12.23213
399.05        12.17624
399.50        12.09124
399.95        12.09676
400.39        12.15895
400.84        12.09408
401.29        11.91421
401.74        11.75708
402.18        11.66506
402.63        11.65834
403.08        11.71348
403.53        11.72344
403.97        11.67917
404.42          11.656
404.87        11.65777
405.32        11.66733
405.76        11.68107
406.21        11.66621
406.66        11.63616
407.11         11.6697
407.55         11.7358
408.00        11.71011
408.45        11.57962
408.90        11.36621
409.34        11.13351
409.79        11.03554
410.24        11.06732
410.68        11.07692
411.13        11.05726
411.58        11.11588
412.03        11.23189
412.47        11.30732
412.92        11.31681
413.37        11.28928
413.81        11.24113
414.26        11.20727
414.71        11.19398
415.15        11.19026
415.60        11.18616
416.05        11.16815
416.49        11.13587
416.94        11.09741
417.39        11.06245
417.83        11.04478
418.28        11.04241
418.73        11.04298
419.17        11.04871
419.62        11.06634
420.07        11.09705
420.51        11.14592
420.96        11.17903
421.41        11.15846
421.85        11.07889
422.30        10.90354
422.74        10.71639
423.19        10.77517
423.64        11.04255
424.08         11.2143
424.53        11.19814
424.98         11.1703
425.42        11.12511
425.87        10.87009
426.31        10.52153
426.76        10.49031
427.21        10.73941
427.65        10.85738
428.10        10.80551
428.54        10.80792
428.99        10.85255
429.44        10.90284
429.88        10.91382
430.33        10.69191
430.77        10.36665
431.22        10.37216
431.66        10.67684
432.11        10.89355
432.56        10.94888
433.00        10.95381
433.45        10.82679
433.89        10.53583
434.34        10.30701
434.78        9.785293
435.23        10.21144
435.67        10.59017
436.12        10.77263
436.57        10.87322
437.01        10.80348
437.46        10.75347
437.90        10.78224
438.35        10.83414
438.79        10.57639
439.24        10.46112
439.68        10.40877
440.13        10.38404
440.57        10.38316
441.02        10.49177
441.46        10.67325
441.91         10.6736
442.35        10.54488
442.80        10.71088
443.24        11.07252
443.69        11.01296
444.13        10.58749
444.58        10.38666
445.02         10.4264
445.47        10.42209
445.91        10.34899
446.36        10.31577
446.80        10.31543
447.24        10.31727
447.69        10.33521
448.13        10.41982
448.58         10.5526
449.02        10.66431
449.47        10.73303
449.91        10.77941
450.36        10.79805
450.80        10.76138
451.25        10.69034
451.69         10.6377
452.13        10.60992
452.58        10.58423
453.02        10.54826
453.47        10.48773
453.91        10.39974
454.36        10.31345
454.80        10.22572
455.24        10.11941
455.69        10.02453
456.13        9.953369
456.58        9.927708
457.02        10.01638
457.46        10.15692
457.91        10.16245
458.35         10.0785
458.79        10.03742
459.24        10.05624
459.68        10.04274
460.13        10.00431
460.57        9.935488
461.01        9.886589
461.46        9.865891
461.90         9.83095
462.34        9.821842
462.79        9.987931
463.23        10.05616
463.68         10.0618
464.12        10.04418
464.56        10.01157
465.01        9.999133
465.45        9.973688
465.89        9.886093
466.34        9.775918
466.78        9.689116
467.22        9.628833
467.67        9.801677
468.11        9.767812
468.55        9.773159
468.99        9.703805
469.44        9.683291
469.88        9.712155
470.32        9.714609
470.77        9.696999
471.21        9.700148
471.65        9.729259
472.10        9.775537
472.54        9.820636
472.98        9.849098
473.42        9.860222
473.87        9.831526
474.31        9.791565
474.75        9.878718
475.20        10.06178
475.64        10.13964
476.08        10.09697
476.52        10.10775
476.97        10.18136
477.41        10.12061
477.85         10.0386
478.29        10.09738
478.74        10.05003
479.18        10.00733
479.62        10.20989
480.06        10.26212
480.50        10.26526
480.95        10.22573
481.39        10.15686
481.83        10.30023
482.27        10.35452
482.72         10.3918
483.16        10.61839
483.60        10.70058
484.04        10.70738
484.48        10.71992
484.93        10.85525
485.37        10.83076
485.81        11.09529
486.25        11.57536
486.69        11.14583
487.14         11.0072
487.58        11.99224
488.02        11.61517
488.46        11.58322
488.90        11.79325
489.34        11.50775
489.79        11.43287
490.23        11.67473
490.67        11.89507
491.11        12.13295
491.55        12.14798
491.99        12.01244
492.43        12.06086
492.88        12.31201
493.32        12.54958
493.76        12.72525
494.20        12.89712
494.64          13.064
495.08        13.17184
495.52        13.24348
495.96        13.42321
496.41        13.72357
496.85        13.75862
497.29        13.61562
497.73        13.79643
498.17        14.24134
498.61        14.48155
499.05        14.45866
499.49        14.44538
499.93        14.49172
500.37         14.5427
500.82        14.60889
501.26        14.73982
501.70        14.94575
502.14        14.90994
502.58         15.1431
503.02        15.21623
503.46        15.21934
503.90        15.18438
504.34        15.13897
504.78        15.17748
505.22        15.30737
505.66        15.47227
506.10        15.64007
506.54        15.80172
506.98        15.94523
507.42        15.99838
507.86        16.08755
508.30        16.11649
508.74        16.12876
509.18        16.11469
509.62        16.10192
510.06        16.13468
510.50        16.21814
510.94        16.34336
511.38         16.4668
511.82        16.51614
512.26        16.47811
512.70        16.37798
513.14        16.26565
513.58        16.21569
514.02        16.24819
514.46        16.35041
514.90        16.48929
515.34        16.55248
515.78        16.61621
516.22        16.62043
516.66         16.6112
517.10        16.61343
517.54        16.63514
517.98        16.66285
518.42         16.6836
518.86        16.68273
519.30        16.65612
519.74        16.61129
520.18        16.55962
520.62        16.51529
521.06        16.48482
521.50         16.4691
521.93        16.46067
522.37        16.43943
522.81        16.40433
523.25        16.35489
523.69        16.31218
524.13         16.3099
524.57        16.34774
525.01        16.41091
525.45        16.45413
525.89        16.40648
526.32        16.25564
526.76        16.03753
527.20        15.80357
527.64        15.63866
528.08        15.56569
528.52        15.55504
528.96        15.58307
529.40        15.61065
529.83        15.61963
530.27        15.62396
530.71         15.6039
531.15        15.52742
531.59        15.39522
532.03        15.21478
532.46        15.03253
532.90        14.93781
533.34        14.94402
533.78        15.02613
534.22        15.12952
534.66        15.16794
535.09        15.12132
535.53        15.02052
535.97         14.9043
536.41        14.83564
536.85        14.83315
537.28        14.87654
537.72        14.94458
538.16        15.00227
538.60         15.0386
539.04        15.06845
539.47        15.09738
539.91        15.14178
540.35        15.20092
540.79        15.27045
541.22         15.3413
541.66         15.4013
542.10         15.4489
542.54        15.49237
542.97        15.53959
543.41        15.61091
543.85        15.70853
544.29        15.82653
544.72         15.9583
545.16         16.1072
545.60        16.26422
546.04        16.42837
546.47        16.59112
546.91        16.73425
547.35        16.85281
547.79        16.95709
548.22        17.05375
548.66        17.15239
549.10         17.2688
549.53        17.46431
549.97        17.71274
550.41        17.90989
550.84        18.04195
551.28        18.16112
551.72        18.28886
552.15        18.43737
552.59        18.61568
553.03        18.80772
553.46        18.99236
553.90        19.15458
554.34        19.28666
554.77        19.40375
555.21        19.50506
555.65        19.59031
556.08        19.64353
556.52        19.70882
556.96        19.78846
557.39        19.91532
557.83         20.0764
558.27        20.18287
558.70        20.23203
559.14        20.29394
559.57        20.36455
560.01         20.4234
560.45        20.47234
560.88        20.50496
561.32        20.56506
561.75         20.6988
562.19        20.87933
562.63        21.05577
563.06        21.16516
563.50        21.06535
563.93        20.83624
564.37        20.78926
564.80        20.94929
565.24        21.17583
565.68        21.40449
566.11        21.59971
566.55         21.7471
566.98        21.82284
567.42        21.86902
567.85        22.01174
568.29        22.24188
568.72         22.3302
569.16        22.31344
569.60        22.45436
570.03        22.76616
570.47        22.87377
570.90        23.04115
571.34        23.41784
571.77        23.53109
572.21        23.57244
572.64        23.87297
573.08        23.79341
573.51        23.84035
573.95        23.98435
574.38        24.23089
574.82        24.31946
