SpectraSmart Spectrum 2.9.0.0
--------- Device Information -----------
Spectrum Name :  反射率_0
Saving Time :  2024/04/27 22:47:04
Spectro-Module Model Name : SE2030-DUVN
Spectro-Module Serial Number : OS361AC55029948
Wavelength Start : 200
Wavelength End : 1025
Wavelength Unit : Wavelength(nm)
Spectrum Unit : Reflectance(%)
-----------Spectrum Setting ------------
Integration Time : 20ms
Average : 10
Boxcar : 0
Background removal :  enabled
linearity correction :  enabled
SC :  disabled
Intensity correction :  disabled
DWT denoise :  enabled
savitzky-golay :  disabled
FFT :  disabled
Running average :  disabled
Kalman :  disabled
High pass :  disabled
---------------BEGIN--------------------
Wavelength(nm)             Reflectance(%)
200.29               0
200.75       -62.27003
201.21       -31.64877
201.67       -7.236897
202.13       0.8272022
202.58       -1.867696
203.04       -10.23394
203.50       -16.04373
203.96       -9.335818
204.42        7.812582
204.88          28.911
205.34        46.07666
205.80        52.87374
206.26        48.83013
206.72        32.40139
207.18        4.250321
207.64        -11.6119
208.10        1.318887
208.55        26.44704
209.01        42.97926
209.47        44.58532
209.93        30.28951
210.39       -15.25617
210.85       -160.2646
211.31       -346.8571
211.77       -143.1227
212.23       -4.314528
212.69        45.07222
213.14        59.47615
213.60        57.56044
214.06        43.70913
214.52        15.25221
214.98       -9.052894
215.44       -5.000151
215.90        10.49821
216.36        24.19829
216.81        31.91768
217.27        34.90557
217.73        36.44343
218.19        36.10352
218.65        32.12265
219.11        24.44451
219.57        13.05996
220.02       0.4645895
220.48       -4.680173
220.94     -0.02790179
221.40        10.42906
221.86        22.74779
222.32        33.16014
222.77        40.78116
223.23         46.3924
223.69        49.29986
224.15        48.44573
224.61        44.30616
225.06        37.27023
225.52        29.85891
225.98        26.94296
226.44        29.10168
226.90        33.43944
227.36         37.5931
227.81        39.86218
228.27        40.25571
228.73        39.48624
229.19        37.48334
229.65        34.22327
230.10        30.11112
230.56        25.71151
231.02        21.80567
231.48        19.48581
231.93        18.81904
232.39        19.47883
232.85        21.11826
233.31         23.1884
233.77        25.38228
234.22        27.84765
234.68        29.95642
235.14        31.10557
235.60        31.25137
236.05        30.27588
236.51        29.18789
236.97        30.00921
237.43        33.30259
237.88        38.59065
238.34        43.62664
238.80        46.15962
239.26        45.64146
239.71         41.4958
240.17        34.07869
240.63        30.30689
241.08        35.96716
241.54        45.81209
242.00        53.57136
242.46        56.79391
242.91         56.2125
243.37        51.55856
243.83        39.85273
244.28        22.42625
244.74         16.6023
245.20        25.67061
245.66        36.19089
246.11        40.94817
246.57        41.07257
247.03         38.9471
247.48        34.87632
247.94        32.92457
248.40        36.23989
248.85        40.97528
249.31        45.90127
249.77        51.02839
250.22        55.60081
250.68        59.30452
251.14        61.19017
251.59        60.01816
252.05        55.69755
252.51        47.50567
252.96        35.65207
253.42        27.60136
253.88        28.39433
254.33        34.94631
254.79        41.74694
255.25        45.10463
255.70        45.61243
256.16        45.22052
256.62        45.14801
257.07         46.5711
257.53        49.20493
257.99        51.76527
258.44        53.35446
258.90        53.56214
259.35        52.39273
259.81        50.69545
260.27        48.79175
260.72        47.07484
261.18        45.91319
261.63        44.94913
262.09        44.18598
262.55        43.30978
263.00        42.25478
263.46        41.25117
263.91        40.36469
264.37         39.9588
264.83        39.95024
265.28          40.125
265.74        40.32013
266.19        40.18875
266.65        39.74156
267.11        39.07053
267.56        38.23058
268.02        37.39862
268.47        36.61016
268.93        35.83759
269.38        35.15526
269.84        34.70291
270.30        34.47076
270.75        34.40462
271.21        34.32161
271.66        33.89254
272.12        33.08009
272.57        31.96201
273.03        30.75447
273.48        29.72417
273.94        29.00042
274.39        28.47166
274.85        28.08454
275.31        27.69281
275.76         27.2386
276.22        26.79118
276.67        26.34394
277.13         25.9584
277.58        25.59957
278.04        25.27988
278.49        24.92368
278.95         24.5248
279.40        24.04597
279.86        23.56076
280.31        23.09098
280.77        22.76864
281.22        22.57524
281.68        22.50104
282.13         22.4683
282.59        22.40145
283.04        22.27075
283.50        22.11077
283.95        21.94469
284.41        21.83762
284.86        21.78795
285.32        21.78256
285.77        21.78228
286.22        21.76083
286.68        21.72473
287.13        21.65965
287.59        21.60075
288.04        21.53042
288.50        21.47972
288.95        21.42983
289.41        21.40283
289.86        21.39377
290.32         21.4174
290.77         21.4635
291.22        21.54095
291.68        21.65677
292.13        21.80372
292.59        21.99512
293.04        22.21201
293.50        22.44619
293.95        22.69121
294.40        22.96314
294.86        23.28629
295.31        23.69154
295.77        24.18926
296.22        24.74839
296.68        25.35242
297.13        25.95261
297.58        26.52639
298.04        27.06784
298.49        27.56144
298.95        27.99908
299.40        28.38616
299.85        28.73857
300.31        29.08834
300.76        29.44751
301.21        29.83509
301.67        30.24829
302.12        30.67882
302.58        31.14921
303.03        31.63137
303.48        32.11234
303.94        32.57566
304.39        32.95272
304.84        33.24835
305.30        33.49321
305.75        33.67008
306.20        33.79227
306.66        33.88465
307.11        33.91801
307.57        33.97195
308.02        34.10426
308.47        34.33239
308.93        34.63354
309.38        34.89304
309.83        34.96079
310.29        34.82238
310.74        34.51291
311.19         34.1558
311.65        33.94642
312.10        33.91447
312.55        34.00788
313.00        34.12821
313.46          34.123
313.91        33.94991
314.36        33.66307
314.82        33.32517
315.27        33.03104
315.72        32.81349
316.18        32.64804
316.63        32.49787
317.08        32.32853
317.53        32.13011
317.99        31.91895
318.44        31.71652
318.89        31.53703
319.35        31.38476
319.80        31.24885
320.25         31.1217
320.70        31.00068
321.16        30.87105
321.61        30.73461
322.06        30.57441
322.51        30.36677
322.97        30.10646
323.42        29.81869
323.87        29.50731
324.32         29.1884
324.78        28.87172
325.23        28.55838
325.68        28.28274
326.13        28.10351
326.59        28.01339
327.04         28.0158
327.49        28.01706
327.94        27.87046
328.39        27.54139
328.85         27.0609
329.30        26.54071
329.75        26.17183
330.20        26.01601
330.66        26.01438
331.11        26.08382
331.56        26.03617
332.01        25.81841
332.46        25.48281
332.92        25.10999
333.37        24.86462
333.82        24.78611
334.27        24.81832
334.72        24.88583
335.17        24.86981
335.63        24.72675
336.08        24.51318
336.53        24.25799
336.98        24.01809
337.43        23.82163
337.88        23.65191
338.34        23.51706
338.79        23.43537
339.24        23.40359
339.69        23.41577
340.14        23.44224
340.59        23.43125
341.05        23.36707
341.50        23.26681
341.95        23.13418
342.40         22.9872
342.85        22.83691
343.30        22.67764
343.75        22.53098
344.20        22.43198
344.66         22.3887
345.11        22.39019
345.56         22.4013
346.01        22.36032
346.46        22.25406
346.91        22.09993
347.36         21.9413
347.81        21.84316
348.26        21.82304
348.72        21.86659
349.17        21.93001
349.62        21.94325
350.07        21.88635
350.52        21.76659
350.97        21.64885
351.42        21.63721
351.87        21.74205
352.32         21.9272
352.77         22.0731
353.22         21.9997
353.67        21.68343
354.13        21.20406
354.58        20.69033
355.03          20.398
355.48        20.39021
355.93        20.59346
356.38        20.87111
356.83        21.00756
357.28        20.94362
357.73         20.7422
358.18        20.49515
358.63        20.34557
359.08        20.32474
359.53        20.37503
359.98        20.42199
360.43        20.35624
360.88        20.15707
361.33        19.87307
361.78        19.55785
362.23        19.32892
362.68          19.225
363.13        19.14182
363.58        19.04414
364.03        19.24944
364.48        19.13523
364.93        19.18517
365.38        19.20262
365.83        19.17444
366.28        19.09049
366.73        18.96248
367.18        18.80256
367.63         18.6197
368.08        18.42752
368.53        18.22909
368.98        18.04926
369.43        17.92401
369.88         17.8596
370.33        17.84785
370.78        17.85298
371.23        17.81597
371.68        17.71544
372.13        17.55609
372.58        17.37052
373.03        17.21378
373.48          17.105
373.93        17.04428
374.38        16.98181
374.83         16.8378
375.28        16.60561
375.72        16.30001
376.17        16.04835
376.62        16.00907
377.07        16.19476
377.52        16.53247
377.97        16.86426
378.42        16.94579
378.87        16.73021
379.32        16.31205
379.77        15.81945
380.22        15.44545
380.67        15.24802
381.11        15.16807
381.56        15.17569
382.01        15.21922
382.46        15.26895
382.91        15.34469
383.36        15.40774
383.81          15.392
384.26        15.28778
384.71        15.10452
385.15        14.89005
385.60        14.75854
386.05        14.72507
386.50        14.76568
386.95        14.83266
387.40        14.84689
387.85        14.79483
388.29        14.70001
388.74        14.61878
389.19        14.59642
389.64        14.63636
390.09        14.70213
390.54        14.77218
390.98        14.81313
391.43        14.81571
391.88        14.79667
392.33        14.72552
392.78        14.58191
393.23         14.3831
393.67        14.08072
394.12        13.77108
394.57        13.74624
395.02        13.77497
395.47        13.80265
395.91        13.74067
396.36        13.71358
396.81        13.71428
397.26        13.66019
397.71        13.56614
398.15        13.50556
398.60        13.49868
399.05        13.46388
399.50        13.41995
399.95        13.48284
400.39        13.60771
400.84        13.59441
401.29        13.43919
401.74        13.26969
402.18        13.13091
402.63        13.05106
403.08        13.03435
403.53        13.01496
403.97        12.99321
404.42        13.03424
404.87        13.11244
405.32        13.15989
405.76         13.1607
406.21        13.09845
406.66        13.00115
407.11         12.9752
407.55        12.99607
408.00         12.9205
408.45        12.75111
408.90        12.53967
409.34         12.3554
409.79        12.35681
410.24        12.51054
410.68        12.59832
411.13        12.59801
411.58        12.64336
412.03        12.72556
412.47        12.76254
412.92        12.73914
413.37        12.68091
413.81          12.607
414.26        12.55663
414.71         12.5356
415.15        12.53533
415.60        12.53846
416.05        12.51806
416.49        12.46968
416.94        12.40192
417.39        12.33287
417.83        12.29088
418.28        12.27571
418.73        12.27023
419.17        12.26494
419.62        12.24759
420.07        12.21965
420.51        12.19856
420.96        12.16696
421.41        12.11205
421.85        12.03404
422.30        11.88115
422.74        11.73198
423.19        11.85208
423.64        12.19476
424.08        12.42572
424.53        12.43951
424.98        12.42693
425.42        12.38266
425.87        12.09455
426.31        11.69273
426.76        11.63424
427.21        11.88088
427.65        11.97645
428.10        11.89724
428.54         11.9148
428.99        12.01459
429.44        12.14546
429.88        12.22601
430.33        11.98713
430.77        11.56979
431.22        11.48211
431.66        11.70838
432.11        11.86088
432.56        11.87591
433.00        11.86349
433.45        11.73486
433.89        11.45128
434.34        11.24793
434.78        10.73538
435.23        11.25552
435.67        11.68889
436.12        11.86602
436.57        11.92222
437.01        11.78488
437.46        11.70376
437.90        11.75125
438.35        11.85181
438.79        11.62864
439.24        11.55525
439.68        11.53566
440.13        11.53727
440.57        11.54289
441.02        11.62807
441.46        11.75384
441.91        11.65129
442.35        11.41284
442.80        11.53659
443.24        11.91831
443.69        11.88741
444.13        11.47462
444.58        11.27257
445.02        11.29047
445.47        11.23178
445.91        11.10139
446.36         11.0643
446.80        11.11977
447.24        11.21328
447.69        11.32511
448.13        11.45831
448.58         11.5812
449.02        11.63646
449.47         11.6253
449.91        11.60761
450.36        11.59124
450.80        11.53744
451.25        11.46394
451.69        11.41908
452.13        11.40599
452.58        11.40355
453.02        11.39732
453.47        11.36872
453.91        11.31135
454.36        11.25237
454.80        11.18437
455.24        11.08381
455.69        10.98337
456.13        10.90122
456.58        10.86251
457.02        10.94444
457.46        11.08185
457.91        11.07164
458.35        10.97484
458.79        10.95203
459.24        11.02103
459.68        11.07346
460.13        11.09714
460.57        11.05543
461.01        10.99764
461.46        10.94284
461.90        10.85847
462.34        10.81403
462.79        10.98249
463.23        11.05623
463.68        11.07106
464.12          11.063
464.56        11.03849
465.01        11.03979
465.45        11.02752
465.89        10.94111
466.34        10.82376
466.78        10.72668
467.22        10.65928
467.67        10.86188
468.11        10.84852
468.55        10.88634
468.99        10.83886
469.44        10.82872
469.88        10.85374
470.32        10.83535
470.77        10.78639
471.21        10.76228
471.65        10.77368
472.10        10.80856
472.54        10.85121
472.98        10.89149
473.42        10.92754
473.87        10.93143
474.31        10.92248
474.75        11.03522
475.20        11.23106
475.64        11.29046
476.08        11.20988
476.52        11.20273
476.97        11.28365
477.41        11.22919
477.85        11.15539
478.29        11.22669
478.74        11.16501
479.18        11.09934
479.62        11.30504
480.06        11.35747
480.50        11.37035
480.95         11.3423
481.39        11.28082
481.83        11.44453
482.27         11.4966
482.72        11.52111
483.16        11.74687
483.60        11.81341
484.04        11.79786
484.48        11.77326
484.93        11.88837
485.37        11.87988
485.81        12.17107
486.25         12.7579
486.69        12.10816
487.14        11.89212
487.58         12.8937
488.02        12.77245
488.46        12.62102
488.90        12.79123
489.34        12.30322
489.79        12.20532
490.23        12.60889
490.67        12.94478
491.11        13.23915
491.55        13.30606
491.99        13.20631
492.43        13.25687
492.88        13.47231
493.32        13.61178
493.76         13.6678
494.20        13.79152
494.64         13.9989
495.08        14.20511
495.52        14.39112
495.96        14.64784
496.41        14.96326
496.85        14.93961
497.29        14.70739
497.73        14.86252
498.17        15.35071
498.61        15.64901
499.05        15.66274
499.49        15.63818
499.93         15.6213
500.37        15.57477
500.82        15.53827
501.26        15.60916
501.70        15.81054
502.14        15.78949
502.58        16.07521
503.02        16.19582
503.46        16.23665
503.90        16.23819
504.34        16.21345
504.78        16.23572
505.22        16.31156
505.66        16.38846
506.10        16.46692
506.54        16.59441
506.98        16.76887
507.42        16.89576
507.86        17.07589
508.30        17.15209
508.74        17.15618
509.18        17.10038
509.62        17.02719
510.06        17.00528
510.50        17.05178
510.94        17.14645
511.38        17.26246
511.82        17.35584
512.26        17.41023
512.70        17.43956
513.14        17.44776
513.58        17.43331
514.02        17.40112
514.46        17.36426
514.90        17.33551
515.34        17.27633
515.78         17.2923
516.22         17.3001
516.66        17.32921
517.10        17.37337
517.54        17.42834
517.98         17.4923
518.42        17.54877
518.86        17.57539
519.30        17.56644
519.74        17.52496
520.18        17.47157
520.62         17.4394
521.06         17.4377
521.50        17.46236
521.93        17.49087
522.37        17.47791
522.81        17.41792
523.25        17.31984
523.69        17.22298
524.13        17.18879
524.57        17.22442
525.01        17.30768
525.45        17.37961
525.89        17.34744
526.32         17.1929
526.76        16.95856
527.20        16.70722
527.64        16.54122
528.08        16.48742
528.52        16.51016
528.96        16.57262
529.40        16.61657
529.83        16.61907
530.27        16.59868
530.71        16.55145
531.15        16.46974
531.59        16.35935
532.03        16.22236
532.46        16.08313
532.90        15.99557
533.34        15.96833
533.78        15.98953
534.22        16.03583
534.66        16.06855
535.09        16.07408
535.53        16.06367
535.97        16.04403
536.41        16.02839
536.85        16.02165
537.28        16.02036
537.72        16.02054
538.16        16.01482
538.60        16.00564
539.04        16.00327
539.47        16.01525
539.91        16.06107
540.35         16.1388
540.79        16.24391
541.22          16.363
541.66        16.47509
542.10        16.57206
542.54        16.65899
542.97        16.73767
543.41        16.82212
543.85        16.91418
544.29        17.01167
544.72        17.11281
545.16        17.22949
545.60        17.35742
546.04        17.49549
546.47        17.64211
546.91        17.78843
547.35        17.92963
547.79        18.07355
548.22        18.21302
548.66         18.3357
549.10        18.45266
549.53        18.63233
549.97        18.85971
550.41        19.04625
550.84        19.18198
551.28        19.31592
551.72        19.45442
552.15        19.58409
552.59        19.71244
553.03        19.83657
553.46        19.95575
553.90        20.08497
554.34        20.22273
554.77        20.37314
555.21        20.52392
555.65        20.65554
556.08         20.7422
556.52        20.83498
556.96        20.93175
557.39        21.06138
557.83        21.21027
558.27        21.28383
558.70        21.29268
559.14        21.33339
559.57         21.4071
560.01        21.48888
560.45        21.56371
560.88        21.59724
561.32        21.63177
561.75        21.72561
562.19         21.8728
562.63        22.05238
563.06        22.20546
563.50        22.17294
563.93        22.00994
564.37        22.00105
564.80        22.15907
565.24        22.34453
565.68        22.52092
566.11        22.68058
566.55        22.81447
566.98        22.94479
567.42        23.06952
567.85        23.11979
568.29         23.1457
568.72        23.21388
569.16         23.3343
569.60        23.54531
570.03         23.8656
570.47        23.96823
570.90        24.10144
571.34        24.74832
571.77        24.68779
572.21        24.72521
572.64        25.01958
573.08        24.90563
573.51         25.1525
573.95        25.32151
574.38        25.44016
574.82        25.80357
