SpectraSmart Spectrum 2.9.0.0
--------- Device Information -----------
Spectrum Name :  反射率_0
Saving Time :  2024/04/27 23:47:10
Spectro-Module Model Name : SE2030-DUVN
Spectro-Module Serial Number : OS361AC55029948
Wavelength Start : 200
Wavelength End : 1025
Wavelength Unit : Wavelength(nm)
Spectrum Unit : Reflectance(%)
-----------Spectrum Setting ------------
Integration Time : 20ms
Average : 10
Boxcar : 0
Background removal :  enabled
linearity correction :  enabled
SC :  disabled
Intensity correction :  disabled
DWT denoise :  enabled
savitzky-golay :  disabled
FFT :  disabled
Running average :  disabled
Kalman :  disabled
High pass :  disabled
---------------BEGIN--------------------
Wavelength(nm)             Reflectance(%)
200.29               0
200.75        43.10553
201.21        72.54276
201.67        89.03556
202.13        86.73067
202.58        72.11456
203.04        51.17607
203.50        31.59337
203.96        25.23304
204.42        32.12383
204.88        45.04165
205.34         58.0265
205.80        66.88006
206.26        71.66493
206.72        74.04745
207.18        73.75456
207.64        70.33002
208.10        65.88577
208.55        62.66534
209.01        59.06363
209.47        52.92498
209.93        41.03081
210.39         12.7496
210.85       -69.64244
211.31       -164.7104
211.77       -42.40513
212.23        35.28086
212.69         62.5933
213.14        71.81074
213.60         73.1909
214.06        69.98698
214.52        60.57882
214.98         48.8248
215.44        44.40881
215.90        44.74739
216.36        47.21785
216.81        50.68446
217.27        54.50043
217.73        59.35979
218.19        63.48266
218.65          63.227
219.11        57.55088
219.57        46.90722
220.02        33.43368
220.48        25.05967
220.94        24.85806
221.40        29.96537
221.86        37.28622
222.32        43.54625
222.77        47.98009
223.23        51.37511
223.69        53.23156
224.15        52.75686
224.61         50.1979
225.06        45.56137
225.52        40.69479
225.98        39.00008
226.44        40.73761
226.90         43.8727
227.36        46.49427
227.81        47.08166
228.27        45.67007
228.73        42.79291
229.19        38.85017
229.65        34.90218
230.10         31.6753
230.56        29.38637
231.02        27.88039
231.48        26.94922
231.93        26.44106
232.39        26.43731
232.85        27.19453
233.31        29.03679
233.77        31.76195
234.22        35.13058
234.68        38.11883
235.14        39.58598
235.60        39.38494
236.05        37.62066
236.51        35.47872
236.97        35.46552
237.43        38.47559
237.88        43.96199
238.34        49.60828
238.80        53.14774
239.26        54.18159
239.71         52.6617
240.17        49.47723
240.63          50.329
241.08        58.14657
241.54        67.51793
242.00        73.96803
242.46        76.62093
242.91        76.44934
243.37        72.89106
243.83        64.06689
244.28        52.82635
244.74         52.5317
245.20        63.36619
245.66        72.10342
246.11        72.66069
246.57        65.64944
247.03        50.40278
247.48        26.11218
247.94        7.365573
248.40        11.35744
248.85          29.924
249.31        50.83689
249.77        64.27393
250.22        70.04918
250.68        71.96786
251.14        72.22258
251.59        72.61086
252.05        73.65663
252.51        74.45556
252.96        74.32675
253.42        72.95387
253.88         70.4771
254.33        68.67414
254.79        67.37573
255.25        65.16534
255.70        62.26969
256.16        59.64237
256.62        58.76564
257.07        61.19745
257.53        65.92657
257.99        70.82991
258.44        73.98765
258.90        74.28617
259.35        71.91309
259.81        68.43705
260.27        64.70078
260.72        61.72826
261.18        60.00224
261.63        58.79619
262.09        57.96658
262.55        56.94895
263.00        55.60881
263.46        54.29768
263.91        53.06496
264.37        52.32249
264.83        51.98323
265.28        51.79739
265.74        51.62928
266.19        51.11348
266.65        50.26484
267.11        49.15503
267.56        47.83503
268.02        46.48825
268.47        45.16199
268.93        43.86588
269.38        42.66493
269.84        41.68468
270.30        40.93559
270.75        40.38234
271.21        39.93817
271.66        39.40826
272.12        38.75441
272.57        37.97718
273.03        37.14485
273.48        36.28907
273.94        35.49485
274.39        34.72842
274.85        34.02777
275.31        33.37135
275.76        32.73472
276.22        32.13749
276.67        31.59528
277.13        31.21903
277.58        30.95436
278.04        30.82007
278.49        30.60855
278.95        30.13298
279.40        29.33982
279.86        28.37177
280.31         27.4397
280.77        26.96762
281.22        26.96062
281.68         27.3035
282.13        27.69276
282.59        27.75683
283.04        27.41667
283.50        26.82043
283.95        26.17752
284.41        25.84494
284.86        25.87595
285.32        26.15808
285.77        26.48411
286.22        26.59838
286.68        26.46899
287.13        26.16624
287.59        25.85944
288.04        25.72051
288.50        25.81955
288.95        26.05517
289.41        26.34959
289.86        26.54527
290.32         26.6297
290.77        26.65546
291.22        26.69756
291.68        26.85465
292.13        27.15244
292.59        27.58487
293.04        28.13347
293.50        28.79347
293.95        29.55513
294.40        30.44738
294.86        31.47769
295.31        32.64272
295.77        33.94788
296.22        35.36348
296.68        36.89737
297.13         38.5307
297.58        40.23704
298.04        41.99858
298.49        43.75012
298.95        45.45024
299.40        47.09642
299.85        48.71262
300.31        50.39012
300.76        52.20987
301.21        54.17905
301.67         56.2743
302.12         58.3461
302.58        60.26131
303.03        61.97292
303.48        63.56261
303.94        65.20343
304.39        67.06665
304.84        69.20792
305.30        71.55991
305.75        73.93514
306.20        76.14706
306.66        78.15802
307.11        79.96861
307.57        81.68845
308.02        83.36324
308.47        85.02975
308.93        86.66584
309.38        88.17834
309.83        89.53713
310.29         90.7692
310.74        91.88528
311.19        92.96973
311.65        94.11881
312.10        95.31174
312.55        96.51261
313.00        97.66676
313.46        98.70246
313.91        99.58506
314.36        100.3576
314.82        101.0212
315.27        101.5726
315.72        102.0278
316.18         102.405
316.63        102.7536
317.08        103.1917
317.53        103.7428
317.99        104.3732
318.44        105.0162
318.89        105.5304
319.35         105.877
319.80        106.1024
320.25         106.266
320.70         106.476
321.16        106.7524
321.61          107.08
322.06        107.4155
322.51        107.7009
322.97        107.9019
323.42        108.0767
323.87        108.2317
324.32         108.396
324.78        108.5657
325.23        108.7715
325.68        108.9895
326.13        109.2099
326.59        109.4074
327.04        109.6419
327.49        109.9075
327.94        110.2296
328.39        110.6126
328.85        111.0067
329.30        111.4653
329.75        111.9165
330.20         112.335
330.66        112.6895
331.11        113.0353
331.56        113.3426
332.01        113.6275
332.46        113.9052
332.92        114.1419
333.37        114.4409
333.82        114.7642
334.27        115.0976
334.72        115.4847
335.17        115.9938
335.63        116.5989
336.08        117.3408
336.53         118.062
336.98        118.5473
337.43        118.7583
337.88        118.7584
338.34        118.7183
338.79        118.9856
339.24        119.6159
339.69        120.5021
340.14         121.469
340.59        122.2223
341.05        122.6832
341.50        122.9741
341.95        123.1634
342.40        123.3766
342.85        123.6705
343.30        123.9792
343.75        124.3837
344.20        125.0214
344.66        125.8864
345.11        126.9346
345.56        127.9211
346.01        128.4433
346.46        128.4381
346.91        128.0392
347.36        127.5583
347.81        127.4847
348.26        127.9264
348.72        128.7271
349.17        129.6378
349.62        130.2789
350.07        130.5314
350.52        130.5172
350.97        130.3523
351.42         130.217
351.87        130.1765
352.32         130.163
352.77        130.1427
353.22        130.0808
353.67         129.955
354.13         129.788
354.58        129.5602
355.03        129.2939
355.48         128.984
355.93        128.6249
356.38        128.1628
356.83        127.5155
357.28        126.6926
357.73        125.7514
358.18        124.8044
358.63        124.0176
359.08        123.4323
359.53        122.9976
359.98        122.6446
360.43         122.261
360.88        121.7946
361.33        121.2573
361.78        120.6491
362.23        119.9674
362.68        119.2176
363.13        118.4177
363.58        117.5673
364.03        116.5936
364.48        115.6438
364.93        114.6434
365.38        113.6886
365.83        112.8586
366.28        112.1671
366.73        111.5864
367.18        111.0575
367.63        110.4843
368.08        109.8385
368.53        109.1476
368.98        108.4325
369.43        107.7324
369.88        107.0593
370.33        106.3876
370.78        105.7274
371.23        105.1026
371.68        104.5038
372.13        103.9182
372.58        103.2962
373.03        102.5559
373.48        101.6919
373.93        100.7506
374.38        99.78904
374.83        98.88882
375.28         98.0856
375.72        97.34885
376.17        96.72769
376.62        96.22055
377.07        95.81188
377.52        95.47826
377.97        95.17097
378.42        94.81734
378.87        94.39125
379.32        93.90708
379.77         93.3659
380.22        92.77052
380.67        92.13415
381.11        91.47127
381.56        90.82011
382.01        90.25752
382.46        89.81502
382.91        89.48188
383.36        89.23147
383.81        89.01329
384.26        88.79632
384.71        88.57502
385.15        88.32344
385.60        88.06519
386.05        87.77988
386.50        87.47105
386.95        87.11951
387.40        86.70728
387.85        86.25378
388.29        85.72803
388.74        85.29314
389.19        84.98061
389.64        84.77621
390.09        84.62067
390.54        84.45692
390.98        84.17541
391.43        83.82401
391.88        83.45358
392.33        83.02275
392.78        82.60795
393.23        82.26904
393.67        81.62514
394.12        80.91531
394.57        81.46723
395.02        81.84409
395.47         81.8291
395.91        81.09634
396.36        80.75511
396.81        80.84769
397.26        80.75199
397.71         80.4537
398.15        80.17912
398.60        80.01142
399.05        79.74651
399.50        79.45466
399.95        79.37414
400.39        79.43167
400.84        79.28252
401.29        78.89602
401.74        78.31786
402.18        77.69694
402.63        77.39449
403.08        77.41702
403.53        77.34043
403.97         77.1528
404.42         77.1765
404.87        77.32404
405.32        77.37169
405.76        77.28235
406.21        76.95418
406.66        76.52747
407.11        76.59086
407.55        77.01301
408.00        76.91101
408.45        76.30714
408.90        75.69091
409.34        75.29118
409.79         75.4873
410.24        76.09323
410.68        76.31294
411.13        76.06374
411.58        75.83748
412.03        75.71792
412.47        75.62086
412.92          75.553
413.37        75.56062
413.81        75.58415
414.26        75.59071
414.71         75.5489
415.15        75.48784
415.60        75.41359
416.05        75.40327
416.49        75.47523
416.94        75.59112
417.39        75.70103
417.83         75.7262
418.28        75.64587
418.73        75.47588
419.17        75.28458
419.62         75.1857
420.07        75.21585
420.51        75.34119
420.96        75.49827
421.41        75.57082
421.85        75.50659
422.30        75.28381
422.74         75.0268
423.19        75.21095
423.64        75.72663
424.08        76.09376
424.53         76.1846
424.98        75.80862
425.42        76.16185
425.87          75.778
426.31        75.20843
426.76        75.35243
427.21        76.06208
427.65        76.10805
428.10        75.53951
428.54        75.42416
428.99        75.80509
429.44        76.22026
429.88        76.48168
430.33        76.28398
430.77        75.73885
431.22        75.64236
431.66        75.98325
432.11         76.2122
432.56        76.34641
433.00        76.59456
433.45        76.74094
433.89        76.85888
434.34        77.00439
434.78        75.78972
435.23          76.198
435.67        75.76689
436.12        77.47195
436.57        77.47598
437.01        76.65543
437.46        76.25106
437.90        76.85685
438.35        77.04996
438.79        76.98546
439.24        76.95756
439.68        77.04529
440.13        77.08298
440.57        77.11668
441.02        77.64313
441.46        78.37251
441.91        78.17654
442.35        77.27418
442.80        77.23403
443.24        77.93478
443.69        78.16451
444.13        77.85045
444.58        77.74484
445.02        77.79965
445.47        77.75443
445.91        77.71124
446.36        77.66513
446.80        77.54775
447.24        78.40345
447.69        78.63866
448.13        78.41124
448.58        79.23625
449.02        79.03283
449.47        78.55195
449.91        78.31955
450.36        78.44003
450.80        78.55108
451.25        78.59712
451.69        78.65272
452.13        78.67679
452.58        78.59003
453.02        78.42868
453.47        78.28587
453.91        78.17834
454.36        78.19655
454.80        78.20617
455.24        77.89751
455.69        77.43038
456.13        76.97128
456.58        76.71397
457.02        77.23753
457.46        78.10383
457.91        77.90934
458.35        77.01763
458.79        76.62178
459.24        76.88741
459.68        76.78627
460.13          76.284
460.57        76.51212
461.01        76.35506
461.46        75.94136
461.90        76.08965
462.34        76.11622
462.79        76.28576
463.23        76.16224
463.68         75.8417
464.12        75.60999
464.56        75.56637
465.01        75.92327
465.45         76.3284
465.89        76.28727
466.34        75.92635
466.78         75.3228
467.22        74.56824
467.67        75.65104
468.11        75.28929
468.55        75.35085
468.99         74.9213
469.44        74.79068
469.88        74.95551
470.32        74.97588
470.77        74.85764
471.21        74.77962
471.65        74.74689
472.10        74.72255
472.54        74.65539
472.98        74.54899
473.42         74.4158
473.87        74.17838
474.31        73.89774
474.75        74.02269
475.20        74.42274
475.64        74.43134
476.08         74.0782
476.52        73.94292
476.97        74.01723
477.41        74.05845
477.85        74.03664
478.29        73.69201
478.74        73.78953
479.18        73.33357
479.62        73.68787
480.06          73.692
480.50         73.6497
480.95        73.80233
481.39        74.08128
481.83         73.8564
482.27         73.7021
482.72        73.74008
483.16        73.36987
483.60        73.16833
484.04         73.1519
484.48        73.29476
484.93        73.77971
485.37         73.6163
485.81         73.2976
486.25        74.20403
486.69        74.93746
487.14        73.89802
487.58        73.63963
488.02         74.5202
488.46        73.76917
488.90        73.60232
489.34        73.25348
489.79        72.42012
490.23        73.16051
490.67        73.17148
491.11        73.03606
491.55        72.86721
491.99        72.72347
492.43        72.64301
492.88        72.61741
493.32        72.62125
493.76        72.61937
494.20        72.67854
494.64        72.81564
495.08        72.87479
495.52        72.88838
495.96        73.24316
496.41        73.77889
496.85        73.66472
497.29        73.03032
497.73        72.92063
498.17         73.2209
498.61        73.43924
499.05         73.4034
499.49         73.1363
499.93        72.77433
500.37        72.60057
500.82        72.59976
501.26         72.7648
501.70        73.15632
502.14        72.37357
502.58        73.00024
503.02        73.01166
503.46        72.86231
503.90        72.71966
504.34         72.5592
504.78        72.52634
505.22         72.5929
505.66         72.6208
506.10        72.60568
506.54        72.66969
506.98        72.80669
507.42        72.86359
507.86         72.9567
508.30        72.94263
508.74        72.86187
509.18        72.72062
509.62        72.56179
510.06        72.45574
510.50        72.42127
510.94        72.43932
511.38        72.49096
511.82        72.54157
512.26         72.5736
512.70        72.59942
513.14        72.61036
513.58        72.56345
514.02        72.45758
514.46        72.35818
514.90        72.30676
515.34        72.11616
515.78        72.21579
516.22        72.25274
516.66        72.34341
517.10         72.4629
517.54        72.59637
517.98        72.73592
518.42        72.83846
518.86        72.84824
519.30        72.75729
519.74        72.58657
520.18        72.38689
520.62        72.23933
521.06        72.16982
521.50        72.16227
521.93        72.19908
522.37        72.23151
522.81        72.24991
523.25        72.26595
523.69        72.28336
524.13        72.30703
524.57        72.33523
525.01        72.35634
525.45        72.36429
525.89        72.35436
526.32        72.31906
526.76        72.27657
527.20        72.22089
527.64        72.15076
528.08        72.07014
528.52          71.981
528.96        71.90285
529.40        71.86398
529.83        71.86234
530.27        71.90547
530.71        71.95495
531.15         71.9595
531.59        71.90956
532.03        71.81844
532.46        71.72035
532.90        71.69495
533.34        71.74774
533.78        71.85046
534.22        71.95486
534.66        71.98868
535.09        71.92834
535.53        71.82281
535.97        71.69341
536.41        71.58997
536.85        71.53091
537.28        71.50343
537.72        71.50658
538.16        71.52943
538.60        71.56512
539.04        71.62858
539.47        71.68272
539.91        71.70945
540.35        71.68768
540.79        71.64285
541.22        71.57691
541.66        71.50636
542.10        71.43712
542.54        71.36114
542.97        71.30177
543.41        71.33505
543.85        71.45097
544.29        71.63655
544.72        71.80185
545.16        71.84174
545.60         71.7253
546.04        71.48512
546.47        71.22646
546.91        71.13913
547.35        71.24873
547.79         71.4769
548.22         71.7036
548.66        71.80586
549.10        71.74517
549.53        71.62139
549.97        71.48839
550.41        71.38638
550.84        71.33997
551.28        71.34985
551.72        71.41856
552.15        71.51187
552.59        71.58002
553.03         71.8083
553.46        71.60224
553.90        71.62645
554.34        71.69408
554.77        71.74883
555.21        71.74643
555.65        71.66911
556.08         71.4555
556.52        71.30704
556.96        71.23354
557.39        71.28012
557.83        71.42561
558.27        71.49393
558.70        71.46704
559.14        71.45067
559.57        71.41547
560.01        71.37527
560.45        71.32044
560.88        71.10783
561.32        70.88197
561.75        70.98909
562.19        71.36374
562.63        71.48798
563.06        71.33124
563.50        71.21661
563.93         71.1748
564.37        71.15015
564.80        71.14163
565.24        71.24923
565.68        71.41177
566.11        71.48977
566.55        71.51332
566.98         71.4935
567.42        71.48182
567.85        71.62303
568.29        71.88692
568.72         71.7801
569.16        71.40881
569.60        71.41838
570.03        71.85011
570.47        71.70612
570.90        71.77719
571.34         72.3679
571.77        71.91069
572.21        71.76659
572.64        72.18927
573.08        72.15981
573.51        71.69225
573.95        71.85088
574.38        72.27875
574.82        71.94543
