SpectraSmart Spectrum 2.9.0.0
--------- Device Information -----------
Spectrum Name :  反射率_0
Saving Time :  2024/04/28 00:04:44
Spectro-Module Model Name : SE2030-DUVN
Spectro-Module Serial Number : OS361AC55029948
Wavelength Start : 200
Wavelength End : 1025
Wavelength Unit : Wavelength(nm)
Spectrum Unit : Reflectance(%)
-----------Spectrum Setting ------------
Integration Time : 20ms
Average : 10
Boxcar : 0
Background removal :  enabled
linearity correction :  enabled
SC :  disabled
Intensity correction :  disabled
DWT denoise :  enabled
savitzky-golay :  disabled
FFT :  disabled
Running average :  disabled
Kalman :  disabled
High pass :  disabled
---------------BEGIN--------------------
Wavelength(nm)             Reflectance(%)
200.29               0
200.75        64.80225
201.21        42.24751
201.67        30.05002
202.13        31.79991
202.58        42.50802
203.04        58.53631
203.50        75.07207
203.96        84.27682
204.42        85.35348
204.88         82.3164
205.34        79.26298
205.80        80.34446
206.26        86.58263
206.72        98.42448
207.18        115.8579
207.64         125.559
208.10        118.0694
208.55        104.6231
209.01        93.42453
209.47        85.35688
209.93         77.2203
210.39        61.42436
210.85        20.44211
211.31         -12.037
211.77        58.53292
212.23        95.86021
212.69        106.7681
213.14        107.7984
213.60        102.5706
214.06        89.89532
214.52        66.18719
214.98          44.172
215.44        43.67628
215.90        54.13868
216.36        64.42828
216.81        69.99066
217.27        71.87137
217.73         72.6826
218.19         72.3256
218.65        70.00221
219.11        65.80174
219.57        59.33547
220.02        52.56991
220.48        51.80112
220.94        58.01677
221.40        68.05809
221.86        77.70699
222.32        83.07418
222.77        84.18633
223.23        82.73869
223.69         80.1497
224.15        77.68384
224.61        75.61206
225.06        73.50606
225.52        71.45602
225.98        69.59185
226.44        68.25951
226.90        67.40165
227.36        67.16048
227.81        67.58405
228.27        68.53506
228.73        69.83437
229.19        70.64549
229.65        69.38258
230.10         65.7761
230.56        60.95955
231.02        56.23344
231.48        53.38586
231.93        52.64671
232.39        53.41281
232.85        55.24931
233.31        57.60812
233.77        60.09903
234.22        62.84817
234.68        65.16761
235.14        66.19141
235.60        65.87194
236.05        64.27201
236.51         62.3505
236.97        62.35958
237.43        65.04138
237.88        69.78738
238.34        74.72474
238.80        78.19342
239.26        79.95029
239.71        80.45618
240.17        79.53239
240.63        78.47512
241.08        78.79418
241.54        79.61395
242.00        80.41498
242.46        80.94378
242.91        81.42734
243.37        82.05744
243.83        84.14936
244.28        90.98902
244.74        100.8228
245.20        106.7762
245.66        107.5022
246.11        105.9907
246.57        103.0684
247.03        97.03213
247.48        87.24573
247.94        78.68353
248.40        78.35552
248.85         84.5697
249.31        93.00069
249.77        99.19978
250.22         102.594
250.68        104.6148
251.14         105.838
251.59        106.9625
252.05         108.435
252.51        109.9436
252.96        110.9653
253.42        110.6338
253.88        108.4638
254.33        105.4875
254.79        103.0108
255.25         100.393
255.70          97.376
256.16        94.86098
256.62        93.14209
257.07        92.67789
257.53        93.57375
257.99        94.68941
258.44        95.08242
258.90        94.62438
259.35        92.97411
259.81        91.05679
260.27        88.98618
260.72        86.99683
261.18        85.61218
261.63        84.30315
262.09        83.25644
262.55        82.08102
263.00        80.63315
263.46        79.22381
263.91          77.799
264.37        76.79885
264.83        76.12261
265.28        75.56476
265.74        75.03472
266.19        74.07903
266.65        72.75716
267.11        71.12134
267.56        69.32344
268.02        67.73653
268.47        66.40585
268.93        65.28091
269.38        64.22678
269.84        63.07829
270.30        61.78864
270.75        60.42546
271.21        59.10232
271.66         57.9106
272.12        56.89676
272.57        55.96348
273.03        55.07273
273.48        54.07092
273.94         53.0041
274.39        51.87521
274.85        50.80587
275.31        49.84024
275.76        48.96215
276.22        48.19267
276.67        47.45633
277.13        46.79571
277.58        46.13141
278.04        45.52657
278.49        44.87929
278.95        44.19728
279.40        43.41521
279.86        42.61638
280.31        41.81051
280.77        41.17298
281.22        40.66755
281.68        40.31469
282.13        39.98224
282.59        39.57196
283.04        39.03305
283.50        38.43785
283.95         37.8654
284.41          37.499
284.86        37.34735
285.32        37.38611
285.77        37.47247
286.22        37.46303
286.68        37.34207
287.13         37.1025
287.59        36.88675
288.04        36.81787
288.50        36.94588
288.95        37.17747
289.41        37.39667
289.86        37.36522
290.32        37.09307
290.77        36.67369
291.22        36.29375
291.68        36.21285
292.13        36.48814
292.59        37.07118
293.04         37.8688
293.50        38.76442
293.95        39.69542
294.40        40.70148
294.86        41.80315
295.31        43.01963
295.77        44.35922
296.22        45.77568
296.68        47.23484
297.13        48.66126
297.58        50.03461
298.04        51.37578
298.49        52.71392
298.95        54.14939
299.40        55.70235
299.85        57.36876
300.31        59.13906
300.76         60.9263
301.21        62.70553
301.67        64.50852
302.12        66.29077
302.58        68.09208
303.03        69.87865
303.48        71.66003
303.94        73.49857
304.39        75.39478
304.84        77.37593
305.30        79.44656
305.75        81.49305
306.20        83.44566
306.66        85.31046
307.11        87.05836
307.57        88.78879
308.02        90.52248
308.47          92.284
308.93        94.05621
309.38        95.73899
309.83        97.29862
310.29        98.75182
310.74        100.0944
311.19        101.3794
311.65        102.6583
312.10        103.9014
312.55        105.0889
313.00        106.2073
313.46        107.2505
313.91        108.2017
314.36        109.0924
314.82        109.9007
315.27         110.582
315.72        111.1397
316.18        111.6046
316.63        112.0402
317.08        112.5892
317.53         113.278
317.99        114.0573
318.44        114.8413
318.89         115.459
319.35         115.866
319.80        116.1251
320.25        116.3085
320.70        116.5445
321.16        116.8618
321.61        117.2381
322.06        117.6452
322.51        118.0491
322.97        118.4141
323.42        118.7997
323.87         119.163
324.32        119.4532
324.78        119.6469
325.23        119.7942
325.68        119.9384
326.13        120.1896
326.59        120.5434
327.04        121.0223
327.49         121.533
327.94        121.9594
328.39        122.2709
328.85         122.466
329.30        122.6737
329.75        122.9324
330.20        123.2679
330.66        123.6182
331.11        124.0418
331.56         124.503
332.01        124.9986
332.46        125.5379
332.92        126.0334
333.37        126.5075
333.82        126.8904
334.27        127.1935
334.72        127.4804
335.17        127.8635
335.63        128.3456
336.08        128.9645
336.53        129.6236
336.98        130.2098
337.43        130.6882
337.88        131.0803
338.34        131.4358
338.79        131.9043
339.24        132.4881
339.69        133.1464
340.14        133.7772
340.59        134.2186
341.05        134.4481
341.50        134.5469
341.95        134.6271
342.40        134.8775
342.85        135.3501
343.30        135.9763
343.75        136.6974
344.20        137.4174
344.66        138.0867
345.11        138.7159
345.56        139.2532
346.01        139.6144
346.46        139.7966
346.91        139.8267
347.36        139.8028
347.81        139.8836
348.26        140.1077
348.72        140.4354
349.17         140.794
349.62        141.0866
350.07        141.2688
350.52        141.3611
350.97         141.369
351.42        141.3025
351.87        141.1701
352.32        140.9693
352.77        140.7002
353.22        140.3683
353.67         139.982
354.13        139.5618
354.58        139.1109
355.03        138.6983
355.48        138.3275
355.93        137.9722
356.38        137.5786
356.83        137.0598
357.28        136.3979
357.73        135.6324
358.18        134.7954
358.63         133.932
359.08        133.0746
359.53        132.2252
359.98        131.4135
360.43        130.6882
360.88        130.0426
361.33        129.4366
361.78         128.843
362.23        128.2031
362.68        127.4882
363.13        126.7446
363.58        125.9094
364.03        124.7711
364.48        123.5328
364.93        122.1008
365.38        120.7083
365.83        119.6294
366.28        118.9157
366.73        118.4757
367.18        118.1371
367.63        117.6158
368.08        116.8347
368.53        115.8887
368.98        114.8633
369.43        113.9002
369.88        113.0527
370.33          112.26
370.78        111.5416
371.23        110.9395
371.68        110.4344
372.13        110.0108
372.58        109.5599
373.03        108.8972
373.48        107.9915
373.93        106.9098
374.38        105.7664
374.83         104.743
375.28        103.8993
375.72        103.1731
376.17        102.5725
376.62        102.0279
377.07         101.509
377.52        101.0231
377.97        100.5501
378.42        100.0573
378.87        99.53294
379.32        98.97626
379.77        98.38201
380.22        97.74588
380.67        97.07188
381.11        96.37244
381.56        95.67678
382.01        95.04649
382.46        94.51342
382.91        94.08028
383.36        93.72209
383.81        93.38922
384.26         93.0612
384.71        92.73817
385.15        92.42706
385.60        92.20463
386.05        92.04668
386.50        91.92103
386.95        91.75451
387.40        91.44738
387.85        90.99279
388.29        90.38406
388.74         89.8027
389.19        89.28977
389.64        88.85378
390.09        88.45245
390.54        88.06532
390.98        87.64135
391.43        87.23586
391.88        86.87082
392.33        86.50417
392.78        86.15464
393.23        85.85075
393.67        85.37839
394.12        84.88473
394.57        85.21072
395.02        84.99505
395.47        85.08752
395.91        84.72714
396.36        84.57836
396.81        84.53276
397.26        84.41898
397.71        84.22661
398.15        83.96918
398.60        83.73633
399.05        83.44511
399.50        83.16241
399.95        82.96815
400.39        82.86236
400.84        82.84794
401.29         82.8364
401.74        82.42265
402.18        81.73006
402.63        81.42049
403.08        81.50163
403.53        81.38211
403.97        81.05157
404.42        80.90385
404.87         80.8994
405.32        80.84377
405.76         80.7076
406.21        80.46225
406.66        80.18015
407.11        80.15105
407.55        80.31879
408.00        80.25816
408.45        79.94099
408.90        79.43982
409.34        78.89944
409.79        78.73248
410.24         78.8909
410.68        78.92467
411.13        78.80361
411.58        78.82547
412.03        78.97392
412.47        79.06689
412.92        79.05081
413.37        78.99541
413.81        78.89036
414.26        78.78226
414.71        78.66467
415.15        78.54787
415.60        78.42362
416.05        78.35199
416.49        78.35373
416.94         78.4077
417.39        78.49222
417.83        78.56643
418.28        78.60552
418.73        78.59286
419.17        78.55405
419.62        78.53972
420.07        78.56963
420.51        78.63287
420.96        78.66479
421.41         78.5788
421.85        78.35284
422.30        77.88262
422.74        77.34615
423.19        77.56128
423.64        78.34295
424.08        78.56704
424.53         78.1209
424.98        77.98074
425.42         78.1842
425.87        78.03375
426.31        77.62643
426.76        77.57275
427.21        77.82222
427.65        77.88837
428.10         77.7498
428.54        77.67992
428.99        77.74447
429.44        77.96056
429.88        78.22714
430.33        78.18015
430.77        77.84893
431.22        77.91166
431.66        78.30463
432.11        78.38287
432.56         78.2244
433.00        78.29362
433.45        78.32825
433.89        78.25124
434.34        78.62704
434.78        76.96576
435.23        76.89603
435.67        78.12208
436.12        78.65746
436.57        79.01299
437.01         78.4904
437.46        78.48006
437.90        78.47027
438.35        79.55348
438.79        78.86253
439.24        78.88405
439.68        78.88157
440.13         78.8512
440.57        78.80927
441.02        79.12411
441.46        79.62069
441.91          79.389
442.35        78.62737
442.80        78.81177
443.24        79.73667
443.69        79.91951
444.13        79.35947
444.58        79.22285
445.02        79.49974
445.47        79.61532
445.91        79.53452
446.36        79.51395
446.80        79.54096
447.24        79.54783
447.69         79.4858
448.13        79.65176
448.58        79.94231
449.02        79.93046
449.47        79.68121
449.91        79.63826
450.36        79.84674
450.80        79.96862
451.25        79.96448
451.69        80.16674
452.13        80.07297
452.58        79.99201
453.02        79.80872
453.47        79.63342
453.91        79.47678
454.36        79.39307
454.80        79.32139
455.24         79.0495
455.69        78.67655
456.13        78.37314
456.58        78.29156
457.02        78.30604
457.46        78.95634
457.91        78.76099
458.35        78.28748
458.79        78.00394
459.24         78.0273
459.68        77.95052
460.13        77.81267
460.57        77.52724
461.01        77.44639
461.46        77.53624
461.90        77.20954
462.34        77.41038
462.79        77.36237
463.23        77.43707
463.68        77.40421
464.12        77.18816
464.56        76.90337
465.01        76.82523
465.45        76.85713
465.89        77.05183
466.34        77.30993
466.78        76.98317
467.22         76.1515
467.67        76.42291
468.11        76.07887
468.55        76.14754
468.99        76.06222
469.44        76.02291
469.88        76.01012
470.32        75.96946
470.77        75.92152
471.21        75.88367
471.65        75.85521
472.10        75.84722
472.54        75.80983
472.98        75.74522
473.42        75.66431
473.87        75.47308
474.31        75.20441
474.75        75.29867
475.20        75.57401
475.64        75.36625
476.08        74.83682
476.52        74.54292
476.97        74.43513
477.41        75.35128
477.85        75.21481
478.29        75.00175
478.74        75.04552
479.18        74.47084
479.62        74.74207
480.06        74.66732
480.50        74.65891
480.95         74.7513
481.39        74.80837
481.83        75.00618
482.27        75.25607
482.72        74.37971
483.16          74.797
483.60        74.58675
484.04        74.42345
484.48        74.53462
484.93        75.10814
485.37        74.48903
485.81        75.00737
486.25        75.31591
486.69         75.1963
487.14        74.44249
487.58        74.63454
488.02        75.04121
488.46        74.84142
488.90        75.09016
489.34        74.65523
489.79         73.2797
490.23        74.08601
490.67        73.95368
491.11        73.85056
491.55        73.82204
491.99        73.88757
492.43        73.98735
492.88        74.06657
493.32        74.12595
493.76        74.14487
494.20        74.21001
494.64        74.33917
495.08        74.40167
495.52        74.41225
495.96        74.61656
496.41        74.90884
496.85         74.7775
497.29        74.29938
497.73        74.16927
498.17        74.29293
498.61        74.41119
499.05        74.40817
499.49        74.36219
499.93        74.30204
500.37        74.14575
500.82        73.88885
501.26        73.87287
501.70        74.21207
502.14         73.3605
502.58        73.94805
503.02        73.95446
503.46        73.83998
503.90        73.79747
504.34        73.76789
504.78        73.80399
505.22        73.86022
505.66        73.83015
506.10        73.71484
506.54        73.66685
506.98        73.70313
507.42        73.57312
507.86        73.61824
508.30        73.63654
508.74        73.74641
509.18        73.89582
509.62        74.04531
510.06        74.11524
510.50        74.08263
510.94        73.97343
511.38        73.82525
511.82        73.69974
512.26        73.61853
512.70        73.57218
513.14         73.5529
513.58        73.51808
514.02        73.45857
514.46        73.44112
514.90        73.49001
515.34        73.37914
515.78        73.53139
516.22        73.59252
516.66        73.67384
517.10        73.74419
517.54        73.79674
517.98        73.83038
518.42        73.83605
518.86        73.81374
519.30        73.76512
519.74        73.69137
520.18        73.61205
520.62        73.55565
521.06        73.53228
521.50         73.5442
521.93        73.57257
522.37        73.56937
522.81         73.5317
523.25        73.46513
523.69        73.41103
524.13        73.43518
524.57        73.54249
525.01        73.70673
525.45        73.85603
525.89        73.87823
526.32        73.74834
526.76        73.52155
527.20        73.27142
527.64        73.12422
528.08        73.11251
528.52        73.19363
528.96         73.3199
529.40        73.41544
529.83        73.44627
530.27        73.45061
530.71        73.42353
531.15        73.36633
531.59          73.287
532.03        73.18269
532.46        73.07188
532.90        73.01217
533.34        73.00809
533.78        73.04807
534.22        73.10553
534.66        73.13596
535.09        73.11929
535.53        73.09011
535.97        73.04999
536.41        73.02005
536.85        73.00608
537.28        72.99933
537.72        73.00105
538.16        73.00416
538.60        73.00915
539.04        73.03773
539.47        73.05473
539.91        73.04662
540.35        72.99463
540.79        72.91914
541.22        72.84473
541.66        72.82125
542.10        72.85325
542.54        72.92253
542.97         72.9904
543.41        73.03769
543.85        73.04199
544.29        73.02127
544.72        72.96947
545.16        72.91474
545.60        72.84847
546.04        72.75874
546.47        72.67236
546.91        72.63012
547.35        72.62924
547.79        72.70689
548.22        72.78146
548.66        72.67444
549.10        72.42081
549.53        72.32577
549.97        72.41338
550.41        72.46846
550.84        72.49084
551.28        72.62685
551.72        72.82528
552.15        72.92006
552.59        72.90281
553.03        72.80383
553.46        72.68436
553.90        72.63435
554.34        72.64857
554.77        72.82531
555.21        73.10468
555.65        72.82899
556.08        72.81579
556.52        72.55816
556.96        72.37245
557.39        72.40776
557.83        72.63383
558.27        72.69095
558.70        72.56939
559.14        72.57261
559.57        72.68107
560.01        72.74463
560.45        72.72941
560.88        72.67351
561.32        72.63837
561.75        72.55128
562.19        72.47742
562.63        72.54258
563.06        72.67526
563.50        72.61673
563.93        72.39845
564.37        72.23219
564.80        72.36286
565.24        72.45729
565.68        72.54372
566.11        72.62408
566.55        72.71416
566.98        72.72857
567.42        72.69666
567.85         72.7646
568.29        72.92389
568.72        72.73152
569.16        72.28761
569.60        72.24742
570.03        72.67416
570.47        72.42229
570.90        72.31031
571.34        73.15256
571.77        72.92912
572.21        72.52779
572.64        72.81443
573.08        72.64803
573.51        72.20885
573.95        72.45482
574.38        72.86544
574.82        72.73324
