SpectraSmart Spectrum 2.9.0.0
--------- Device Information -----------
Spectrum Name :  反射率_0
Saving Time :  2024/04/27 23:35:16
Spectro-Module Model Name : SE2030-DUVN
Spectro-Module Serial Number : OS361AC55029948
Wavelength Start : 200
Wavelength End : 1025
Wavelength Unit : Wavelength(nm)
Spectrum Unit : Reflectance(%)
-----------Spectrum Setting ------------
Integration Time : 20ms
Average : 10
Boxcar : 0
Background removal :  enabled
linearity correction :  enabled
SC :  disabled
Intensity correction :  disabled
DWT denoise :  enabled
savitzky-golay :  disabled
FFT :  disabled
Running average :  disabled
Kalman :  disabled
High pass :  disabled
---------------BEGIN--------------------
Wavelength(nm)             Reflectance(%)
200.29               0
200.75        42.72799
201.21        65.39317
201.67        80.72022
202.13        83.09072
202.58        77.19125
203.04        67.69366
203.50        59.93392
203.96        61.41023
204.42        71.21667
204.88        84.05713
205.34        96.27126
205.80        105.9958
206.26        114.0037
206.72        122.5294
207.18        130.4463
207.64         128.767
208.10        116.0775
208.55        102.1196
209.01        91.41785
209.47        82.08688
209.93         69.5563
210.39        42.99791
210.85       -31.17503
211.31       -112.6795
211.77      -0.8279223
212.23        68.59171
212.69        91.86346
213.14          97.468
213.60        94.01279
214.06        82.47301
214.52        59.98682
214.98        39.93369
215.44        41.43303
215.90        52.72736
216.36         63.9164
216.81        71.80351
217.27        77.29389
217.73        82.46547
218.19        86.24778
218.65        85.96761
219.11        80.90626
219.57        71.07012
220.02        58.46521
220.48        50.59925
220.94        50.40759
221.40        55.42051
221.86        62.33841
222.32        67.60373
222.77        70.56452
223.23        72.23907
223.69        72.73059
224.15         71.9567
224.61        70.09709
225.06        66.95298
225.52        63.43355
225.98        61.27678
226.44        60.92793
226.90        61.51405
227.36        62.17661
227.81        62.10498
228.27        61.24237
228.73        59.74611
229.19           57.56
229.65        54.79619
230.10        51.73629
230.56        48.81701
231.02        46.30508
231.48        44.58646
231.93        43.61982
232.39        43.34403
232.85        43.68532
233.31        44.55784
233.77         45.7915
234.22        47.38632
234.68        48.74905
235.14        49.21911
235.60        48.71999
236.05        47.24855
236.51        45.66167
236.97        45.79683
237.43        48.25707
237.88        52.63368
238.34        57.06811
238.80        59.85139
239.26        60.66535
239.71         59.4726
240.17        56.62695
240.63         56.0247
241.08        60.28277
241.54        66.00995
242.00        70.14074
242.46        71.73264
242.91        71.34137
243.37        68.68832
243.83        62.66788
244.28        56.07462
244.74        58.46156
245.20        67.76638
245.66        75.24001
246.11        78.61259
246.57        79.52476
247.03        79.26596
247.48        77.62173
247.94        75.13779
248.40        73.49254
248.85        72.29578
249.31        73.74027
249.77        79.48496
250.22        87.38834
250.68        95.54328
251.14        101.5857
251.59        103.7318
252.05        102.1312
252.51        96.25819
252.96        86.16674
253.42        77.73126
253.88        75.51306
254.33         77.7291
254.79        79.78185
255.25        77.39973
255.70        71.53863
256.16        65.10126
256.62         60.6158
257.07        60.72895
257.53        64.46288
257.99        68.97101
258.44        72.16291
258.90        72.82976
259.35        71.00092
259.81        68.18845
260.27        64.95071
260.72        61.96875
261.18        59.79184
261.63          57.878
262.09        56.36795
262.55        55.01914
263.00        53.67816
263.46        52.53729
263.91        51.45833
264.37        50.58558
264.83        49.84643
265.28        49.17365
265.74        48.55059
266.19        47.76214
266.65        46.84949
267.11        45.80144
267.56        44.70913
268.02        43.82726
268.47        43.14989
268.93        42.61578
269.38        42.07116
269.84        41.30076
270.30        40.26449
270.75        39.06456
271.21        37.81656
271.66        36.64448
272.12        35.62754
272.57        34.69502
273.03        33.91658
273.48         33.3168
273.94        32.91789
274.39        32.65421
274.85        32.43215
275.31        32.04306
275.76        31.43405
276.22        30.68846
276.67         29.8878
277.13        29.24399
277.58        28.75354
278.04        28.41278
278.49        28.07165
278.95        27.61776
279.40        26.99239
279.86        26.30267
280.31        25.65878
280.77        25.32557
281.22        25.28444
281.68         25.4719
282.13        25.66847
282.59        25.61483
283.04        25.26297
283.50        24.72637
283.95        24.17717
284.41        23.91288
284.86        23.97172
285.32        24.25452
285.77        24.58846
286.22        24.76196
286.68        24.74125
287.13        24.57301
287.59        24.36961
288.04        24.22321
288.50        24.19586
288.95        24.22636
289.41        24.29944
289.86        24.35244
290.32        24.39623
290.77        24.45645
291.22        24.57531
291.68        24.80199
292.13        25.14356
292.59        25.60271
293.04        26.16491
293.50        26.82915
293.95        27.58702
294.40        28.46301
294.86        29.45689
295.31        30.55754
295.77        31.77594
296.22        33.09497
296.68        34.54998
297.13        36.16323
297.58        37.91811
298.04        39.78452
298.49        41.67932
298.95        43.52883
299.40        45.32559
299.85        47.10847
300.31        48.97151
300.76        50.99783
301.21        53.19686
301.67         55.5387
302.12        57.89228
302.58        60.15485
303.03        62.27811
303.48        64.32816
303.94        66.43975
304.39        68.72581
304.84        71.23135
305.30        73.90844
305.75        76.60255
306.20        79.18029
306.66        81.61835
307.11        83.90047
307.57        86.10801
308.02        88.23811
308.47        90.31037
308.93        92.30618
309.38        94.15594
309.83        95.87825
310.29        97.50365
310.74        99.02026
311.19        100.4589
311.65        101.8279
312.10         103.095
312.55        104.2693
313.00        105.3631
313.46        106.4063
313.91         107.394
314.36        108.3401
314.82        109.2308
315.27        110.0342
315.72        110.7437
316.18        111.3837
316.63        111.9623
317.08        112.5364
317.53        113.1196
317.99        113.6876
318.44        114.2313
318.89        114.7068
319.35        115.1025
319.80        115.4489
320.25        115.7487
320.70        116.0148
321.16         116.246
321.61        116.4557
322.06        116.6745
322.51        116.9629
322.97        117.3098
323.42        117.7414
323.87        118.1658
324.32         118.452
324.78        118.5582
325.23        118.5688
325.68        118.5681
326.13        118.7291
326.59         119.071
327.04        119.5951
327.49        120.1973
327.94         120.747
328.39        121.1963
328.85        121.5366
329.30        121.8751
329.75        122.2137
330.20        122.5653
330.66         122.879
331.11        123.2106
331.56         123.524
332.01        123.8337
332.46        124.1628
332.92        124.4868
333.37        124.9295
333.82        125.4421
334.27        125.9977
334.72        126.5904
335.17        127.2139
335.63        127.8233
336.08        128.4803
336.53        129.0861
336.98        129.5326
337.43        129.8093
337.88         129.951
338.34        130.0709
338.79        130.4221
339.24        131.0369
339.69        131.8513
340.14        132.7289
340.59        133.4387
341.05        133.9186
341.50        134.2512
341.95        134.5128
342.40        134.8465
342.85        135.2947
343.30        135.7897
343.75        136.3187
344.20        136.8668
344.66        137.4147
345.11        137.9732
345.56        138.4575
346.01        138.7206
346.46         138.757
346.91        138.6245
347.36        138.4893
347.81          138.61
348.26        139.0338
348.72        139.6725
349.17         140.366
349.62        140.8832
350.07        141.1394
350.52        141.1918
350.97        141.0948
351.42        140.9384
351.87        140.7662
352.32        140.5615
352.77        140.3138
353.22        140.0152
353.67        139.6629
354.13        139.2688
354.58        138.8578
355.03        138.5266
355.48        138.2729
355.93        138.0653
356.38        137.7565
356.83        137.1179
357.28        136.1264
357.73        134.8765
358.18        133.5721
358.63        132.5256
359.08        131.8153
359.53        131.3541
359.98        130.9949
360.43        130.4991
360.88        129.7946
361.33        128.9472
361.78         128.049
362.23        127.2367
362.68        126.5411
363.13        125.9217
363.58         125.299
364.03        124.4449
364.48        123.5197
364.93        122.4366
365.38        121.3161
365.83        120.2481
366.28        119.2689
366.73        118.3526
367.18        117.4884
367.63         116.664
368.08        115.8677
368.53        115.1034
368.98        114.3566
369.43        113.5971
369.88         112.817
370.33        112.0236
370.78        111.2153
371.23        110.3953
371.68        109.5695
372.13        108.7326
372.58        107.9214
373.03        107.1989
373.48         106.571
373.93         106.016
374.38        105.4633
374.83        104.7951
375.28        103.9883
375.72        103.0669
376.17        102.1315
376.62        101.2682
377.07        100.5059
377.52        99.80211
377.97        99.15047
378.42        98.54135
378.87        97.96393
379.32        97.43987
379.77        96.90418
380.22        96.24574
380.67        95.45478
381.11        94.56483
381.56        93.70648
382.01        93.11395
382.46        92.84136
382.91        92.81876
383.36        92.87773
383.81        92.75153
384.26        92.37099
384.71        91.80814
385.15        91.17834
385.60        90.73023
386.05        90.49419
386.50        90.38659
386.95        90.28999
387.40        90.03738
387.85        89.59503
388.29        88.98009
388.74        88.38527
389.19        87.86199
389.64        87.42973
390.09         87.0481
390.54        86.67136
390.98        86.24271
391.43        85.81398
391.88        85.32288
392.33        84.80824
392.78        84.55502
393.23        84.49381
393.67        84.06981
394.12        83.41484
394.57        83.46404
395.02        83.01248
395.47        83.04877
395.91         83.1329
396.36        83.06401
396.81        82.81904
397.26        82.56655
397.71        82.31574
398.15        81.98005
398.60        81.66649
399.05         81.2308
399.50        80.79442
399.95        80.74904
400.39        80.99072
400.84        80.94305
401.29        80.57783
401.74        80.11695
402.18        79.71152
402.63        79.64447
403.08        79.83605
403.53        79.74796
403.97        79.34256
404.42        78.98293
404.87        78.74435
405.32        78.58182
405.76        78.48898
406.21        78.52093
406.66        78.59058
407.11        78.43593
407.55        78.08125
408.00        77.87296
408.45        77.82025
408.90        77.37144
409.34         76.6842
409.79        76.61241
410.24        77.05159
410.68        77.20873
411.13         77.0248
411.58        76.92988
412.03        76.95629
412.47          76.982
412.92        76.98166
413.37        76.98866
413.81        76.97708
414.26        76.97899
414.71        76.97387
415.15        76.97421
415.60        76.93711
416.05        76.86151
416.49        76.75713
416.94        76.62174
417.39        76.49303
417.83        76.41959
418.28        76.40907
418.73        76.44237
419.17        76.49949
419.62        76.54975
420.07        76.58514
420.51        76.60457
420.96        76.62127
421.41        76.62863
421.85        76.59981
422.30        76.50192
422.74        76.35374
423.19        76.49287
423.64        76.82661
424.08        76.91448
424.53        76.68781
424.98        76.62196
425.42        76.76607
425.87        76.69119
426.31        76.46903
426.76        76.68884
427.21        77.19802
427.65        77.09398
428.10         76.5005
428.54        76.32636
428.99          76.633
429.44        77.07636
429.88        77.43852
430.33         77.2477
430.77        76.62912
431.22        76.55322
431.66        76.97037
432.11        77.12921
432.56        77.06197
433.00        77.14323
433.45        77.17931
433.89        77.38717
434.34        77.82728
434.78        76.76141
435.23        76.27142
435.67        77.10296
436.12        77.80901
436.57        78.25499
437.01        77.98042
437.46        77.74057
437.90        78.02851
438.35        78.81736
438.79        78.31897
439.24        78.33497
439.68        78.33558
440.13        78.38848
440.57        78.50124
441.02        78.66492
441.46        78.79725
441.91        78.92293
442.35         78.9166
442.80        78.75338
443.24        78.51586
443.69        78.65901
444.13        79.06973
444.58        79.30863
445.02        79.35564
445.47        78.99971
445.91        79.22039
446.36        79.21278
446.80        79.24484
447.24        79.35428
447.69        79.51309
448.13        79.55035
448.58        79.49771
449.02        79.52582
449.47        79.63602
449.91        79.74158
450.36        79.84335
450.80        79.78457
451.25        79.58811
451.69         79.8171
452.13        79.71587
452.58        79.72717
453.02        79.63281
453.47         79.5325
453.91        79.42357
454.36        79.41989
454.80        79.41154
455.24        79.02726
455.69          78.424
456.13        77.92022
456.58        77.76878
457.02         77.9085
457.46        79.07623
457.91        78.91408
458.35        78.11385
458.79        77.72903
459.24        77.88889
459.68        77.74927
460.13        77.36615
460.57         77.1386
461.01        77.16483
461.46        77.20039
461.90        77.22419
462.34        77.40279
462.79        77.17105
463.23        76.96055
463.68        76.71049
464.12        76.73094
464.56        76.95599
465.01        77.08102
465.45         76.9921
465.89        76.82285
466.34        76.61532
466.78        76.38723
467.22        76.26749
467.67        75.89576
468.11        76.18573
468.55        76.11356
468.99         75.9568
469.44        75.89118
469.88        75.91853
470.32        75.88505
470.77        75.76304
471.21        75.62722
471.65        75.47567
472.10        75.31104
472.54        75.12919
472.98        74.98293
473.42        74.88598
473.87        74.78769
474.31        74.67011
474.75        74.73939
475.20          74.887
475.64        74.81667
476.08        74.59669
476.52        74.43657
476.97         74.3044
477.41        74.83595
477.85        74.63744
478.29        74.42755
478.74        75.16851
479.18        74.32586
479.62        74.56206
480.06        74.36682
480.50        74.45044
480.95        74.54841
481.39        74.53732
481.83        74.59219
482.27        74.75626
482.72        73.98881
483.16        74.23238
483.60        74.00903
484.04        73.85405
484.48        73.89518
484.93        74.24463
485.37        74.04295
485.81        73.97615
486.25        74.68835
486.69        75.11005
487.14        74.65038
487.58        74.50439
488.02         74.2322
488.46        74.15818
488.90        74.74413
489.34        74.18884
489.79        73.14407
490.23        73.75311
490.67        73.50335
491.11         73.2073
491.55        73.06777
491.99        73.11263
492.43        73.12885
492.88        73.07744
493.32        73.09449
493.76        73.14619
494.20        73.20074
494.64        73.26334
495.08        73.25894
495.52        73.22359
495.96        73.38387
496.41        73.64925
496.85        73.59978
497.29        73.26467
497.73        73.11611
498.17        73.07655
498.61        73.18547
499.05         73.3036
499.49        73.15612
499.93        72.85552
500.37        72.71693
500.82        72.73077
501.26        73.02213
501.70        73.59589
502.14        72.74862
502.58        73.14066
503.02        73.07939
503.46        73.05367
503.90        73.06719
504.34        73.01174
504.78         73.0015
505.22        72.98802
505.66        72.74998
506.10         72.4396
506.54        72.56009
506.98        72.96516
507.42         73.1845
507.86         73.1095
508.30        72.40037
508.74        72.96366
509.18         72.8767
509.62        72.71776
510.06        72.58505
510.50        72.52946
510.94        72.58673
511.38        72.70654
511.82        72.76188
512.26        72.72892
512.70        72.68981
513.14        72.66177
513.58        72.60709
514.02        72.52792
514.46        72.48544
514.90        72.48864
515.34        72.29524
515.78         72.3243
516.22        72.24206
516.66        72.19007
517.10        72.18349
517.54        72.22434
517.98        72.29629
518.42        72.36126
518.86         72.3695
519.30        72.31108
519.74        72.20768
520.18        72.09218
520.62        72.01521
521.06        71.99509
521.50        72.01901
521.93        72.08379
522.37         72.1691
522.81        72.26623
523.25        72.36857
523.69        72.46284
524.13        72.52831
524.57        72.55887
525.01        72.56171
525.45        72.52872
525.89        72.45013
526.32        72.32844
526.76        72.18512
527.20        72.06068
527.64        72.02718
528.08        72.09238
528.52        72.22675
528.96         72.3739
529.40        72.44351
529.83        72.40569
530.27        72.30511
530.71        72.16033
531.15        72.01156
531.59        71.88174
532.03        71.76401
532.46        71.67461
532.90        71.66298
533.34         71.7239
533.78        71.83926
534.22        71.97131
534.66        72.06076
535.09        72.07948
535.53        72.06116
535.97        71.99957
536.41        71.90534
536.85        71.79128
537.28        71.66328
537.72         71.5471
538.16        71.47395
538.60        71.45619
539.04        71.50227
539.47        71.57487
539.91        71.65476
540.35         71.7106
540.79        71.75778
541.22        71.78632
541.66        71.78979
542.10        71.76801
542.54         71.7281
542.97        71.67066
543.41        71.64051
543.85        71.62973
544.29        71.62859
544.72        71.63197
545.16        71.65474
545.60          71.675
546.04        71.72495
546.47        71.76589
546.91        71.65407
547.35        71.42334
547.79        71.31154
548.22        71.29832
548.66        71.19526
549.10        71.02143
549.53        71.01641
549.97        71.16595
550.41        71.25959
550.84        71.27125
551.28        71.31782
551.72        71.38993
552.15         71.3737
552.59        71.27597
553.03        71.31322
553.46        71.13538
553.90        71.11297
554.34        71.13425
554.77        71.18641
555.21        71.25483
555.65        71.26458
556.08        71.40189
556.52        71.25255
556.96        70.95607
557.39        70.93302
557.83         71.1538
558.27        71.11506
558.70        70.83911
559.14        70.74909
559.57        70.84556
560.01         70.9272
560.45        70.95587
560.88        71.00503
561.32        71.11328
561.75        71.10724
562.19        71.03668
562.63        71.18207
563.06        71.43821
563.50        71.22498
563.93        70.66548
564.37        70.59749
564.80        70.93632
565.24        71.12967
565.68        70.87807
566.11        70.88944
566.55        71.09948
566.98        71.22089
567.42        71.24948
567.85        71.27817
568.29        71.32275
568.72         71.2093
569.16         71.0524
569.60        71.04201
570.03        71.17216
570.47        71.38811
570.90        71.36497
571.34        71.69381
571.77        71.72706
572.21        71.46227
572.64        71.56843
573.08        71.27505
573.51        70.99683
573.95        71.15986
574.38        71.70975
574.82        71.34228
