SpectraSmart Spectrum 2.9.0.0
--------- Device Information -----------
Spectrum Name :  反射率_0
Saving Time :  2024/04/27 23:50:38
Spectro-Module Model Name : SE2030-DUVN
Spectro-Module Serial Number : OS361AC55029948
Wavelength Start : 200
Wavelength End : 1025
Wavelength Unit : Wavelength(nm)
Spectrum Unit : Reflectance(%)
-----------Spectrum Setting ------------
Integration Time : 20ms
Average : 10
Boxcar : 0
Background removal :  enabled
linearity correction :  enabled
SC :  disabled
Intensity correction :  disabled
DWT denoise :  enabled
savitzky-golay :  disabled
FFT :  disabled
Running average :  disabled
Kalman :  disabled
High pass :  disabled
---------------BEGIN--------------------
Wavelength(nm)             Reflectance(%)
200.29               0
200.75        41.39229
201.21         35.5674
201.67        33.11902
202.13        31.24582
202.58        29.35758
203.04        28.02102
203.50        30.41825
203.96        40.06779
204.42        54.33816
204.88        69.33292
205.34        81.55907
205.80        88.84502
206.26        91.68102
206.72        90.65531
207.18        83.85724
207.64        71.72556
208.10        61.75224
208.55        57.76194
209.01        55.63806
209.47         51.6239
209.93        42.92444
210.39        21.30609
210.85       -39.64381
211.31       -94.83879
211.77        7.195238
212.23        63.55508
212.69        80.32306
213.14        81.89882
213.60        74.19301
214.06        55.84217
214.52        24.24811
214.98        2.978979
215.44        15.81301
215.90        40.54029
216.36        59.84309
216.81        68.59022
217.27        69.75111
217.73        67.04568
218.19        61.80875
218.65        55.57284
219.11        49.22047
219.57        42.04736
220.02        34.62364
220.48        30.63638
220.94        31.15891
221.40        35.01849
221.86        41.09933
222.32        48.08838
222.77        54.99451
223.23        61.31481
223.69        65.59406
224.15        66.23564
224.61        63.44555
225.06        57.68708
225.52        51.00232
225.98        47.39686
226.44         47.7188
226.90        49.90654
227.36         51.9945
227.81        52.33215
228.27        50.87148
228.73        48.16129
229.19        44.54913
229.65        40.93977
230.10        37.99976
230.56        35.96704
231.02        34.74113
231.48         34.2245
231.93        34.26468
232.39        34.87423
232.85         36.2606
233.31        38.70383
233.77        41.97047
234.22        45.81997
234.68        49.25184
235.14        51.12508
235.60          51.335
236.05        50.06555
236.51        48.43734
236.97        48.84633
237.43        52.07305
237.88        57.43972
238.34        62.90703
238.80        66.66804
239.26        68.48064
239.71        68.70218
240.17        67.49647
240.63        67.14694
241.08        69.38212
241.54        72.24731
242.00        74.34612
242.46        75.33962
242.91        75.60559
243.37        75.05978
243.83        74.21933
244.28        76.54283
244.74        84.55949
245.20        92.90056
245.66        96.07493
246.11        94.36727
246.57        88.54867
247.03        76.58174
247.48         58.2774
247.94        46.20248
248.40        53.26328
248.85        72.21158
249.31        91.40279
249.77        101.1259
250.22        102.4789
250.68        100.2853
251.14        97.24416
251.59         95.4613
252.05        95.28176
252.51        95.54505
252.96        96.21031
253.42        97.90794
253.88        99.63324
254.33        100.8822
254.79        101.0384
255.25        98.74066
255.70        94.54435
256.16        90.15411
256.62        86.77312
257.07        85.84176
257.53        87.21089
257.99        89.10303
258.44         90.2484
258.90        90.21466
259.35        88.69709
259.81        86.78029
260.27        84.53878
260.72        82.14742
261.18        80.19441
261.63        78.24258
262.09        76.67027
262.55        75.33923
263.00        74.08654
263.46        73.09785
263.91        72.10758
264.37        71.23049
264.83        70.35963
265.28        69.43166
265.74        68.56836
266.19        67.61652
266.65        66.65556
267.11        65.63882
267.56        64.51843
268.02        63.36104
268.47         62.1356
268.93         60.8601
269.38        59.60295
269.84        58.50809
270.30         57.5881
270.75        56.82121
271.21        56.04609
271.66        54.94571
272.12        53.50929
272.57        51.78661
273.03        50.11173
273.48        48.90096
273.94         48.2798
274.39        48.03457
274.85        47.87509
275.31        47.27346
275.76        46.13523
276.22          44.713
276.67        43.24864
277.13        42.21901
277.58        41.63055
278.04         41.3581
278.49        41.13591
278.95        40.73174
279.40        40.02454
279.86         39.2015
280.31        38.30808
280.77        37.54902
281.22        36.92712
281.68        36.44029
282.13        36.03719
282.59         35.7294
283.04        35.47157
283.50        35.29261
283.95        35.15158
284.41        35.03632
284.86        34.91642
285.32        34.81914
285.77        34.72162
286.22        34.65265
286.68        34.62786
287.13        34.58853
287.59        34.56981
288.04        34.53795
288.50         34.5195
288.95        34.48917
289.41         34.4465
289.86        34.32627
290.32        34.16487
290.77        33.98918
291.22        33.88084
291.68        33.94565
292.13        34.20619
292.59        34.66823
293.04        35.30281
293.50        36.08829
293.95        36.99642
294.40        38.03914
294.86        39.21459
295.31        40.51131
295.77        41.92324
296.22        43.41074
296.68        44.95113
297.13        46.48269
297.58        47.98004
298.04        49.45131
298.49        50.88526
298.95        52.32485
299.40         53.7863
299.85        55.28336
300.31         56.8666
300.76         58.5481
301.21        60.31937
301.67        62.17416
302.12        64.00805
302.58        65.76443
303.03        67.39554
303.48        68.95607
303.94        70.54483
304.39        72.21602
304.84        74.02115
305.30          75.951
305.75        77.90774
306.20        79.84367
306.66        81.75186
307.11        83.57966
307.57        85.38661
308.02        87.13698
308.47        88.83303
308.93        90.47174
309.38         91.9487
309.83        93.22004
310.29        94.31972
310.74        95.26561
311.19        96.16911
311.65         97.1748
312.10        98.27981
312.55        99.43829
313.00        100.5982
313.46        101.6882
313.91        102.6588
314.36        103.5419
314.82        104.3015
315.27        104.8754
315.72        105.2682
316.18         105.521
316.63        105.7038
317.08        105.9739
317.53        106.3732
317.99        106.8557
318.44        107.3903
318.89        107.8866
319.35        108.3135
319.80        108.7195
320.25        109.0816
320.70        109.3702
321.16        109.5808
321.61        109.7257
322.06        109.8936
322.51        110.2491
322.97        110.7933
323.42        111.5078
323.87         112.215
324.32        112.6398
324.78        112.7031
325.23        112.5375
325.68        112.2804
326.13        112.1964
326.59        112.3456
327.04        112.6978
327.49        113.1778
327.94        113.6954
328.39        114.2029
328.85        114.7015
329.30        115.2033
329.75        115.5483
330.20        115.7135
330.66        115.6863
331.11         115.657
331.56        115.8273
332.01        116.2625
332.46        116.9097
332.92        117.5997
333.37        118.1896
333.82        118.5562
334.27        118.7639
334.72        118.9087
335.17        119.1536
335.63        119.5242
336.08        120.0255
336.53        120.5738
336.98        121.0823
337.43        121.5224
337.88        121.9285
338.34        122.3149
338.79        122.7582
339.24        123.2524
339.69        123.7716
340.14        124.2902
340.59        124.7737
341.05        125.2122
341.50        125.6298
341.95        126.0245
342.40        126.4081
342.85        126.7903
343.30        127.1613
343.75        127.5427
344.20        127.9702
344.66        128.4443
345.11        128.9417
345.56        129.4014
346.01        129.7221
346.46        129.8869
346.91        129.9343
347.36        129.9343
347.81        129.9968
348.26        130.1481
348.72         130.351
349.17        130.5647
349.62        130.7474
350.07        130.8713
350.52        130.9509
350.97        130.9618
351.42          130.86
351.87        130.6554
352.32         130.378
352.77        130.0803
353.22        129.8472
353.67        129.6937
354.13        129.5878
354.58        129.4917
355.03        129.4097
355.48        129.3079
355.93         129.175
356.38        128.9065
356.83        128.3415
357.28        127.4752
357.73        126.3863
358.18        125.2354
358.63        124.2674
359.08        123.5564
359.53        123.0461
359.98         122.656
360.43        122.2516
360.88        121.7713
361.33        121.2268
361.78        120.6417
362.23        120.0464
362.68        119.4421
363.13        118.8335
363.58        118.1407
364.03        117.1679
364.48        116.0531
364.93         114.759
365.38         113.506
365.83        112.5691
366.28        111.9991
366.73        111.7017
367.18        111.4924
367.63        111.0725
368.08        110.3574
368.53        109.4365
368.98        108.4177
369.43        107.4783
369.88        106.6828
370.33        105.9791
370.78         105.338
371.23        104.7187
371.68        104.0996
372.13        103.4967
372.58        102.9211
373.03        102.3793
373.48         101.869
373.93        101.3841
374.38        100.8758
374.83        100.2732
375.28        99.56837
375.72        98.76292
376.17        97.98199
376.62        97.35009
377.07        96.88835
377.52        96.54498
377.97        96.21938
378.42        95.75285
378.87        95.11819
379.32        94.38858
379.77         93.6345
380.22        92.95409
380.67        92.37868
381.11        91.87493
381.56        91.44973
382.01        91.12981
382.46        90.90834
382.91        90.77811
383.36        90.65829
383.81        90.41885
384.26        90.03023
384.71        89.52012
385.15        88.95771
385.60        88.52132
386.05          88.228
386.50         88.0337
386.95        87.85981
387.40        87.58826
387.85        87.20047
388.29        86.69517
388.74        86.23805
389.19        85.85624
389.64        85.55122
390.09        85.27527
390.54        84.99753
390.98         84.6582
391.43        84.30856
391.88        83.96772
392.33        83.60641
392.78        83.28542
393.23        83.04446
393.67        82.59579
394.12        82.07716
394.57        82.47038
395.02        82.41343
395.47        82.23426
395.91        81.65741
396.36        81.42271
396.81        81.56783
397.26        81.70919
397.71        81.73942
398.15        81.60867
398.60        81.38007
399.05        80.97453
399.50        80.52146
399.95        80.27595
400.39        80.22211
400.84         80.1262
401.29        79.93978
401.74        79.54688
402.18         79.0604
402.63        78.91407
403.08        79.05853
403.53        78.96026
403.97        78.59287
404.42        78.29803
404.87        78.12646
405.32        78.02405
405.76        77.97658
406.21        78.00792
406.66        78.07773
407.11        78.03864
407.55        77.89922
408.00        77.91129
408.45        78.00526
408.90        77.51073
409.34        76.62112
409.79        76.39203
410.24        76.76339
410.68        76.85207
411.13        76.61549
411.58         76.5763
412.03        76.71288
412.47        76.74549
412.92         76.6237
413.37        76.43849
413.81        76.22637
414.26        76.10441
414.71        76.07382
415.15        76.12007
415.60        76.16431
416.05        76.14452
416.49        76.05035
416.94         75.8968
417.39        75.74734
417.83        75.69412
418.28        75.74605
418.73         75.8511
419.17         75.9629
419.62        76.01342
420.07        75.98948
420.51         75.9181
420.96        75.80077
421.41        75.63387
421.85        75.40791
422.30        75.03692
422.74        74.62952
423.19        74.76291
423.64        75.30293
424.08        75.49994
424.53        75.21299
424.98        75.07642
425.42        75.12561
425.87        74.76952
426.31        74.19182
426.76        74.28878
427.21        74.91634
427.65         74.9548
428.10        74.44847
428.54        74.33797
428.99        74.66151
429.44        75.00795
429.88        75.21403
430.33        74.99939
430.77        74.47069
431.22        74.39787
431.66        74.73618
432.11        74.87863
432.56        74.85513
433.00        74.91002
433.45        74.84771
433.89        74.88401
434.34        75.11952
434.78        73.69576
435.23        74.14548
435.67        73.94996
436.12        75.73743
436.57        75.66077
437.01        74.60339
437.46        74.12746
437.90        74.61234
438.35         75.8136
438.79        75.49981
439.24        75.61924
439.68        75.55122
440.13        75.21105
440.57        74.81148
441.02        75.09327
441.46        75.84453
441.91        76.02734
442.35        75.58657
442.80        75.39087
443.24        75.42105
443.69        75.36757
444.13        75.24009
444.58        75.16862
445.02        75.14277
445.47        75.21597
445.91        75.33457
446.36        75.41125
446.80        75.41457
447.24        75.31384
447.69        75.18731
448.13        75.30437
448.58        75.59567
449.02        75.58282
449.47         75.3251
449.91        75.25847
450.36        75.41949
450.80        75.53096
451.25        75.57225
451.69        75.61051
452.13        75.62362
452.58           75.53
453.02        75.36803
453.47        75.23953
453.91        75.15221
454.36        75.18303
454.80        75.21127
455.24        74.89994
455.69        74.38818
456.13        73.99081
456.58        73.83234
457.02        74.03618
457.46        74.33807
457.91         74.2045
458.35        73.89026
458.79        73.64783
459.24        73.58344
459.68        73.39858
460.13        73.16376
460.57        72.90353
461.01        72.98101
461.46        73.02059
461.90        72.78339
462.34        73.28912
462.79        73.25168
463.23        73.25591
463.68        72.96503
464.12        72.60577
464.56        72.31203
465.01         72.2498
465.45        72.27179
465.89        72.38994
466.34        72.56557
466.78        72.19199
467.22        71.31332
467.67        72.13898
468.11        71.65392
468.55        71.83435
468.99        71.73314
469.44        71.67519
469.88        71.63835
470.32        71.50536
470.77        71.33337
471.21        71.21298
471.65        71.15752
472.10        71.15224
472.54        71.14279
472.98        71.09221
473.42        70.99646
473.87        70.85548
474.31        70.66912
474.75         70.6404
475.20        70.72579
475.64        70.61243
476.08        70.32314
476.52         70.2819
476.97        70.51546
477.41        70.37154
477.85          70.573
478.29         70.5915
478.74        70.45491
479.18        69.97523
479.62        70.21539
480.06        70.14725
480.50        70.09882
480.95        70.13718
481.39        70.19109
481.83        70.26255
482.27        70.15217
482.72         69.8238
483.16        70.13163
483.60        69.49428
484.04        69.80341
484.48        69.78295
484.93        70.04188
485.37        69.85633
485.81        70.50821
486.25        70.41335
486.69        70.73527
487.14        70.20726
487.58        70.10121
488.02        70.17804
488.46        69.82555
488.90        70.32897
489.34        69.86623
489.79        69.03503
490.23        69.94008
490.67        69.75911
491.11        69.34052
491.55        69.23165
491.99        69.45408
492.43        69.53139
492.88         69.4139
493.32        69.36945
493.76        69.40251
494.20        69.47134
494.64        69.58999
495.08        69.71516
495.52        69.80903
495.96        69.95559
496.41        70.09007
496.85        69.84894
497.29        69.35472
497.73        69.35252
498.17        69.67995
498.61        69.74696
499.05        69.47844
499.49        69.34479
499.93        69.41293
500.37        69.37706
500.82        69.21294
501.26        69.38308
501.70        69.91129
502.14        69.06298
502.58        69.37721
503.02        69.21397
503.46        69.19459
503.90        69.18535
504.34        69.16128
504.78        69.22215
505.22        69.30864
505.66        69.33112
506.10        69.29818
506.54        69.26724
506.98         69.2261
507.42        69.35195
507.86        69.22492
508.30        69.21442
508.74        69.19864
509.18         69.1845
509.62          69.159
510.06        69.10844
510.50        69.03751
510.94        68.94966
511.38        68.87366
511.82        68.85252
512.26        68.89149
512.70         68.9761
513.14        69.07122
513.58           69.11
514.02        69.07687
514.46         69.0107
514.90        68.94286
515.34        68.83836
515.78        68.85806
516.22        68.86865
516.66        68.90622
517.10        68.95467
517.54        69.00574
517.98        69.06015
518.42        69.10329
518.86        69.11516
519.30        69.09087
519.74         69.0336
520.18        68.95911
520.62        68.89301
521.06        68.84622
521.50        68.82044
521.93        68.80919
522.37        68.78529
522.81        68.75145
523.25         68.7119
523.69        68.69193
524.13        68.73022
524.57        68.82693
525.01        68.96272
525.45        69.08949
525.89        69.13281
526.32        69.07257
526.76        68.94781
527.20        68.79836
527.64        68.69824
528.08        68.66766
528.52        68.68042
528.96         68.7209
529.40        68.76205
529.83         68.7872
530.27        68.82598
530.71        68.85033
531.15        68.82407
531.59        68.74598
532.03        68.61891
532.46        68.49722
532.90        68.49367
533.34        68.61464
533.78        68.82377
534.22         69.0266
534.66        69.07758
535.09        68.94481
535.53        68.70274
535.97         68.4301
536.41        68.26642
536.85         68.2487
537.28         68.3359
537.72        68.48296
538.16        68.58665
538.60        68.61582
539.04        68.67169
539.47        68.73464
539.91         68.6784
540.35        68.55557
540.79        68.66911
541.22        68.94667
541.66        69.02357
542.10        68.87273
542.54        68.69576
542.97        68.54192
543.41         68.4451
543.85        68.41576
544.29         68.4516
544.72        68.50182
545.16        68.52035
545.60        68.47861
546.04        68.39144
546.47        68.29592
546.91        68.25326
547.35        68.27085
547.79        68.35107
548.22        68.42576
548.66        68.39321
549.10        68.25755
549.53        68.18766
549.97        68.20858
550.41        68.21735
550.84        68.20675
551.28        68.28755
551.72        68.44096
552.15        68.46136
552.59        68.32479
553.03        68.55756
553.46        68.29055
553.90        68.30696
554.34        68.34215
554.77        68.42057
555.21        68.48882
555.65        68.47759
556.08        68.31404
556.52        68.19827
556.96        68.14225
557.39        68.16633
557.83        68.26337
558.27        68.34638
558.70        68.36391
559.14        68.27925
559.57        68.12173
560.01         68.0244
560.45        68.00154
560.88        68.06178
561.32        68.19732
561.75        68.15524
562.19        67.98967
562.63        68.01608
563.06        68.19965
563.50        68.12424
563.93        67.83757
564.37         67.9062
564.80        68.23012
565.24        68.26355
565.68        68.03963
566.11        67.99021
566.55        68.14468
566.98        68.30033
567.42        68.41483
567.85        68.34127
568.29        68.19275
568.72        68.16771
569.16        68.28566
569.60        68.43619
570.03        68.63502
570.47        68.36523
570.90        68.48493
571.34        68.75224
571.77        68.91447
572.21        68.50055
572.64         68.7578
573.08        68.63732
573.51        68.05689
573.95        68.20726
574.38        68.77202
574.82        68.71623
