SpectraSmart Spectrum 2.9.0.0
--------- Device Information -----------
Spectrum Name :  反射率_0
Saving Time :  2024/04/27 23:52:49
Spectro-Module Model Name : SE2030-DUVN
Spectro-Module Serial Number : OS361AC55029948
Wavelength Start : 200
Wavelength End : 1025
Wavelength Unit : Wavelength(nm)
Spectrum Unit : Reflectance(%)
-----------Spectrum Setting ------------
Integration Time : 20ms
Average : 10
Boxcar : 0
Background removal :  enabled
linearity correction :  enabled
SC :  disabled
Intensity correction :  disabled
DWT denoise :  enabled
savitzky-golay :  disabled
FFT :  disabled
Running average :  disabled
Kalman :  disabled
High pass :  disabled
---------------BEGIN--------------------
Wavelength(nm)             Reflectance(%)
200.29               0
200.75        84.84619
201.21        81.64862
201.67        76.46456
202.13        73.29922
202.58        71.55734
203.04        70.86741
203.50        70.53176
203.96        69.88588
204.42        69.03049
204.88        68.17493
205.34        68.02823
205.80        69.54343
206.26        72.91087
206.72        78.59589
207.18         85.8924
207.64         87.1807
208.10        79.52867
208.55        70.64085
209.01        63.33823
209.47        56.78376
209.93        47.90967
210.39         28.3778
210.85        -25.1221
211.31       -73.45057
211.77        15.77485
212.23        65.67574
212.69        81.45779
213.14        85.03507
213.60        82.17477
214.06        73.16228
214.52        56.81285
214.98        45.91632
215.44        52.92939
215.90        65.85603
216.36        75.95598
216.81        80.71924
217.27        81.73447
217.73        81.01195
218.19        78.78245
218.65        75.01357
219.11        69.90477
219.57        62.98406
220.02        55.50711
220.48        52.29559
220.94        54.51107
221.40        60.32335
221.86        66.72306
222.32        70.64236
222.77        71.90478
223.23        71.55563
223.69        70.35558
224.15        68.98481
224.61        67.57373
225.06        65.66895
225.52         63.6181
225.98        61.95996
226.44        60.98331
226.90        60.49795
227.36        60.11594
227.81        59.31932
228.27         58.0093
228.73        56.19106
229.19        53.82772
229.65        51.11878
230.10        48.35801
230.56        45.96932
231.02        44.08488
231.48        42.89335
231.93        42.31899
232.39        42.33298
232.85        42.92525
233.31        44.11725
233.77        45.73769
234.22        47.70906
234.68        49.41841
235.14        50.19887
235.60        49.96172
236.05        48.72068
236.51        47.21972
236.97        47.06649
237.43        48.82814
237.88        52.22525
238.34        55.61328
238.80        57.43743
239.26        57.30968
239.71        54.97495
240.17        50.78953
240.63         49.3881
241.08        54.19622
241.54         61.3656
242.00        66.79041
242.46        69.13101
242.91        69.08356
243.37        66.31898
243.83        59.78424
244.28         53.4076
244.74        58.15361
245.20           70.64
245.66        79.30675
246.11        81.22614
246.57        78.02013
247.03        69.32852
247.48        55.44068
247.94         47.1701
248.40         54.5956
248.85        70.85105
249.31        86.26823
249.77        93.16678
250.22        92.90279
250.68         89.7236
251.14        85.94022
251.59         83.1428
252.05        81.28616
252.51         78.8008
252.96        75.42517
253.42        73.29677
253.88        73.25455
254.33        74.91531
254.79        75.64474
255.25        72.72601
255.70        67.01676
256.16         60.5645
256.62        55.85327
257.07        55.57784
257.53        58.79816
257.99        62.92779
258.44        65.64832
258.90        65.42159
259.35        62.48627
259.81        58.50539
260.27        54.52735
260.72        51.79551
261.18         50.6482
261.63        50.18374
262.09        50.01143
262.55        49.38838
263.00        48.18036
263.46        46.80689
263.91        45.42421
264.37        44.53085
264.83        44.10115
265.28        43.90536
265.74        43.76348
266.19        43.28945
266.65        42.50147
267.11          41.497
267.56         40.4252
268.02        39.60963
268.47        39.07425
268.93        38.70796
269.38        38.39243
269.84        37.97641
270.30         37.3934
270.75        36.69813
271.21        35.86663
271.66        34.81267
272.12        33.58796
272.57        32.21699
273.03         30.9007
273.48        29.87175
273.94        29.23187
274.39        28.87654
274.85        28.70327
275.31        28.49199
275.76        28.15423
276.22        27.74796
276.67         27.2909
277.13         26.8917
277.58        26.52704
278.04        26.21496
278.49         25.8273
278.95        25.28651
279.40        24.55906
279.86        23.74452
280.31        22.99269
280.77        22.61873
281.22        22.60921
281.68        22.87918
282.13        23.16299
282.59        23.12382
283.04        22.70602
283.50        22.04765
283.95        21.36193
284.41        21.00329
284.86        21.03151
285.32        21.32987
285.77         21.7075
286.22        21.92205
286.68        21.92874
287.13        21.77856
287.59        21.59935
288.04        21.51107
288.50        21.56975
288.95        21.70065
289.41        21.84159
289.86        21.86526
290.32        21.77758
290.77        21.63733
291.22         21.5394
291.68        21.61399
292.13        21.88209
292.59        22.30338
293.04        22.83271
293.50        23.42087
293.95        24.03302
294.40        24.70176
294.86        25.39392
295.31        26.04865
295.77        26.67892
296.22        27.29113
296.68        27.99048
297.13        28.91936
297.58        30.09791
298.04        31.46592
298.49        32.89772
298.95        34.23016
299.40        35.42718
299.85        36.54553
300.31        37.68739
300.76        38.96152
301.21        40.39642
301.67        41.95261
302.12         43.5192
302.58        45.00018
303.03         46.3541
303.48        47.63055
303.94        48.95065
304.39        50.42722
304.84        52.09487
305.30         53.9109
305.75        55.71893
306.20        57.35035
306.66        58.79319
307.11        60.07599
307.57        61.33818
308.02        62.69526
308.47        64.18758
308.93        65.75241
309.38        67.29208
309.83        68.74002
310.29        70.09172
310.74        71.36384
311.19        72.55964
311.65        73.65648
312.10        74.62966
312.55        75.48381
313.00        76.29487
313.46        77.19786
313.91        78.20215
314.36        79.27808
314.82        80.31062
315.27        81.10313
315.72        81.61327
316.18        81.91879
316.63        82.12338
317.08        82.42705
317.53        82.88789
317.99        83.44345
318.44        84.03546
318.89        84.54535
319.35        84.93193
319.80        85.23898
320.25        85.49417
320.70        85.74458
321.16        85.99725
321.61        86.25065
322.06         86.4846
322.51        86.68034
322.97        86.82542
323.42        86.96551
323.87        87.11327
324.32        87.30324
324.78        87.53045
325.23        87.80939
325.68        88.11232
326.13        88.41522
326.59        88.68401
327.04        88.96786
327.49        89.23497
327.94         89.4668
328.39        89.66382
328.85        89.79884
329.30         89.9649
329.75        90.19862
330.20        90.50979
330.66        90.85491
331.11        91.22891
331.56        91.51669
332.01        91.70311
332.46        91.82245
332.92        91.89264
333.37         92.0712
333.82        92.35428
334.27        92.71329
334.72        93.13197
335.17        93.58457
335.63        94.02921
336.08        94.51454
336.53        94.98889
336.98        95.40278
337.43         95.7478
337.88        96.03865
338.34        96.29262
338.79        96.59001
339.24        96.93903
339.69        97.32316
340.14        97.74687
340.59         98.2127
341.05        98.71325
341.50        99.25871
341.95        99.79226
342.40        100.2389
342.85        100.5847
343.30         100.835
343.75        101.0698
344.20         101.422
344.66        101.9179
345.11        102.5168
345.56        103.0878
346.01        103.4197
346.46        103.4763
346.91        103.3282
347.36        103.1551
347.81          103.23
348.26        103.6097
348.72         104.215
349.17        104.8591
349.62        105.2605
350.07        105.3473
350.52        105.2046
350.97         104.997
351.42        104.9857
351.87        105.2278
352.32        105.6262
352.77        106.0221
353.22         106.182
353.67        106.0473
354.13        105.7043
354.58        105.2491
355.03        104.8938
355.48        104.6924
355.93        104.5848
356.38        104.4598
356.83        104.1468
357.28        103.6155
357.73        102.9386
358.18        102.2377
358.63        101.6896
359.08         101.337
359.53        101.1249
359.98        100.9516
360.43        100.6601
360.88        100.2063
361.33        99.62969
361.78        99.01784
362.23        98.51264
362.68        98.14522
363.13         97.8664
363.58        97.57015
364.03        97.10626
364.48         96.4251
364.93        95.60441
365.38        94.75843
365.83        94.07198
366.28        93.58837
366.73        93.25246
367.18        92.95994
367.63        92.54267
368.08        91.96009
368.53        91.26898
368.98        90.55968
369.43        89.97349
369.88        89.54725
370.33        89.23211
370.78        88.95429
371.23        88.59927
371.68        88.13015
372.13        87.57681
372.58        86.99371
373.03        86.46995
373.48         86.0299
373.93        85.64722
374.38        85.26647
374.83        84.79879
375.28         84.2327
375.72        83.59501
376.17        82.98518
376.62        82.48935
377.07        82.12479
377.52        81.83841
377.97        81.59544
378.42        81.34316
378.87        81.05849
379.32        80.77232
379.77        80.43523
380.22        79.96693
380.67        79.36993
381.11        78.66779
381.56        77.99639
382.01        77.59475
382.46        77.50833
382.91        77.66118
383.36        77.86567
383.81        77.82339
384.26        77.46739
384.71        76.89565
385.15        76.24426
385.60        75.78561
386.05        75.57178
386.50         75.5192
386.95        75.54637
387.40        75.53247
387.85        75.43609
388.29        75.25408
388.74        75.08823
389.19        74.90406
389.64         74.6973
390.09        74.43987
390.54        74.14466
390.98        73.82681
391.43         73.5445
391.88        73.29916
392.33        73.03493
392.78        72.73582
393.23        72.43057
393.67        71.95971
394.12        71.46378
394.57        71.68324
395.02        71.50257
395.47        71.50468
395.91        71.36077
396.36        71.28877
396.81        71.28159
397.26        71.22297
397.71        71.09756
398.15        70.89603
398.60        70.69827
399.05         70.4215
399.50        70.13436
399.95        70.00419
400.39         70.0164
400.84        69.95751
401.29        69.79454
401.74        69.56434
402.18        69.29924
402.63        69.04285
403.08        68.84489
403.53        68.70096
403.97        68.63004
404.42        68.69176
404.87        68.82336
405.32        68.92614
405.76        68.95766
406.21        68.87447
406.66        68.74041
407.11        68.77973
407.55         68.9398
408.00        68.94454
408.45         68.7561
408.90        68.21024
409.34        67.52673
409.79        67.50396
410.24        68.00523
410.68        68.11423
411.13        67.77166
411.58        67.52139
412.03        67.44459
412.47        67.43349
412.92        67.47917
413.37        67.61288
413.81        67.75301
414.26        67.83414
414.71        67.82055
415.15        67.75055
415.60        67.62724
416.05        67.52251
416.49        67.46919
416.94         67.4378
417.39        67.44006
417.83        67.49286
418.28        67.58278
418.73        67.68716
419.17        67.78471
419.62        67.84294
420.07        67.86192
420.51        67.85444
420.96        67.80567
421.41        67.71028
421.85        67.55981
422.30        67.22713
422.74        66.83948
423.19        67.08118
423.64        67.78545
424.08        67.97678
424.53        67.55614
424.98        67.42289
425.42        67.62788
425.87        67.44887
426.31        67.02878
426.76         67.2294
427.21        67.92291
427.65        68.09751
428.10        67.74295
428.54         67.6563
428.99         67.8746
429.44        68.00156
429.88        67.97494
430.33        67.79158
430.77        67.49974
431.22        67.52048
431.66        67.80003
432.11        67.94651
432.56        68.05114
433.00        68.18544
433.45        68.09136
433.89        68.42029
434.34        69.30176
434.78        67.20618
435.23         67.5877
435.67        68.24738
436.12        68.88006
436.57        69.12608
437.01        68.66672
437.46        68.33239
437.90        68.52499
438.35        69.49443
438.79        68.95321
439.24        69.03685
439.68         69.0841
440.13        69.08416
440.57         69.0906
441.02        69.42432
441.46        69.93192
441.91        70.02237
442.35         69.6986
442.80        69.65585
443.24        69.86061
443.69        69.95272
444.13        69.90695
444.58        69.92135
445.02        69.98299
445.47        70.06126
445.91        70.13076
446.36        70.21234
446.80        70.28839
447.24        70.28622
447.69        70.27225
448.13        70.49495
448.58        70.87906
449.02        70.98267
449.47        70.82079
449.91         70.7385
450.36         70.7681
450.80        70.67333
451.25        70.51015
451.69        70.45966
452.13        70.52502
452.58        70.59412
453.02         70.6327
453.47        70.62162
453.91        70.53772
454.36        70.49441
454.80        70.43552
455.24        70.09017
455.69        69.60413
456.13        69.32192
456.58        69.36357
457.02        69.40189
457.46        69.99162
457.91        69.78008
458.35        69.31937
458.79          69.052
459.24        69.08361
459.68        69.02486
460.13        68.90686
460.57        68.58714
461.01        68.37123
461.46        68.29882
461.90        68.24601
462.34        67.81561
462.79        68.25771
463.23        68.30646
463.68        68.32274
464.12        68.18317
464.56        67.97196
465.01        68.10142
465.45        68.35052
465.89        68.17708
466.34        67.70963
466.78        67.38809
467.22        67.24736
467.67        67.65709
468.11        67.41592
468.55        67.36224
468.99        67.19032
469.44        67.15193
469.88        67.24831
470.32        67.30679
470.77        67.30491
471.21        67.28876
471.65        67.24483
472.10        67.17004
472.54        67.04248
472.98        66.87878
473.42        66.69373
473.87        66.47972
474.31        66.25232
474.75        66.20397
475.20        66.31091
475.64        66.32735
476.08        66.20071
476.52        66.25322
476.97        66.51913
477.41        66.23746
477.85        66.14044
478.29        66.52329
478.74         66.6284
479.18        66.11203
479.62        66.50777
480.06        66.37159
480.50        66.19788
480.95        66.25129
481.39        66.57301
481.83        65.74031
482.27        66.32733
482.72        65.98677
483.16        66.10532
483.60        66.09486
484.04        66.07665
484.48        66.37003
484.93        67.08016
485.37        66.42027
485.81        66.53093
486.25        67.00654
486.69        67.33356
487.14        66.37615
487.58        66.50622
488.02        66.63076
488.46        66.67686
488.90        66.72218
489.34        66.83726
489.79        65.81248
490.23        66.66072
490.67        66.44371
491.11        66.10702
491.55        66.00758
491.99        66.15845
492.43        66.22388
492.88        66.15596
493.32        66.17154
493.76        66.24245
494.20        66.31126
494.64        66.39166
495.08        66.40507
495.52        66.38486
495.96        66.62505
496.41        67.02967
496.85         66.9685
497.29        66.53174
497.73        66.57058
498.17        66.93764
498.61        67.08381
499.05         66.9053
499.49        66.65778
499.93        66.45393
500.37        66.37202
500.82        66.36325
501.26        66.42103
501.70        66.64706
502.14        65.92798
502.58        66.62199
503.02        66.72462
503.46        66.64289
503.90        66.64173
504.34        66.66394
504.78        66.71156
505.22        66.72482
505.66         66.6677
506.10        66.61037
506.54         66.5645
506.98        66.49953
507.42        67.02545
507.86         67.0829
508.30        66.91415
508.74        67.04521
509.18        66.84274
509.62        66.61591
510.06        66.45641
510.50        66.41125
510.94        66.43377
511.38        66.47881
511.82        66.49301
512.26        66.45626
512.70        66.39378
513.14         66.3368
513.58        66.30682
514.02        66.30978
514.46        66.37695
514.90        66.49773
515.34        66.42209
515.78        66.52295
516.22        66.50146
516.66        66.48593
517.10        66.48743
517.54        66.51115
517.98        66.54538
518.42         66.5731
518.86        66.56657
519.30        66.52003
519.74        66.48023
520.18        66.45776
520.62        66.38541
521.06        66.30797
521.50        66.40221
521.93        66.62282
522.37        66.71774
522.81        66.66601
523.25         66.5918
523.69        66.52306
524.13        66.45437
524.57        66.39918
525.01        66.35938
525.45        66.32643
525.89        66.28738
526.32        66.23348
526.76        66.18159
527.20        66.13746
527.64        66.11706
528.08         66.1211
528.52        66.14114
528.96        66.16129
529.40        66.15741
529.83        66.12041
530.27        66.07353
530.71        66.02225
531.15         65.9857
531.59        65.96857
532.03        65.95882
532.46        65.95652
532.90        65.98366
533.34        66.03117
533.78        66.09616
534.22        66.14275
534.66         66.1162
535.09        66.00655
535.53        65.85263
535.97        65.69939
536.41        65.64487
536.85         65.7099
537.28        65.83426
537.72        65.97162
538.16        66.11239
538.60        66.19666
539.04        66.09563
539.47        65.86265
539.91        65.76152
540.35        65.80375
540.79        65.87833
541.22        65.93835
541.66        65.96259
542.10        65.93418
542.54        65.86671
542.97        65.78899
543.41        65.78051
543.85        65.83899
544.29        65.94166
544.72        66.03632
545.16        66.07043
545.60         66.0153
546.04        65.91095
546.47        65.78961
546.91        65.66203
547.35        65.57156
547.79        65.60947
548.22        65.70007
548.66        65.70934
549.10        65.64404
549.53        65.45918
549.97        65.59724
550.41        65.63509
550.84        65.68798
551.28        65.82542
551.72        66.02446
552.15         66.1087
552.59        66.05544
553.03        66.26685
553.46        66.07775
553.90         66.1014
554.34          66.143
554.77        66.16399
555.21        66.14668
555.65        66.22288
556.08        66.26564
556.52        66.12238
556.96          65.848
557.39        65.86879
557.83        66.15698
558.27        66.24444
558.70        66.11287
559.14        66.09611
559.57        66.18582
560.01        66.20243
560.45        66.13486
560.88        66.14223
561.32        66.23242
561.75        66.10006
562.19        65.84109
562.63        65.86093
563.06        66.09419
563.50        66.06358
563.93        65.78664
564.37        65.70589
564.80        65.81535
565.24        65.93655
565.68        66.02625
566.11        66.09791
566.55        66.16434
566.98        66.18252
567.42        66.18132
567.85         66.2198
568.29        66.32475
568.72        66.25013
569.16        66.07362
569.60        66.15696
570.03         66.5179
570.47        66.38757
570.90        66.56161
571.34        66.97546
571.77        66.94535
572.21        66.82836
572.64        66.88663
573.08         66.7616
573.51        66.45025
573.95        66.47077
574.38        66.71723
574.82        66.70424
