SpectraSmart Spectrum 2.9.0.0
--------- Device Information -----------
Spectrum Name :  反射率_0
Saving Time :  2024/04/27 23:59:08
Spectro-Module Model Name : SE2030-DUVN
Spectro-Module Serial Number : OS361AC55029948
Wavelength Start : 200
Wavelength End : 1025
Wavelength Unit : Wavelength(nm)
Spectrum Unit : Reflectance(%)
-----------Spectrum Setting ------------
Integration Time : 20ms
Average : 10
Boxcar : 0
Background removal :  enabled
linearity correction :  enabled
SC :  disabled
Intensity correction :  disabled
DWT denoise :  enabled
savitzky-golay :  disabled
FFT :  disabled
Running average :  disabled
Kalman :  disabled
High pass :  disabled
---------------BEGIN--------------------
Wavelength(nm)             Reflectance(%)
200.29               0
200.75        33.30667
201.21        46.57048
201.67        58.22609
202.13        61.74239
202.58        59.80528
203.04        55.86731
203.50        53.32153
203.96        56.66317
204.42        64.92598
204.88        74.47191
205.34        83.34218
205.80         91.0215
206.26        98.28836
206.72         107.008
207.18        115.7478
207.64        113.9924
208.10        99.84214
208.55        84.53812
209.01        73.12028
209.47        63.87136
209.93        52.41402
210.39        29.33323
210.85       -32.44032
211.31       -90.72363
211.77        9.806801
212.23        66.80805
212.69        85.64957
213.14        91.79556
213.60        92.28448
214.06        88.52435
214.52        78.53741
214.98        65.97611
215.44        60.83649
215.90        61.46766
216.36        63.78009
216.81        65.32771
217.27        65.95223
217.73        66.74036
218.19        67.51566
218.65        67.62187
219.11        66.98716
219.57        65.50327
220.02        63.56818
220.48        63.52694
220.94        65.42626
221.40        68.08352
221.86        70.40568
222.32        71.44468
222.77        71.22038
223.23        70.24448
223.69        68.62852
224.15        66.22057
224.61        63.06383
225.06        59.00414
225.52        55.09959
225.98         53.2515
226.44        53.69044
226.90        55.19134
227.36        56.59343
227.81        56.93441
228.27        56.20815
228.73        54.68964
229.19        52.42611
229.65        49.71169
230.10        46.93771
230.56        44.53102
231.02        42.76293
231.48        42.03135
231.93        42.25965
232.39        43.31037
232.85        45.06342
233.31        47.36871
233.77        49.99386
234.22        52.91541
234.68        55.51246
235.14        57.11823
235.60        57.72452
236.05        57.43002
236.51        57.09323
236.97        58.44451
237.43        61.93018
237.88        67.01302
238.34        72.05682
238.80        75.88094
239.26        78.52752
239.71        80.62536
240.17        82.43684
240.63        84.63277
241.08        86.79731
241.54        87.73547
242.00        88.05351
242.46        88.59173
242.91        89.89345
243.37        92.46092
243.83        98.52057
244.28        110.1667
244.74        119.6925
245.20        120.8584
245.66        117.8231
246.11        115.7551
246.57        115.0203
247.03        113.6959
247.48        111.4546
247.94        108.8444
248.40          107.37
248.85        108.1188
249.31        109.0731
249.77        107.3891
250.22        103.9153
250.68        100.3866
251.14        98.13145
251.59        98.44267
252.05        101.6937
252.51        107.9719
252.96        117.0106
253.42        124.5902
253.88        126.1854
254.33        123.0703
254.79        119.3123
255.25        116.5559
255.70        114.3781
256.16        112.8966
256.62        111.6492
257.07        110.4132
257.53        109.7879
257.99        109.2569
258.44        108.2982
258.90        107.1798
259.35        105.3913
259.81         103.689
260.27        101.9227
260.72        100.0764
261.18        98.67983
261.63        97.17519
262.09        95.93372
262.55        94.67504
263.00        93.20937
263.46         91.8279
263.91        90.24548
264.37        88.67104
264.83        87.05624
265.28        85.38247
265.74        83.86471
266.19        82.37252
266.65        81.00593
267.11        79.66112
267.56        78.32496
268.02        77.12763
268.47         76.0134
268.93        74.99245
269.38        73.93192
269.84         72.6836
270.30         71.2177
270.75        69.58667
271.21        67.94363
271.66        66.44745
272.12        65.16981
272.57        64.00035
273.03        62.90568
273.48        61.71996
273.94        60.48174
274.39        59.18339
274.85        57.92505
275.31        56.69527
275.76        55.48085
276.22         54.3527
276.67        53.25153
277.13        52.26574
277.58        51.32129
278.04        50.46178
278.49        49.62854
278.95        48.90398
279.40        48.20751
279.86        47.60548
280.31        46.96095
280.77        46.25261
281.22        45.42424
281.68        44.57514
282.13        43.76217
282.59        43.16361
283.04        42.75532
283.50        42.52388
283.95        42.34117
284.41        42.08274
284.86        41.70644
285.32        41.31176
285.77        40.96484
286.22        40.82807
286.68        40.93407
287.13        41.15488
287.59        41.45647
288.04         41.6929
288.50        41.85683
288.95        41.94711
289.41        41.97403
289.86        41.87727
290.32        41.71534
290.77        41.51262
291.22        41.38997
291.68        41.51183
292.13         41.9119
292.59        42.59152
293.04        43.49261
293.50        44.54959
293.95        45.71225
294.40        46.99351
294.86        48.40681
295.31        49.96458
295.77        51.66338
296.22        53.45333
296.68        55.26691
297.13        56.97127
297.58        58.53645
298.04        60.00418
298.49        61.44233
298.95        63.02649
299.40        64.79197
299.85        66.71684
300.31        68.77019
300.76        70.82252
301.21        72.83157
301.67        74.84512
302.12        76.80826
302.58        78.76349
303.03        80.67421
303.48        82.55617
303.94        84.49316
304.39        86.50576
304.84        88.62981
305.30        90.86446
305.75        93.07413
306.20        95.17073
306.66        97.15502
307.11         98.9956
307.57        100.7957
308.02        102.5702
308.47        104.3433
308.93        106.0945
309.38        107.7244
309.83         109.216
310.29        110.5923
310.74         111.854
311.19         113.036
311.65        114.1572
312.10        115.1898
312.55        116.1281
313.00        117.0213
313.46        117.9571
313.91        118.9275
314.36        119.9366
314.82        120.8749
315.27        121.5562
315.72        121.9553
316.18        122.1524
316.63        122.2984
317.08        122.6783
317.53        123.3528
317.99        124.2214
318.44        125.1396
318.89         125.842
319.35        126.2489
319.80         126.452
320.25        126.5358
320.70        126.6459
321.16        126.8265
321.61         127.057
322.06        127.3193
322.51        127.6022
322.97        127.8728
323.42        128.1801
323.87        128.4969
324.32        128.7942
324.78        129.0409
325.23        129.2891
325.68        129.4973
326.13        129.6406
326.59        129.6951
327.04        129.7274
327.49        129.7873
327.94             130
328.39         130.394
328.85         130.901
329.30        131.5106
329.75        131.9923
330.20        132.2916
330.66         132.428
331.11         132.576
331.56        132.8844
332.01        133.4113
332.46        134.0966
332.92        134.8113
333.37        135.5252
333.82        136.1202
334.27        136.6196
334.72        137.0415
335.17        137.4207
335.63        137.7462
336.08        138.0799
336.53         138.384
336.98        138.6551
337.43         138.909
337.88        139.1653
338.34         139.464
338.79        139.9305
339.24        140.5494
339.69        141.2749
340.14        142.0209
340.59        142.6441
341.05        143.1113
341.50         143.493
341.95        143.8026
342.40        144.0845
342.85        144.3746
343.30        144.6406
343.75        144.9974
344.20        145.6322
344.66        146.5453
345.11        147.6552
345.56        148.6905
346.01        149.2133
346.46        149.1446
346.91         148.636
347.36        147.9819
347.81         147.641
348.26        147.7335
348.72        148.1261
349.17        148.6389
349.62        149.0082
350.07        149.1371
350.52        149.1083
350.97        148.9791
351.42         148.828
351.87        148.6918
352.32        148.5471
352.77        148.3622
353.22        148.1047
353.67        147.7686
354.13        147.3669
354.58         146.953
355.03        146.6784
355.48        146.5371
355.93        146.4602
356.38        146.2611
356.83        145.6483
357.28        144.5908
357.73        143.2335
358.18        141.7702
358.63        140.4948
359.08        139.5091
359.53        138.7299
359.98        138.1442
360.43        137.7254
360.88        137.4126
361.33        137.1878
361.78        136.9107
362.23        136.3394
362.68        135.4194
363.13          134.24
363.58        132.9288
364.03        131.5598
364.48        130.4542
364.93        129.3929
365.38        128.4225
365.83         127.487
366.28        126.5686
366.73        125.6857
367.18        124.8526
367.63        124.0871
368.08        123.3805
368.53        122.7111
368.98        122.0187
369.43         121.215
369.88        120.2887
370.33        119.2748
370.78        118.2516
371.23        117.3472
371.68        116.5973
372.13        115.9622
372.58        115.4014
373.03        114.8468
373.48        114.2658
373.93        113.6746
374.38        113.0517
374.83        112.3602
375.28        111.5984
375.72        110.7547
376.17        109.9069
376.62        109.1074
377.07        108.3718
377.52        107.6735
377.97        107.0044
378.42        106.3483
378.87        105.7003
379.32        105.0876
379.77        104.4658
380.22        103.7553
380.67        102.9541
381.11        102.0909
381.56        101.2804
382.01        100.7302
382.46        100.4835
382.91        100.4721
383.36        100.5374
383.81          100.43
384.26        100.0816
384.71        99.55627
385.15        98.94654
385.60        98.47046
386.05        98.15555
386.50         97.9352
386.95        97.72758
387.40        97.41628
387.85        96.98373
388.29        96.43316
388.74        95.93143
389.19        95.47934
389.64        95.07568
390.09         94.6749
390.54          94.276
390.98        93.86181
391.43        93.49522
391.88        93.18839
392.33        92.85998
392.78         92.4719
393.23        92.05782
393.67        91.42607
394.12        90.78094
394.57        91.06768
395.02        90.89241
395.47        91.07719
395.91        91.11549
396.36        91.06148
396.81        90.87962
397.26         90.5204
397.71        90.07983
398.15         89.6879
398.60        89.47174
399.05        89.27741
399.50        89.09391
399.95        88.98949
400.39        88.91385
400.84         88.6525
401.29        88.24022
401.74        87.81051
402.18         87.4537
402.63        87.26651
403.08        87.22691
403.53        87.09889
403.97        86.86829
404.42        86.73063
404.87        86.62708
405.32        86.45306
405.76        86.19031
406.21        85.72924
406.66        85.23136
407.11        85.23238
407.55        85.62016
408.00        85.72301
408.45        85.45789
408.90        84.79917
409.34        84.02892
409.79        84.09043
410.24        84.79112
410.68        84.93357
411.13         84.4376
411.58        84.02923
412.03        83.82324
412.47        83.67896
412.92        83.60381
413.37        83.66219
413.81        83.74522
414.26        83.74773
414.71        83.62399
415.15        83.42413
415.60         83.1915
416.05        83.08585
416.49        83.14736
416.94        83.30108
417.39        83.47654
417.83        83.56061
418.28        83.51625
418.73        83.37698
419.17        83.17213
419.62        82.95252
420.07        82.74705
420.51        82.53538
420.96         82.3582
421.41        82.21387
421.85        82.06728
422.30        81.98659
422.74        81.92475
423.19        81.90553
423.64        81.91306
424.08        82.04594
424.53        82.16478
424.98        82.15903
425.42        82.04124
425.87        81.68625
426.31        81.25555
426.76        81.35831
427.21        81.84658
427.65        81.73285
428.10        81.11397
428.54        80.95579
428.99        81.32027
429.44        81.74623
429.88        82.01788
430.33        81.89578
430.77        81.45988
431.22        81.10999
431.66        81.37923
432.11        81.43241
432.56        81.51845
433.00        81.55624
433.45        81.28693
433.89        81.58237
434.34        82.48503
434.78        80.31199
435.23        80.34749
435.67        80.64006
436.12        81.54714
436.57        81.74943
437.01        81.13278
437.46        80.72284
437.90        81.03574
438.35        81.81334
438.79        81.37188
439.24         81.4141
439.68        81.46031
440.13        81.41523
440.57        81.35357
441.02        81.77856
441.46        82.43253
441.91        82.35327
442.35        81.63902
442.80        81.35004
443.24         81.6321
443.69          81.672
444.13        81.51289
444.58        81.52309
445.02        81.67772
445.47        81.86691
445.91        82.01671
446.36        82.10389
446.80        82.09698
447.24        81.94405
447.69         81.7299
448.13        81.75128
448.58        81.94208
449.02        81.79094
449.47        81.40408
449.91        81.30997
450.36        81.55424
450.80        81.81867
451.25        82.01613
451.69        82.12001
452.13        82.08057
452.58        81.82858
453.02        81.47298
453.47        81.23388
453.91        81.15255
454.36        81.28976
454.80        81.43862
455.24        81.13274
455.69        80.52206
456.13        79.87206
456.58        79.44889
457.02        79.74558
457.46        80.55093
457.91        80.42395
458.35        79.73942
458.79        79.38458
459.24        79.46887
459.68        79.32656
460.13        79.04548
460.57          78.704
461.01        78.68397
461.46        78.85054
461.90        78.81478
462.34        78.86575
462.79        79.17643
463.23        78.95028
463.68        78.43135
464.12        78.18863
464.56        78.26228
465.01        78.47935
465.45        78.56655
465.89        78.32254
466.34        77.90404
466.78        77.55291
467.22         77.0646
467.67         78.0028
468.11        77.71845
468.55        77.68565
468.99        77.24525
469.44        77.10603
469.88        77.28329
470.32        77.37506
470.77        77.34079
471.21        77.27911
471.65         77.1787
472.10        77.02631
472.54        76.82052
472.98        76.64841
473.42        76.53777
473.87        76.36561
474.31        76.13275
474.75        76.25783
475.20        76.59233
475.64        76.35311
476.08        75.65002
476.52        75.47964
476.97        75.90543
477.41        75.85792
477.85        76.08283
478.29        76.39493
478.74        76.43928
479.18        75.96825
479.62        76.19989
480.06         76.0611
480.50        75.96223
480.95        75.95815
481.39        76.00654
481.83        75.68591
482.27        76.15859
482.72        75.35825
483.16        75.77427
483.60         75.5798
484.04        75.41617
484.48        75.27862
484.93        75.39176
485.37        75.12479
485.81        76.11251
486.25        75.89105
486.69        76.59468
487.14        75.75809
487.58        75.43825
488.02        75.63595
488.46        75.84067
488.90        76.12095
489.34        75.31516
489.79        74.79533
490.23        75.20882
490.67        75.09335
491.11        74.76746
491.55        74.76083
491.99        75.03091
492.43        75.11977
492.88        74.97737
493.32        74.82716
493.76        74.70794
494.20        74.66529
494.64        74.73251
495.08        74.82294
495.52         74.9017
495.96        75.09528
496.41        75.31403
496.85        75.12036
497.29        74.62111
497.73        74.62924
498.17        74.98161
498.61         75.0193
499.05        74.68232
499.49        74.59861
499.93        74.78663
500.37        74.66714
500.82        74.26036
501.26        74.35619
501.70        75.01587
502.14        74.23923
502.58        74.68648
503.02         74.6219
503.46        74.52693
503.90        74.39771
504.34        74.26846
504.78        74.20951
505.22        74.19382
505.66        74.14481
506.10        74.12789
506.54        74.11004
506.98        74.04138
507.42        74.55206
507.86        74.81609
508.30        74.33239
508.74         74.7235
509.18        74.51116
509.62        74.30039
510.06        74.13506
510.50        74.06413
510.94        74.04158
511.38        74.03048
511.82         74.0181
512.26        73.99015
512.70        73.96323
513.14        73.95426
513.58        73.95702
514.02        73.96938
514.46        74.03512
514.90        74.15331
515.34        74.06371
515.78        74.18455
516.22        74.17001
516.66         74.1555
517.10        74.14309
517.54        74.13547
517.98        74.12801
518.42        74.09618
518.86         74.0003
519.30         73.8403
519.74        73.67316
520.18        73.54233
520.62        73.42869
521.06        73.38699
521.50         73.5826
521.93        73.93491
522.37        74.13091
522.81        74.13093
523.25        74.07009
523.69        74.00246
524.13        73.96737
524.57        73.98487
525.01        74.03666
525.45        74.08247
525.89        74.06175
526.32        73.95792
526.76        73.81223
527.20        73.65909
527.64        73.55858
528.08        73.52657
528.52        73.54045
528.96        73.58066
529.40        73.61637
529.83         73.6291
530.27         73.6452
530.71        73.64948
531.15        73.62754
531.59        73.58175
532.03        73.51321
532.46        73.44586
532.90        73.44513
533.34        73.51021
533.78         73.6165
534.22        73.72089
534.66         73.7571
535.09        73.70226
535.53        73.60465
535.97        73.47434
536.41        73.34474
536.85        73.23438
537.28        73.13834
537.72        73.07987
538.16        73.08492
538.60        73.15487
539.04        73.29433
539.47        73.43808
539.91        73.52667
540.35        73.52646
540.79        73.46973
541.22        73.38232
541.66         73.3185
542.10        73.29239
542.54        73.28794
542.97        73.28874
543.41        73.31129
543.85        73.33452
544.29        73.36289
544.72        73.37035
545.16        73.33469
545.60        73.23569
546.04        73.12742
546.47        73.02908
546.91        72.86435
547.35        72.69315
547.79        72.78378
548.22        73.03185
548.66        73.04803
549.10        72.83371
549.53         72.7561
549.97         72.8386
550.41         72.8667
550.84        72.84196
551.28         72.8877
551.72        72.97102
552.15        72.97833
552.59        72.91633
553.03            72.8
553.46         72.6664
553.90        72.62659
554.34        72.67784
554.77        72.80588
555.21        72.93587
555.65        72.95545
556.08         72.7764
556.52        72.61211
556.96        72.47677
557.39        72.48824
557.83        72.60581
558.27        72.50345
558.70        72.23849
559.14        72.17082
559.57         72.2914
560.01        72.48949
560.45        72.67692
560.88        72.62237
561.32        72.43906
561.75        72.51067
562.19        72.80637
562.63         72.8343
563.06        72.59593
563.50        72.45631
563.93        72.42111
564.37        72.36055
564.80        72.26412
565.24        72.25574
565.68        72.32643
566.11        72.40029
566.55        72.49008
566.98        72.60995
567.42        72.73674
567.85        72.73891
568.29        72.68557
568.72        72.57506
569.16        72.47287
569.60        72.53136
570.03        72.78956
570.47        72.54499
570.90        72.65742
571.34        73.01161
571.77        73.13685
572.21        72.61231
572.64        72.73853
573.08        72.84458
573.51        72.17824
573.95        72.49123
574.38         73.1251
574.82        72.82028
