SpectraSmart Spectrum 2.9.0.0
--------- Device Information -----------
Spectrum Name :  反射率_0
Saving Time :  2024/04/27 23:58:56
Spectro-Module Model Name : SE2030-DUVN
Spectro-Module Serial Number : OS361AC55029948
Wavelength Start : 200
Wavelength End : 1025
Wavelength Unit : Wavelength(nm)
Spectrum Unit : Reflectance(%)
-----------Spectrum Setting ------------
Integration Time : 20ms
Average : 10
Boxcar : 0
Background removal :  enabled
linearity correction :  enabled
SC :  disabled
Intensity correction :  disabled
DWT denoise :  enabled
savitzky-golay :  disabled
FFT :  disabled
Running average :  disabled
Kalman :  disabled
High pass :  disabled
---------------BEGIN--------------------
Wavelength(nm)             Reflectance(%)
200.29               0
200.75        43.69862
201.21         57.6663
201.67         67.2579
202.13        68.47323
202.58        64.06654
203.04        57.12498
203.50        51.90707
203.96        54.10554
204.42        62.71297
204.88        73.74073
205.34         83.3958
205.80        88.99589
206.26        90.59086
206.72        88.37683
207.18         81.8028
207.64        74.67574
208.10        72.32794
208.55         74.0585
209.01        74.39263
209.47        69.80537
209.93        57.30901
210.39        24.84573
210.85        -73.4637
211.31       -196.0472
211.77       -56.18326
212.23        38.13313
212.69        71.53296
213.14        81.22076
213.60         79.7564
214.06        69.77728
214.52         50.3926
214.98        37.65304
215.44        46.64297
215.90        62.08905
216.36        73.57851
216.81        78.23571
217.27        77.95916
217.73        75.27412
218.19        70.70564
218.65        64.61652
219.11        57.44164
219.57        48.59213
220.02         39.4714
220.48        35.52569
220.94        38.09371
221.40        45.02095
221.86        53.08689
222.32         58.9911
222.77        62.35814
223.23        64.12321
223.69        64.60919
224.15        64.04941
224.61        62.73672
225.06        60.49691
225.52        58.33186
225.98        57.78134
226.44        58.89135
226.90        60.63867
227.36        62.16273
227.81         62.7999
228.27        62.59788
228.73        61.69478
229.19         60.0528
229.65        57.74506
230.10        55.00169
230.56        52.33705
231.02        49.91351
231.48        47.95183
231.93        46.52055
232.39        45.73471
232.85         45.8794
233.31        47.35719
233.77        49.98094
234.22        53.44723
234.68        56.88596
235.14        59.32867
235.60        60.65327
236.05        61.04414
236.51        61.17887
236.97        62.40742
237.43         65.0647
237.88        68.72235
238.34        72.12921
238.80        74.47294
239.26        75.75476
239.71        76.38587
240.17        76.54776
240.63        77.53441
241.08        79.83515
241.54        81.85245
242.00        83.42793
242.46        85.19486
242.91        87.98226
243.37        93.00638
243.83        103.0491
244.28        117.2444
244.74        121.3096
245.20         112.542
245.66        102.6329
246.11        97.23742
246.57        94.86868
247.03        93.76713
247.48        93.51064
247.94        93.01422
248.40        91.94754
248.85        91.47455
249.31        92.23288
249.77        94.07589
250.22        96.45455
250.68        98.97733
251.14        101.2274
251.59        103.2618
252.05        105.5924
252.51        108.4119
252.96        112.0233
253.42        116.1306
253.88        118.6458
254.33        118.7513
254.79        117.5048
255.25          114.72
255.70        110.7146
256.16        106.9586
256.62        103.9445
257.07        102.3733
257.53        102.5817
257.99        103.3123
258.44         103.753
258.90        103.9841
259.35        103.4071
259.81        102.7614
260.27         101.763
260.72        100.1912
261.18        98.66689
261.63        96.84153
262.09         95.2207
262.55        93.66774
263.00        92.03358
263.46        90.54051
263.91         88.9986
264.37        87.74138
264.83         86.6595
265.28        85.63834
265.74        84.66773
266.19        83.32008
266.65        81.69354
267.11        79.82034
267.56        77.87867
268.02        76.30254
268.47        75.11879
268.93        74.22704
269.38        73.43191
269.84        72.48536
270.30        71.29427
270.75        69.93676
271.21        68.47874
271.66        66.93935
272.12        65.38754
272.57         63.7664
273.03        62.18753
273.48        60.71778
273.94         59.4575
274.39        58.33652
274.85        57.36333
275.31         56.3947
275.76        55.36645
276.22        54.36651
276.67        53.36665
277.13        52.49533
277.58        51.68642
278.04        50.98075
278.49         50.2477
278.95        49.47486
279.40        48.58857
279.86        47.69388
280.31        46.81427
280.77         46.1587
281.22        45.67673
281.68        45.36513
282.13        45.06412
282.59        44.65412
283.04        44.07442
283.50        43.42878
283.95        42.76978
284.41        42.25276
284.86        41.89624
285.32        41.69207
285.77        41.58934
286.22        41.58707
286.68        41.67215
287.13        41.77518
287.59        41.89772
288.04        41.93874
288.50        41.91729
288.95        41.82357
289.41         41.6755
289.86        41.42917
290.32        41.14977
290.77        40.86322
291.22        40.69994
291.68        40.83405
292.13        41.28772
292.59        42.04269
293.04        43.00181
293.50        44.04243
293.95        45.09976
294.40        46.20356
294.86        47.38931
295.31        48.70647
295.77        50.17284
296.22         51.7414
296.68        53.36191
297.13        54.92447
297.58        56.40849
298.04        57.85649
298.49        59.32418
298.95        60.96222
299.40        62.79198
299.85        64.77976
300.31        66.89406
300.76        69.01035
301.21         71.0778
301.67        73.13641
302.12        75.10303
302.58         76.9764
303.03        78.73075
303.48        80.41606
303.94         82.1697
304.39        84.09345
304.84         86.2379
305.30        88.56602
305.75        90.92464
306.20        93.19492
306.66        95.35354
307.11        97.37437
307.57        99.31258
308.02        101.1105
308.47        102.7932
308.93        104.3736
309.38        105.8322
309.83        107.2737
310.29         108.747
310.74        110.2123
311.19         111.658
311.65        113.0235
312.10        114.2477
312.55        115.3476
313.00        116.3618
313.46        117.3629
313.91        118.3512
314.36        119.3327
314.82        120.2411
315.27        120.9656
315.72        121.4933
316.18        121.8767
316.63        122.2226
317.08        122.7435
317.53        123.4765
317.99        124.3428
318.44        125.2094
318.89        125.8283
319.35        126.1408
319.80        126.2488
320.25         126.256
320.70        126.3409
321.16        126.5528
321.61        126.8496
322.06        127.2255
322.51        127.6856
322.97        128.1816
323.42        128.7561
323.87        129.2831
324.32        129.5729
324.78        129.5759
325.23        129.4005
325.68        129.1687
326.13        129.1294
326.59          129.33
327.04        129.7585
327.49        130.3277
327.94         130.929
328.39        131.5084
328.85         132.055
329.30        132.6059
329.75        133.0178
330.20        133.2718
330.66         133.347
331.11        133.4146
331.56        133.6309
332.01        134.0511
332.46        134.6247
332.92        135.2219
333.37         135.795
333.82        136.2344
334.27        136.5957
334.72        136.8939
335.17        137.1519
335.63        137.3719
336.08        137.6161
336.53        137.9315
336.98        138.4556
337.43        139.2037
337.88        140.1207
338.34        141.0717
338.79        141.9022
339.24        142.5198
339.69        142.9609
340.14        143.2526
340.59        143.4517
341.05        143.6097
341.50        143.7509
341.95         143.909
342.40        144.1539
342.85        144.5077
343.30        144.9441
343.75        145.4937
344.20        146.1889
344.66         147.004
345.11        147.9081
345.56        148.7147
346.01        149.1341
346.46        149.1237
346.91        148.7688
347.36        148.3433
347.81        148.2751
348.26        148.6549
348.72        149.3651
349.17        150.1328
349.62        150.5437
350.07        150.4879
350.52        150.0903
350.97        149.5778
351.42        149.3077
351.87        149.3684
352.32        149.6414
352.77        149.9125
353.22        149.8629
353.67        149.4158
354.13         148.678
354.58        147.8286
355.03        147.2168
355.48        146.9122
355.93         146.802
356.38        146.6438
356.83        146.0629
357.28        144.9992
357.73         143.612
358.18        142.1586
358.63        141.0225
359.08        140.3049
359.53        139.8846
359.98        139.5955
360.43        139.1799
360.88        138.5434
361.33        137.7414
361.78        136.8573
362.23        136.0075
362.68        135.2215
363.13          134.49
363.58        133.7105
364.03        132.5809
364.48         131.341
364.93        129.8797
365.38        128.4577
365.83        127.3522
366.28        126.6187
366.73        126.1585
367.18        125.7906
367.63        125.2268
368.08        124.3865
368.53        123.3599
368.98        122.2511
369.43        121.2309
369.88        120.3577
370.33        119.5713
370.78        118.8485
371.23        118.1573
371.68        117.4768
372.13        116.8267
372.58        116.1837
373.03         115.501
373.48        114.7725
373.93        114.0054
374.38        113.2325
374.83        112.5091
375.28        111.8453
375.72        111.2039
376.17        110.5942
376.62        109.9525
377.07        109.2661
377.52         108.545
377.97        107.8165
378.42        107.1249
378.87        106.4825
379.32        105.8839
379.77        105.2927
380.22        104.6453
380.67        103.9333
381.11        103.1881
381.56        102.4649
382.01        101.8695
382.46        101.4364
382.91        101.1371
383.36        100.9153
383.81        100.6794
384.26        100.3943
384.71        100.0748
385.15        99.72518
385.60        99.42231
386.05        99.15254
386.50        98.88892
386.95        98.59653
387.40         98.2369
387.85        97.80891
388.29        97.27653
388.74        96.78751
389.19         96.3186
389.64        95.87029
390.09        95.42194
390.54        94.96384
390.98        94.49374
391.43        94.08222
391.88        93.64809
392.33        93.19696
392.78        92.94415
393.23        92.78824
393.67        92.25088
394.12        91.44585
394.57        91.28577
395.02        91.37212
395.47        91.51321
395.91        91.50281
396.36        91.43201
396.81        91.27969
397.26        91.00251
397.71        90.64322
398.15        90.27502
398.60        90.01888
399.05        89.69494
399.50        89.38031
399.95        89.35332
400.39        89.52527
400.84        89.46268
401.29        89.12716
401.74        88.61458
402.18        88.06853
402.63        87.81832
403.08        87.84263
403.53        87.67889
403.97        87.31982
404.42        87.12341
404.87        87.05762
405.32        86.96684
405.76        86.82034
406.21        86.53442
406.66        86.21689
407.11         86.2572
407.55        86.55637
408.00        86.60889
408.45        86.31215
408.90        85.51336
409.34        84.49448
409.79        84.21132
410.24        84.59633
410.68        84.69789
411.13        84.46581
411.58        84.52294
412.03        84.81276
412.47        84.91058
412.92        84.74137
413.37         84.4561
413.81         84.1171
414.26        83.87966
414.71        83.75922
415.15        83.72594
415.60        83.72282
416.05        83.73444
416.49        83.75087
416.94        83.77016
417.39        83.78227
417.83        83.76832
418.28        83.70946
418.73        83.57116
419.17        83.39786
419.62        83.27525
420.07         83.2437
420.51        83.30214
420.96        83.34341
421.41        83.25497
421.85        83.00842
422.30        82.37333
422.74        81.65109
423.19        82.09125
423.64        83.39378
424.08        83.80241
424.53        83.18484
424.98        82.68951
425.42        83.24703
425.87        82.87212
426.31        82.03718
426.76        82.19574
427.21        83.12514
427.65        83.06155
428.10        82.11208
428.54        81.81326
428.99        82.23065
429.44        82.65507
429.88        82.86398
430.33        82.65088
430.77        82.09098
431.22        81.85667
431.66        81.98838
432.11        82.16148
432.56        82.39379
433.00        82.69875
433.45        82.75901
433.89        82.69435
434.34         82.7067
434.78        81.23421
435.23        81.78294
435.67        81.85827
436.12        82.37444
436.57        82.41461
437.01        82.16869
437.46        81.83173
437.90        81.90636
438.35        82.87727
438.79        82.32578
439.24         82.4556
439.68        82.54618
440.13        82.66572
440.57           82.77
441.02        82.93061
441.46        83.03857
441.91        82.78314
442.35        82.23979
442.80        82.10564
443.24        82.32578
443.69         82.4426
444.13        82.42563
444.58        82.62917
445.02        82.97122
445.47        83.12993
445.91         83.0779
446.36        83.07552
446.80        83.11595
447.24        82.99808
447.69        82.77821
448.13        82.78186
448.58        82.93957
449.02         82.7061
449.47        82.21748
449.91        82.12769
450.36        82.45146
450.80        82.67433
451.25        82.74321
451.69        82.83733
452.13        82.91515
452.58        82.79998
453.02         82.5463
453.47        82.33479
453.91        82.18642
454.36         82.1774
454.80        82.19652
455.24        81.81769
455.69        81.18108
456.13        80.78302
456.58        80.82712
457.02        80.64349
457.46        81.59876
457.91        81.29237
458.35        80.60858
458.79        80.27354
459.24        80.42582
459.68         80.4273
460.13        80.25181
460.57        80.09559
461.01        79.99892
461.46        79.91924
461.90        79.48231
462.34        79.85666
462.79         79.7616
463.23        79.80844
463.68        79.65814
464.12         79.4446
464.56        79.27708
465.01        79.43824
465.45        79.69879
465.89        79.74091
466.34        79.57996
466.78         79.0349
467.22        78.24306
467.67        78.66228
468.11        78.55872
468.55         78.5073
468.99        78.05471
469.44        77.94695
469.88        78.19032
470.32        78.37849
470.77        78.45599
471.21        78.50019
471.65        78.48341
472.10        78.39607
472.54        78.22282
472.98        78.01674
473.42        77.81004
473.87        77.54029
474.31        77.23151
474.75        77.24522
475.20        77.48398
475.64        77.35654
476.08        76.91505
476.52        76.88307
476.97        77.31536
477.41        77.26997
477.85        77.48623
478.29         77.6397
478.74        77.75101
479.18        76.69054
479.62         77.1905
480.06        76.99428
480.50         76.9681
480.95        76.95524
481.39        76.82342
481.83        77.18354
482.27         77.2273
482.72        76.35063
483.16        76.81481
483.60        76.53578
484.04        76.39613
484.48        76.44395
484.93        76.99787
485.37        76.44992
485.81        76.99216
486.25        77.56965
486.69        77.49803
487.14        76.42197
487.58         76.5074
488.02        76.93346
488.46        77.27716
488.90        76.08965
489.34        76.25793
489.79        75.85176
490.23        76.10504
490.67          75.986
491.11        75.65019
491.55        75.58533
491.99        75.75592
492.43        75.84447
492.88        75.81862
493.32        75.86014
493.76          75.944
494.20        76.04011
494.64        76.16266
495.08        76.17863
495.52        76.11013
495.96        76.34325
496.41        76.73223
496.85        76.43388
497.29        75.62012
497.73        75.49638
498.17        75.91536
498.61        76.07687
499.05        75.85806
499.49        75.75924
499.93        75.84235
500.37        75.79018
500.82        75.60281
501.26        75.83279
501.70        76.50933
502.14        75.68028
502.58        76.08743
503.02         75.9968
503.46        75.90716
503.90        75.81806
504.34        75.68195
504.78        75.66524
505.22        75.71249
505.66        75.73254
506.10        75.73307
506.54        75.68469
506.98        75.55035
507.42        75.82441
507.86        75.63396
508.30        75.52475
508.74        75.57582
509.18        75.52651
509.62        75.47514
510.06        75.42859
510.50        75.39989
510.94         75.3782
511.38        75.35446
511.82        75.32046
512.26        75.27415
512.70        75.21423
513.14        75.15904
513.58        75.13116
514.02        75.13556
514.46        75.13473
514.90        75.26801
515.34        75.13064
515.78        75.19293
516.22        75.11227
516.66        75.04939
517.10        75.04111
517.54        75.09481
517.98          75.187
518.42        75.27438
518.86        75.29984
519.30        75.24957
519.74        75.14866
520.18        75.02567
520.62        74.92327
521.06        74.85982
521.50        74.82543
521.93        74.82764
522.37        74.86297
522.81        74.92961
523.25        75.02056
523.69        75.11456
524.13        75.17707
524.57        75.19814
525.01        75.18588
525.45        75.14494
525.89        75.08592
526.32        75.01169
526.76        74.93593
527.20        74.87228
527.64         74.8507
528.08        74.87453
528.52        74.93298
528.96        75.00313
529.40        75.04689
529.83        75.04589
530.27        75.02425
530.71        74.98032
531.15        74.92444
531.59        74.86308
532.03         74.7928
532.46        74.71922
532.90         74.6758
533.34        74.66108
533.78        74.67009
534.22        74.68322
534.66        74.66893
535.09        74.61106
535.53        74.53921
535.97        74.45893
536.41         74.4025
536.85        74.38046
537.28        74.37951
537.72        74.38305
538.16        74.41282
538.60        74.37227
539.04         74.3596
539.47        74.34986
539.91        74.39233
540.35         74.4698
540.79        74.58067
541.22        74.67942
541.66        74.70175
542.10        74.63376
542.54        74.50042
542.97        74.34257
543.41         74.2662
543.85        74.27867
544.29        74.35529
544.72        74.44213
545.16        74.49222
545.60        74.47185
546.04        74.39446
546.47        74.29002
546.91        74.21069
547.35         74.1596
547.79        74.14957
548.22        74.13241
548.66        74.00756
549.10        73.81052
549.53         73.8031
549.97        73.97046
550.41        74.03959
550.84        73.97108
551.28        73.99607
551.72        74.13258
552.15        74.07928
552.59        73.79957
553.03        74.30686
553.46        73.86593
553.90        73.93118
554.34        73.98021
554.77        74.06248
555.21        74.11765
555.65        74.09373
556.08        73.92808
556.52        73.79153
556.96        73.69775
557.39         73.7717
557.83        73.96407
558.27        73.93725
558.70        73.71616
559.14        73.63744
559.57          73.699
560.01        73.74887
560.45        73.74915
560.88        73.71723
561.32        73.72305
561.75        73.72153
562.19        73.75401
562.63        73.92918
563.06        74.14861
563.50        74.03733
563.93        73.65678
564.37        73.53984
564.80        73.67199
565.24        73.75803
565.68        73.77067
566.11        73.80666
566.55        73.87477
566.98        73.95853
567.42        74.03384
567.85        73.90879
568.29        73.70786
568.72        73.59615
569.16        73.57729
569.60        73.70947
570.03        73.98709
570.47        73.62891
570.90        73.51384
571.34         74.4642
571.77         73.9068
572.21        73.98894
572.64        74.19852
573.08        73.79327
573.51        73.74963
573.95         73.7923
574.38        74.04592
574.82        74.11292
