SpectraSmart Spectrum 2.9.0.0
--------- Device Information -----------
Spectrum Name :  反射率_0
Saving Time :  2024/04/27 23:58:02
Spectro-Module Model Name : SE2030-DUVN
Spectro-Module Serial Number : OS361AC55029948
Wavelength Start : 200
Wavelength End : 1025
Wavelength Unit : Wavelength(nm)
Spectrum Unit : Reflectance(%)
-----------Spectrum Setting ------------
Integration Time : 20ms
Average : 10
Boxcar : 0
Background removal :  enabled
linearity correction :  enabled
SC :  disabled
Intensity correction :  disabled
DWT denoise :  enabled
savitzky-golay :  disabled
FFT :  disabled
Running average :  disabled
Kalman :  disabled
High pass :  disabled
---------------BEGIN--------------------
Wavelength(nm)             Reflectance(%)
200.29               0
200.75        2.236656
201.21        21.08144
201.67        40.53155
202.13        52.95253
202.58        60.65535
203.04         66.7314
203.50        72.31255
203.96        77.72793
204.42        82.33164
204.88        85.64339
205.34        87.48052
205.80         87.8371
206.26         86.6199
206.72        83.10822
207.18        76.16613
207.64        67.96162
208.10        63.79863
208.55        64.58398
209.01        64.97346
209.47        61.54572
209.93          51.888
210.39        26.46933
210.85       -49.82801
211.31       -139.0089
211.77        -26.0424
212.23         46.2862
212.69        70.99879
213.14        77.43143
213.60        74.58741
214.06        63.85313
214.52        43.51523
214.98        28.16212
215.44        34.06337
215.90        47.82618
216.36        58.95145
216.81        64.13834
217.27        64.94851
217.73        63.88593
218.19        61.39553
218.65        57.68629
219.11        53.10522
219.57        47.14091
220.02        40.88944
220.48        38.81971
220.94        41.70785
221.40        47.64482
221.86        53.98917
222.32        58.11117
222.77        59.88463
223.23        60.23411
223.69        59.55555
224.15        58.07254
224.61        55.98763
225.06        53.03614
225.52        50.26817
225.98        49.39858
226.44        50.43719
226.90        52.21051
227.36        53.63901
227.81        53.82195
228.27        52.77658
228.73         50.7822
229.19        47.88661
229.65        44.46603
230.10        40.99171
230.56        37.88597
231.02         35.4866
231.48        34.24788
231.93        34.06691
232.39        34.78001
232.85        36.14661
233.31        37.81792
233.77        39.59751
234.22        41.61995
234.68        43.35428
235.14        44.27276
235.60        44.38445
236.05        43.66121
236.51        43.16078
236.97        44.94479
237.43         49.4936
237.88         56.1482
238.34        62.68695
238.80        67.23958
239.26        69.67142
239.71        70.27229
240.17        69.41624
240.63        70.08186
241.08        73.85257
241.54        78.03582
242.00        80.82605
242.46        81.88511
242.91        81.71603
243.37        80.01685
243.83         76.6051
244.28        75.10358
244.74        81.40961
245.20         91.0775
245.66        96.32223
246.11        95.99702
246.57        91.08834
247.03        80.37595
247.48        62.71393
247.94        47.04065
248.40        45.88011
248.85        55.18336
249.31        68.49673
249.77         79.8054
250.22        87.64008
250.68        93.63432
251.14        97.57752
251.59        99.47601
252.05        99.88821
252.51        98.08746
252.96         94.6813
253.42        93.75512
253.88        96.51683
254.33        100.8494
254.79        103.2859
255.25        100.7519
255.70        94.63932
256.16        87.86224
256.62         83.2007
257.07        83.59435
257.53        88.05179
257.99        93.42297
258.44        97.28942
258.90        98.36937
259.35        96.61092
259.81        93.81886
260.27        90.56376
260.72        87.56061
261.18        85.47702
261.63         83.5926
262.09        82.17897
262.55        80.97034
263.00        79.74393
263.46         78.7304
263.91        77.62503
264.37        76.50958
264.83        75.28519
265.28        73.92623
265.74        72.57669
266.19        71.07973
266.65        69.54204
267.11        67.92877
267.56        66.27763
268.02        64.79051
268.47        63.45944
268.93        62.26245
269.38        61.16441
269.84        60.14392
270.30        59.16578
270.75        58.24332
271.21        57.28409
271.66        56.08309
272.12        54.64969
272.57        52.98661
273.03        51.36324
273.48        50.09802
273.94        49.31212
274.39        48.85177
274.85        48.48449
275.31        47.75935
275.76         46.5899
276.22        45.17394
276.67        43.75573
277.13        42.81916
277.58        42.35024
278.04        42.22991
278.49         42.0849
278.95        41.52859
279.40        40.44507
279.86        39.08865
280.31        37.69986
280.77        36.76876
281.22        36.32848
281.68        36.26269
282.13        36.31833
282.59        36.22462
283.04        35.89253
283.50        35.45744
283.95        35.02138
284.41        34.78802
284.86        34.77792
285.32         34.9355
285.77        35.15166
286.22        35.33863
286.68        35.48101
287.13        35.56017
287.59        35.64459
288.04         35.7439
288.50        35.89387
288.95        36.04322
289.41        36.17196
289.86        36.18827
290.32        36.12886
290.77        36.04119
291.22        36.02398
291.68        36.20388
292.13        36.61404
292.59        37.25798
293.04        38.11814
293.50        39.19114
293.95        40.44365
294.40         41.8766
294.86        43.45784
295.31        45.12875
295.77        46.87122
296.22        48.65485
296.68        50.47313
297.13        52.29042
297.58        54.08949
298.04        55.87281
298.49        57.62644
298.95        59.40173
299.40        61.21678
299.85        63.09423
300.31        65.08729
300.76        67.19674
301.21        69.41322
301.67         71.7432
302.12        74.06612
302.58        76.32361
303.03        78.45514
303.48        80.49964
303.94        82.58912
304.39        84.81818
304.84        87.22762
305.30        89.77988
305.75        92.27001
306.20        94.51282
306.66        96.48849
307.11        98.19349
307.57        99.80493
308.02        101.4501
308.47        103.1838
308.93        104.9684
309.38        106.6271
309.83        108.0204
310.29        109.1585
310.74        110.0864
311.19         110.965
311.65          112.01
312.10        113.2257
312.55        114.5336
313.00        115.8205
313.46        116.9277
313.91        117.7883
314.36        118.4725
314.82        119.0096
315.27        119.4403
315.72        119.7992
316.18         120.099
316.63        120.3686
317.08         120.701
317.53        121.1179
317.99        121.5946
318.44        122.1134
318.89        122.6039
319.35        123.0385
319.80        123.4483
320.25        123.8102
320.70        124.1002
321.16        124.3112
321.61        124.4639
322.06        124.6212
322.51        124.9057
322.97        125.3127
323.42        125.8388
323.87         126.363
324.32        126.7071
324.78        126.8099
325.23        126.7845
325.68        126.6866
326.13        126.6455
326.59         126.688
327.04        126.8323
327.49        127.0853
327.94        127.4982
328.39        128.0633
328.85        128.7328
329.30        129.4709
329.75        130.0055
330.20        130.2755
330.66        130.3024
331.11        130.3022
331.56        130.5066
332.01        130.9939
332.46        131.6809
332.92        132.4146
333.37         133.112
333.82        133.6405
334.27        134.0538
334.72        134.3619
335.17        134.5791
335.63        134.7095
336.08         134.826
336.53        134.9662
336.98        135.2526
337.43        135.7182
337.88        136.3313
338.34        137.0385
338.79        137.8061
339.24         138.567
339.69        139.3212
340.14        139.9969
340.59        140.4879
341.05        140.7869
341.50        140.9399
341.95        141.0415
342.40        141.2683
342.85        141.6695
343.30        142.1886
343.75        142.7836
344.20        143.3772
344.66        143.9286
345.11        144.4496
345.56        144.8775
346.01        145.1079
346.46        145.1394
346.91        145.0125
347.36        144.8492
347.81        144.8421
348.26        145.0341
348.72        145.3696
349.17        145.7542
349.62        146.0597
350.07        146.2286
350.52        146.2879
350.97        146.2428
351.42        146.1042
351.87        145.8864
352.32        145.5889
352.77        145.2236
353.22        144.8152
353.67        144.3751
354.13        143.9156
354.58        143.4358
355.03        142.9964
355.48        142.5956
355.93        142.2123
356.38        141.7787
356.83        141.1843
357.28        140.4153
357.73        139.5258
358.18        138.5815
358.63         137.681
359.08        136.8634
359.53        136.1038
359.98        135.4086
360.43        134.7883
360.88        134.2197
361.33        133.6795
361.78        133.1156
362.23        132.4304
362.68        131.5983
363.13        130.6785
363.58         129.686
364.03        128.5169
364.48        127.4202
364.93        126.2402
365.38        125.1145
365.83        124.1486
366.28        123.3585
366.73         122.706
367.18        122.1099
367.63         121.437
368.08        120.6497
368.53        119.7908
368.98        118.8889
369.43        117.9953
369.88        117.1333
370.33        116.2768
370.78         115.461
371.23        114.7472
371.68        114.1345
372.13        113.6063
372.58        113.0738
373.03        112.3882
373.48        111.5237
373.93        110.5315
374.38        109.5118
374.83        108.6221
375.28        107.9007
375.72        107.2767
376.17        106.7265
376.62        106.1342
377.07        105.4683
377.52          104.76
377.97        104.0311
378.42        103.3152
378.87        102.6297
379.32         101.969
379.77        101.3298
380.22        100.7026
380.67        100.0864
381.11        99.49708
381.56        98.94505
382.01        98.46014
382.46        98.05444
382.91        97.71537
383.36        97.42759
383.81        97.16566
384.26        96.90914
384.71        96.65263
385.15        96.35835
385.60        96.03642
386.05        95.66417
386.50        95.24462
386.95        94.79642
387.40        94.35867
387.85        93.94938
388.29        93.50968
388.74        93.13286
389.19        92.73119
389.64         92.2805
390.09        91.76814
390.54        91.23266
390.98        90.71844
391.43        90.31606
391.88         90.0246
392.33        89.73345
392.78        89.40212
393.23        89.06255
393.67        88.41317
394.12        87.71041
394.57        88.22362
395.02        88.48045
395.47        88.61774
395.91        88.20836
396.36        87.98857
396.81        87.96572
397.26        87.72008
397.71        87.28149
398.15        86.85889
398.60        86.57535
399.05        86.22994
399.50        85.89265
399.95        85.85332
400.39        86.03456
400.84        85.92648
401.29        85.53197
401.74        85.23251
402.18        85.06434
402.63        84.80918
403.08        84.49467
403.53         84.2268
403.97        84.02624
404.42         83.9146
404.87        83.82582
405.32        83.70686
405.76        83.53815
406.21        83.19519
406.66        82.78443
407.11        82.83765
407.55        83.23253
408.00        83.06564
408.45        82.38469
408.90        81.90258
409.34        81.71658
409.79        81.69225
410.24         81.7002
410.68        81.68619
411.13        81.60351
411.58        81.57718
412.03        81.58556
412.47        81.53036
412.92        81.37635
413.37        81.17351
413.81        80.96348
414.26        80.86726
414.71        80.87902
415.15        80.99197
415.60        81.09961
416.05        81.08731
416.49        80.93716
416.94        80.68674
417.39        80.42907
417.83        80.30209
418.28        80.32983
418.73        80.44412
419.17        80.60284
419.62        80.74233
420.07        80.83859
420.51        80.91296
420.96        80.92363
421.41        80.79773
421.85        80.51529
422.30        80.01434
422.74        79.46115
423.19        79.52178
423.64        80.07916
424.08        80.36828
424.53         80.1908
424.98        80.09583
425.42        80.09686
425.87        79.61691
426.31        78.90511
426.76        78.96184
427.21        79.66353
427.65        79.84134
428.10        79.46345
428.54        79.41768
428.99        79.73743
429.44        79.94416
429.88        79.94393
430.33        79.79179
430.77        79.49816
431.22        79.34406
431.66        79.35941
432.11        79.48645
432.56        79.78489
433.00        80.07762
433.45        80.06496
433.89        80.17887
434.34        80.55106
434.78        78.86046
435.23        79.28703
435.67        79.28976
436.12        80.27063
436.57        80.23544
437.01         79.5611
437.46        79.10123
437.90        79.37114
438.35        80.47589
438.79        80.03709
439.24         80.1837
439.68        80.22467
440.13        80.13088
440.57         79.9684
441.02         80.2109
441.46        80.66144
441.91        80.44264
442.35        79.68113
442.80        79.52252
443.24        79.92551
443.69        80.19473
444.13        80.20654
444.58        80.52374
445.02         80.5287
445.47         80.6275
445.91        80.64671
446.36        80.58121
446.80        80.40674
447.24        80.47922
447.69        80.14753
448.13        80.31248
448.58        80.67738
449.02        80.75532
449.47        80.57271
449.91        80.54278
450.36        80.69926
450.80        80.75034
451.25        80.70525
451.69        80.68756
452.13        80.68512
452.58        80.59434
453.02        80.43534
453.47        80.28012
453.91         80.1274
454.36        80.09734
454.80        80.08687
455.24        79.71131
455.69        79.11662
456.13        78.84968
456.58        78.67429
457.02        78.95213
457.46        79.52708
457.91        79.41347
458.35        78.98859
458.79        78.72604
459.24        78.75765
459.68        78.59482
460.13        78.29681
460.57        77.98405
461.01        78.06461
461.46        77.66066
461.90        77.80905
462.34        77.65531
462.79        77.80419
463.23        77.68919
463.68        77.45083
464.12        77.23454
464.56        77.11729
465.01        77.23544
465.45        77.38235
465.89        77.44068
466.34        77.43508
466.78        77.07723
467.22        76.45208
467.67        77.12143
468.11        77.02444
468.55         77.0172
468.99        76.56347
469.44        76.41358
469.88        76.58186
470.32        76.67886
470.77        76.65889
471.21        76.59734
471.65        76.48221
472.10        76.32133
472.54        76.11649
472.98        75.94614
473.42        75.84602
473.87        75.69761
474.31        75.50826
474.75        75.69555
475.20        76.13989
475.64        75.94118
476.08        75.82546
476.52        75.60294
476.97         75.4166
477.41        75.69132
477.85         75.4838
478.29         75.0487
478.74        75.05489
479.18         75.0725
479.62        75.08025
480.06        75.09396
480.50        75.00452
480.95        75.05825
481.39        75.25542
481.83        74.88783
482.27        75.07646
482.72        75.11082
483.16        75.25315
483.60        74.87789
484.04        75.04644
484.48         74.8555
484.93        74.81203
485.37        74.69022
485.81        74.91893
486.25        75.15971
486.69        74.78983
487.14        74.13332
487.58        74.38765
488.02        74.66998
488.46        74.00944
488.90        74.79105
489.34        74.76868
489.79        74.43613
490.23        74.74797
490.67        74.45853
491.11        74.13641
491.55        74.04028
491.99        74.18833
492.43        74.22765
492.88         74.1244
493.32        74.12808
493.76        74.22374
494.20        74.33192
494.64        74.46457
495.08        74.55607
495.52        74.58068
495.96        74.77446
496.41        75.03465
496.85        74.65876
497.29        73.85712
497.73         73.9176
498.17        74.60409
498.61        74.68892
499.05        74.09904
499.49        73.86669
499.93        74.05764
500.37        73.97211
500.82        73.61258
501.26        73.76033
501.70        74.44819
502.14        73.65876
502.58        74.06149
503.02        74.01102
503.46        73.99085
503.90        73.99275
504.34        73.93304
504.78        73.93359
505.22        73.95048
505.66        73.82993
506.10        73.66399
506.54        73.70235
506.98        73.90567
507.42        74.01459
507.86        74.50201
508.30        73.80381
508.74        74.33855
509.18        74.15542
509.62        73.97115
510.06        73.82647
510.50        73.75333
510.94        73.70947
511.38         73.6605
511.82        73.61285
512.26        73.55767
512.70         73.5096
513.14        73.48405
513.58        73.47093
514.02        73.46771
514.46        73.52121
514.90        73.63433
515.34        73.55244
515.78        73.69267
516.22        73.71262
516.66        73.74114
517.10        73.77207
517.54         73.8082
517.98        73.84396
518.42        73.86515
518.86        73.86185
519.30        73.83264
519.74        73.78207
520.18        73.73129
520.62        73.71171
521.06        73.72984
521.50        73.77827
521.93         73.8335
522.37        73.84166
522.81        73.79791
523.25        73.71513
523.69        73.62447
524.13        73.57516
524.57        73.57731
525.01        73.61448
525.45        73.65588
525.89        73.65247
526.32        73.58808
526.76        73.49542
527.20        73.39576
527.64        73.33149
528.08        73.31265
528.52        73.31946
528.96         73.3413
529.40        73.36266
529.83        73.36766
530.27        73.37708
530.71        73.36689
531.15        73.30782
531.59         73.2028
532.03         73.0666
532.46        72.93369
532.90        72.88361
533.34        72.92448
533.78        73.02889
534.22        73.16219
534.66         73.2717
535.09        73.32787
535.53        73.36331
535.97        73.36282
536.41        73.32114
536.85         73.2441
537.28        73.13789
537.72        73.02808
538.16        72.94719
538.60        72.91048
539.04        72.92966
539.47        72.96912
539.91        73.01266
540.35        73.03194
540.79        73.04282
541.22         73.0444
541.66        73.04544
542.10        73.04283
542.54        73.03204
542.97        72.99718
543.41        72.95721
543.85        72.90296
544.29        72.84406
544.72        72.77567
545.16        72.72193
545.60        72.67114
546.04        72.62486
546.47        72.59375
546.91        72.57012
547.35        72.55474
547.79        72.63226
548.22        72.73045
548.66        72.64896
549.10        72.42179
549.53        72.37011
549.97        72.49341
550.41        72.52061
550.84        72.43567
551.28        72.43001
551.72        72.50457
552.15        72.44572
552.59         72.2411
553.03        72.30365
553.46        72.20969
553.90         71.8969
554.34        72.13634
554.77        72.21311
555.21        72.33944
555.65        72.35039
556.08        72.30115
556.52         72.1978
556.96        72.09968
557.39        72.19463
557.83         72.4332
558.27        72.46233
558.70        72.29156
559.14        72.18606
559.57        72.16313
560.01        72.22495
560.45        72.29758
560.88        72.18092
561.32        71.97713
561.75        71.85725
562.19        71.87393
562.63        72.03488
563.06        72.23592
563.50        72.11827
563.93        71.75681
564.37         71.7158
564.80         71.9582
565.24        72.14072
565.68         72.1936
566.11         72.1563
566.55        72.08982
566.98        72.08781
567.42        72.16859
567.85        72.19875
568.29         72.2273
568.72        72.11523
569.16        71.95539
569.60        71.93966
570.03        72.08167
570.47        71.81426
570.90        72.08422
571.34        71.83499
571.77        72.28185
572.21        71.78131
572.64        72.13651
573.08        71.69775
573.51        71.68729
573.95        71.58276
574.38        71.57845
574.82        71.48588
