SpectraSmart Spectrum 2.9.0.0
--------- Device Information -----------
Spectrum Name :  反射率_0
Saving Time :  2024/04/28 00:09:42
Spectro-Module Model Name : SE2030-DUVN
Spectro-Module Serial Number : OS361AC55029948
Wavelength Start : 200
Wavelength End : 1025
Wavelength Unit : Wavelength(nm)
Spectrum Unit : Reflectance(%)
-----------Spectrum Setting ------------
Integration Time : 20ms
Average : 10
Boxcar : 0
Background removal :  enabled
linearity correction :  enabled
SC :  disabled
Intensity correction :  disabled
DWT denoise :  enabled
savitzky-golay :  disabled
FFT :  disabled
Running average :  disabled
Kalman :  disabled
High pass :  disabled
---------------BEGIN--------------------
Wavelength(nm)             Reflectance(%)
200.29               0
200.75        65.52777
201.21        67.92314
201.67        72.40141
202.13         71.2543
202.58        65.52304
203.04         58.4908
203.50        54.68667
203.96        60.04012
204.42        72.57078
204.88        87.08487
205.34        99.48734
205.80         107.213
206.26        110.6972
206.72        111.0544
207.18        106.5167
207.64        96.09483
208.10        85.73158
208.55        79.70382
209.01        76.02615
209.47        71.53287
209.93        63.44785
210.39        45.08385
210.85       -6.813686
211.31       -61.73658
211.77        18.53214
212.23        66.39993
212.69        82.28821
213.14        86.73724
213.60        85.43658
214.06        79.82977
214.52        67.88583
214.98        55.11169
215.44         52.3566
215.90        54.98957
216.36        59.40798
216.81        64.36596
217.27        69.59293
217.73        76.12806
218.19        81.49991
218.65        80.84413
219.11        72.85117
219.57        57.92805
220.02         40.4311
220.48        33.15455
220.94        39.93419
221.40        55.09972
221.86        70.76901
222.32        79.33997
222.77        80.65224
223.23        77.86454
223.69        73.57348
224.15        70.17986
224.61        68.01865
225.06        66.08432
225.52        63.93113
225.98        60.99259
226.44        57.89194
226.90        55.35157
227.36        53.77254
227.81         53.2051
228.27        53.36413
228.73        53.97853
229.19        54.38324
229.65        53.38557
230.10         50.7316
230.56        47.28873
231.02        43.87007
231.48        41.65487
231.93        40.77125
232.39        40.78998
232.85        41.54399
233.31        42.84153
233.77        44.46124
234.22        46.55291
234.68        48.31828
235.14        48.76571
235.60        47.81107
236.05        45.45862
236.51        43.06355
236.97        43.59324
237.43        47.92458
237.88        55.14928
238.34        62.46074
238.80         67.0937
239.26        68.55548
239.71        67.00562
240.17        62.36246
240.63        58.97937
241.08        61.19519
241.54        66.01472
242.00        70.31154
242.46        72.94154
242.91        74.61516
243.37        76.34993
243.83        79.24946
244.28         83.8773
244.74        86.94308
245.20        86.26383
245.66        84.20178
246.11        82.89377
246.57        82.31498
247.03        81.89157
247.48        82.86375
247.94        88.52161
248.40        98.21775
248.85        108.5898
249.31        115.0419
249.77        114.2851
250.22        108.8622
250.68         101.813
251.14        95.77567
251.59        92.86087
252.05        92.91626
252.51        94.91849
252.96         98.0183
253.42         99.4898
253.88        97.33237
254.33        93.60471
254.79        89.81705
255.25        85.45101
255.70         80.5343
256.16        75.91816
256.62        72.68295
257.07        72.16926
257.53        73.93986
257.99        76.24413
258.44        77.52566
258.90        76.97908
259.35        74.52466
259.81        71.37829
260.27        68.08958
260.72        65.36171
261.18        63.65786
261.63        62.37546
262.09        61.39219
262.55        60.14002
263.00        58.50149
263.46        56.80904
263.91        55.24958
264.37        54.44366
264.83        54.29485
265.28        54.48578
265.74         54.6435
266.19        54.07305
266.65        52.78904
267.11        50.97947
267.56        48.99712
268.02        47.49919
268.47        46.60013
268.93        46.12262
269.38        45.78984
269.84        45.20248
270.30        44.24446
270.75        43.05565
271.21        41.79887
271.66        40.65709
272.12        39.71146
272.57        38.85631
273.03        38.05171
273.48        37.16687
273.94        36.24195
274.39         35.3056
274.85        34.47434
275.31        33.81731
275.76        33.31478
276.22        32.94175
276.67        32.60053
277.13        32.25673
277.58        31.84129
278.04        31.42357
278.49        30.94087
278.95        30.41673
279.40        29.81833
279.86        29.20911
280.31        28.62594
280.77        28.24394
281.22        28.03579
281.68        27.98883
282.13        27.96834
282.59        27.83439
283.04        27.54502
283.50         27.1677
283.95        26.78321
284.41        26.55526
284.86        26.50008
285.32        26.58272
285.77        26.70258
286.22        26.75357
286.68        26.72937
287.13        26.63669
287.59        26.56626
288.04        26.57681
288.50        26.70807
288.95        26.89577
289.41        27.10508
289.86        27.23941
290.32        27.30444
290.77        27.33173
291.22        27.37575
291.68        27.50546
292.13        27.74442
292.59         28.1076
293.04        28.59703
293.50        29.23688
293.95        30.02154
294.40        30.96048
294.86         32.0529
295.31        33.28463
295.77        34.65038
296.22         36.1225
296.68        37.68097
297.13        39.26386
297.58        40.84697
298.04        42.43587
298.49         44.0237
298.95        45.65363
299.40        47.34621
299.85        49.11131
300.31        50.99681
300.76        53.00871
301.21        55.13043
301.67        57.34952
302.12        59.55415
302.58        61.67461
303.03        63.65976
303.48        65.55108
303.94        67.45267
304.39        69.43656
304.84        71.54532
305.30        73.75581
305.75         75.9408
306.20        78.00489
306.66         79.9417
307.11        81.73177
307.57        83.46893
308.02        85.16935
308.47        86.85841
308.93        88.52267
309.38        90.07103
309.83        91.47619
310.29        92.76149
310.74        93.92891
311.19        95.04541
311.65        96.18343
312.10        97.32047
312.55        98.43241
313.00        99.48911
313.46         100.457
313.91        101.3095
314.36        102.0763
314.82        102.7469
315.27        103.2979
315.72         103.737
316.18        104.0927
316.63        104.4058
317.08          104.78
317.53         105.244
317.99        105.7711
318.44        106.3223
318.89        106.8187
319.35        107.2357
319.80        107.5708
320.25        107.8453
320.70        108.2758
321.16        108.5908
321.61        109.0011
322.06         109.392
322.51         109.732
322.97        109.9892
323.42        110.2166
323.87        110.4102
324.32        110.5779
324.78        110.7145
325.23        110.8622
325.68        111.0176
326.13         111.204
326.59        111.4028
327.04        111.6616
327.49        111.9578
327.94        112.2882
328.39        112.6488
328.85        113.0049
329.30        113.4098
329.75        113.7852
330.20        114.1184
330.66        114.3877
331.11        114.6888
331.56        115.0582
332.01        115.5187
332.46        116.0513
332.92         116.576
333.37        117.1168
333.82        117.5958
334.27        118.0188
334.72        118.4024
335.17        118.7775
335.63        119.1337
336.08        119.5337
336.53        119.9306
336.98        120.2949
337.43        120.6299
337.88         120.947
338.34        121.3035
338.79        121.8479
339.24        122.5729
339.69        123.4294
340.14        124.2849
340.59        124.9249
341.05         125.304
341.50        125.5053
341.95         125.633
342.40        125.8752
342.85         126.289
343.30        126.8021
343.75        127.3974
344.20        128.0434
344.66        128.7101
345.11        129.4115
345.56        130.0358
346.01         130.397
346.46        130.4774
346.91          130.33
347.36        130.1609
347.81        130.2959
348.26        130.7944
348.72        131.5576
349.17        132.3573
349.62        132.8488
350.07        132.9367
350.52         132.722
350.97        132.3755
351.42        132.1707
351.87         132.184
352.32        132.3313
352.77        132.4797
353.22        132.4309
353.67        132.1372
354.13        131.6764
354.58        131.1459
355.03         130.761
355.48        130.5572
355.93        130.4543
356.38         130.298
356.83        129.8521
357.28        129.0788
357.73        128.0866
358.18        127.0218
358.63        126.1013
359.08        125.3952
359.53         124.841
359.98        124.3914
360.43         123.973
360.88        123.5389
361.33        123.0935
361.78        122.6147
362.23        122.0559
362.68        121.4034
363.13        120.6836
363.58        119.8889
364.03        118.9282
364.48        117.9704
364.93        116.9306
365.38        115.9301
365.83        115.0845
366.28        114.4105
366.73        113.8578
367.18         113.357
367.63        112.7947
368.08        112.1307
368.53        111.4041
368.98        110.6002
369.43        109.6989
369.88        108.7206
370.33        107.6742
370.78        106.6661
371.23        105.8727
371.68        105.3221
372.13        104.9564
372.58        104.6484
373.03        104.1817
373.48         103.498
373.93        102.6708
374.38        101.7685
374.83        100.8981
375.28        100.1079
375.72        99.34961
376.17        98.68553
376.62        98.14454
377.07        97.71455
377.52        97.36607
377.97        97.04023
378.42        96.63879
378.87        96.13759
379.32        95.57909
379.77        94.95853
380.22        94.26674
380.67        93.52373
381.11        92.73887
381.56        92.01743
382.01        91.54724
382.46        91.36067
382.91         91.3968
383.36        91.49093
383.81         91.3802
384.26        90.99692
384.71        90.41157
385.15        89.72555
385.60         89.1702
386.05        88.78119
386.50        88.48865
386.95        88.22658
387.40        87.89931
387.85         87.4922
388.29        87.01492
388.74        86.58932
389.19        86.17191
389.64        85.75983
390.09        85.32323
390.54        84.91499
390.98        84.60722
391.43          84.461
391.88        84.44193
392.33        84.39658
392.78        84.18853
393.23         83.8286
393.67        83.15336
394.12        82.40559
394.57         82.5716
395.02        82.38112
395.47         82.4475
395.91        82.31677
396.36        82.13953
396.81        81.90113
397.26        81.52744
397.71        81.09846
398.15        80.75397
398.60        80.59997
399.05        80.42746
399.50        80.28061
399.95        80.37089
400.39        80.59844
400.84        80.62863
401.29        80.39737
401.74         79.8109
402.18        79.07312
402.63        78.82938
403.08        79.04818
403.53        78.98469
403.97        78.61012
404.42        78.44041
404.87        78.44586
405.32        78.36574
405.76        78.16928
406.21        77.89079
406.66        77.60902
407.11        77.50056
407.55        77.54987
408.00         77.6291
408.45        77.65327
408.90        77.20761
409.34        76.49038
409.79        76.45677
410.24        76.99727
410.68        77.15829
411.13         76.8847
411.58        76.74235
412.03        76.77282
412.47        76.78489
412.92          76.756
413.37         76.7578
413.81        76.75724
414.26        76.76533
414.71        76.76188
415.15        76.75976
415.60        76.74233
416.05        76.75532
416.49        76.80846
416.94        76.87251
417.39        76.93114
417.83        76.95562
418.28        76.93356
418.73        76.86589
419.17        76.77281
419.62        76.69125
420.07        76.64351
420.51        76.62146
420.96        76.61965
421.41        76.61093
421.85        76.55899
422.30        76.40948
422.74        76.22951
423.19        76.43679
423.64        76.91641
424.08        77.17564
424.53        77.10009
424.98        76.80744
425.42        77.05013
425.87        76.69479
426.31         76.1685
426.76        76.48032
427.21        77.44292
427.65        77.63106
428.10         77.0731
428.54        76.98062
428.99        77.41058
429.44        77.79448
429.88        77.93935
430.33        77.71043
430.77        77.21111
431.22        76.91549
431.66        76.92529
432.11        77.40526
432.56        78.21573
433.00        78.55666
433.45        78.22438
433.89        78.14191
434.34        78.36217
434.78        77.92467
435.23         77.5227
435.67        77.77094
436.12        78.63972
436.57        78.71886
437.01        78.14916
437.46        77.97046
437.90        78.49339
438.35        79.04254
438.79        79.12717
439.24        79.17591
439.68        79.09333
440.13        78.85417
440.57        78.60617
441.02         78.9224
441.46        79.61137
441.91        79.68302
442.35        79.19862
442.80        79.41591
443.24        80.18391
443.69         80.3755
444.13         79.9916
444.58        79.90225
445.02        80.09727
445.47        80.21406
445.91        80.23067
446.36        80.23815
446.80        80.20132
447.24        80.45207
447.69        80.27918
448.13        80.54423
448.58        80.93337
449.02        80.98101
449.47        80.74081
449.91        80.67377
450.36        80.82872
450.80        80.89371
451.25        80.88796
451.69        80.95078
452.13        81.06451
452.58        81.12579
453.02        81.11568
453.47        81.00371
453.91        80.77216
454.36        80.61996
454.80        80.59478
455.24        79.94147
455.69        79.68539
456.13        79.38168
456.58        79.61104
457.02        78.78602
457.46        80.51415
457.91        80.25447
458.35        79.52432
458.79         79.1404
459.24        79.24545
459.68        79.16395
460.13         78.8905
460.57        78.54865
461.01        78.52191
461.46        78.54048
461.90        77.97265
462.34        78.70478
462.79        78.47226
463.23        78.56123
463.68        78.36617
464.12        78.13937
464.56        77.95164
465.01        77.93645
465.45        77.95413
465.89        77.87578
466.34        77.76917
466.78         77.5088
467.22        77.12121
467.67         77.7851
468.11        77.54638
468.55        77.55899
468.99        77.27902
469.44        77.13211
469.88        77.12591
470.32        77.03233
470.77        76.88725
471.21        76.83351
471.65        76.87764
472.10        76.99293
472.54        77.08368
472.98        77.08797
473.42        77.00284
473.87        76.74048
474.31        76.37519
474.75        76.45639
475.20        76.82242
475.64        76.64771
476.08        76.05363
476.52        75.83206
476.97        75.98036
477.41        76.40949
477.85        76.49406
478.29        76.33114
478.74        76.30357
479.18        75.68367
479.62        76.19706
480.06        76.13239
480.50        75.98853
480.95        75.93546
481.39        75.89814
481.83        75.86125
482.27           76.16
482.72         75.2877
483.16         75.7151
483.60        75.56156
484.04        75.52597
484.48          75.367
484.93        75.32929
485.37        75.81699
485.81        75.94485
486.25        76.75944
486.69        76.92249
487.14        75.61118
487.58        75.40296
488.02        75.67805
488.46        75.78589
488.90        76.09037
489.34        75.28615
489.79        75.07948
490.23        75.65909
490.67        75.75478
491.11        75.49421
491.55        75.21749
491.99        75.03101
492.43        74.95876
492.88        75.02175
493.32        75.20798
493.76        75.42109
494.20        75.59035
494.64        75.70079
495.08        75.66806
495.52        75.54704
495.96        75.68655
496.41        75.98029
496.85         75.7813
497.29         75.2115
497.73        75.11974
498.17        75.40109
498.61        75.74001
499.05        75.91941
499.49        75.79637
499.93        75.44019
500.37        75.10155
500.82        74.89147
501.26        74.77233
501.70        75.48647
502.14        74.89607
502.58        75.76434
503.02        75.89411
503.46        75.72279
503.90        75.44832
504.34        75.10317
504.78        74.93909
505.22        74.93707
505.66        74.99903
506.10        75.11757
506.54        75.16369
506.98        75.06141
507.42        75.68717
507.86         75.4077
508.30         75.4842
508.74        75.43698
509.18        75.31319
509.62        75.14206
510.06        75.01257
510.50        74.96356
510.94        74.95632
511.38        74.98884
511.82        75.04889
512.26        75.12133
512.70        75.21371
513.14        75.29033
513.58        75.27099
514.02        75.15714
514.46        74.98633
514.90         74.8222
515.34        74.63527
515.78        74.90771
516.22        74.73627
516.66        75.10194
517.10        75.19486
517.54        75.25657
517.98        75.28259
518.42        75.27762
518.86        75.24364
519.30        75.18156
519.74        75.09897
520.18        75.01907
520.62         74.9819
521.06         74.9973
521.50        75.05777
521.93        75.14366
522.37        75.20389
522.81        75.22779
523.25        75.22063
523.69        75.19438
524.13        75.16999
524.57        75.15263
525.01        75.13657
525.45        75.10545
525.89        75.03455
526.32        74.91873
526.76        74.78685
527.20        74.66764
527.64        74.61401
528.08        74.63654
528.52        74.71149
528.96        74.80859
529.40        74.89124
529.83        74.92997
530.27        74.92335
530.71        74.87693
531.15        74.83467
531.59         74.8023
532.03        74.75513
532.46        74.68434
532.90        74.60765
533.34        74.52474
533.78        74.44678
534.22        74.37058
534.66        74.28662
535.09        74.18893
535.53        74.10237
535.97        74.04463
536.41        74.05991
536.85         74.1519
537.28        74.30687
537.72        74.47545
538.16        74.56821
538.60        74.56732
539.04        74.51057
539.47        74.42612
539.91        74.40331
540.35         74.4397
540.79        74.52258
541.22        74.60261
541.66        74.61034
542.10        74.52976
542.54        74.39307
542.97        74.23734
543.41        74.15895
543.85        74.16445
544.29        74.23014
544.72        74.30974
545.16        74.37058
545.60        74.37859
546.04        74.33804
546.47        74.26924
546.91        74.20683
547.35        74.15053
547.79        74.12939
548.22        74.09222
548.66        73.92113
549.10        73.66142
549.53        73.60211
549.97        73.75053
550.41        73.84196
550.84        73.83895
551.28        73.98815
551.72        74.26403
552.15        74.24588
552.59         73.8751
553.03        74.28237
553.46        73.77182
553.90         73.6614
554.34        73.93775
554.77        74.21118
555.21        74.48044
555.65        74.52908
556.08        74.27168
556.52        73.94205
556.96         73.6405
557.39        73.61452
557.83        73.86542
558.27        73.98676
558.70        73.96049
559.14        74.02463
559.57        74.14019
560.01        74.24128
560.45        74.27681
560.88        74.10865
561.32        73.89305
561.75         73.8877
562.19        74.09016
562.63        74.33376
563.06        74.49635
563.50        74.25963
563.93        73.75149
564.37        73.71341
564.80        74.07611
565.24        74.19751
565.68        74.05529
566.11        74.04891
566.55        74.19818
566.98        74.27882
567.42        74.30069
567.85        74.27669
568.29        74.28088
568.72        74.29314
569.16        74.35509
569.60        74.47297
570.03        74.64198
570.47        74.50462
570.90        74.66186
571.34        74.76061
571.77        74.72181
572.21        74.45629
572.64        74.54386
573.08        74.15115
573.51        74.18835
573.95        74.54419
574.38        75.07399
574.82        74.39906
