SpectraSmart Spectrum 2.9.0.0
--------- Device Information -----------
Spectrum Name :  反射率_0
Saving Time :  2024/04/27 23:34:59
Spectro-Module Model Name : SE2030-DUVN
Spectro-Module Serial Number : OS361AC55029948
Wavelength Start : 200
Wavelength End : 1025
Wavelength Unit : Wavelength(nm)
Spectrum Unit : Reflectance(%)
-----------Spectrum Setting ------------
Integration Time : 20ms
Average : 10
Boxcar : 0
Background removal :  enabled
linearity correction :  enabled
SC :  disabled
Intensity correction :  disabled
DWT denoise :  enabled
savitzky-golay :  disabled
FFT :  disabled
Running average :  disabled
Kalman :  disabled
High pass :  disabled
---------------BEGIN--------------------
Wavelength(nm)             Reflectance(%)
200.29               0
200.75        33.45645
201.21        62.30581
201.67        82.69077
202.13        88.29563
202.58         84.5297
203.04        76.25624
203.50        68.74731
203.96        69.46717
204.42        77.65208
204.88        88.34686
205.34        97.97485
205.80        104.1119
206.26        106.9192
206.72        107.6286
207.18        104.3628
207.64        94.51542
208.10        83.16792
208.55        75.72861
209.01        71.05523
209.47        66.23705
209.93        58.41472
210.39        41.11282
210.85        -6.82613
211.31       -53.95936
211.77        22.84055
212.23        66.78368
212.69        81.00937
213.14        84.89709
213.60        83.46424
214.06        77.78822
214.52        65.98259
214.98        53.77341
215.44        51.93239
215.90        55.88787
216.36         61.0915
216.81        65.95382
217.27         70.4338
217.73        75.29298
218.19        79.38972
218.65        80.21873
219.11        76.93295
219.57        69.75252
220.02        59.43584
220.48        50.62376
220.94        45.90201
221.40        44.52965
221.86        45.85746
222.32        48.70404
222.77        52.19306
223.23        56.12325
223.69        59.19322
224.15        59.87637
224.61        58.24907
225.06        54.52627
225.52        50.47797
225.98        49.22802
226.44        50.98317
226.90         53.8462
227.36        56.09168
227.81        56.33154
228.27        54.65369
228.73        51.54155
229.19        47.46425
229.65        43.62678
230.10        40.73968
230.56        38.88392
231.02        37.75466
231.48        36.95922
231.93        36.27036
232.39        35.84487
232.85        35.88243
233.31        36.63902
233.77        38.01865
234.22        39.92508
234.68        41.51831
235.14        41.84098
235.60        40.76233
236.05        38.28612
236.51        35.67685
236.97        35.65189
237.43        39.10667
237.88        45.37316
238.34          51.736
238.80        55.38904
239.26        55.72205
239.71        52.46474
240.17        46.07748
240.63        43.46621
241.08        49.91806
241.54        59.89325
242.00        67.66442
242.46        71.48872
242.91        72.48325
243.37        71.03614
243.83        66.22413
244.28        59.71445
244.74        59.39052
245.20        65.26036
245.66        70.39922
246.11        71.87918
246.57        70.55999
247.03         67.3287
247.48        63.41888
247.94        65.45612
248.40          76.494
248.85        90.06763
249.31        101.1459
249.77        106.7758
250.22        107.8904
250.68        106.7029
251.14        104.0074
251.59        99.99149
252.05        94.26443
252.51        85.11284
252.96        72.33396
253.42        62.55267
253.88        60.91244
254.33        65.14141
254.79        69.59931
255.25        69.59159
255.70        65.88538
256.16        61.19426
256.62        57.50394
257.07        56.95363
257.53        59.04818
257.99        61.63784
258.44         63.2818
258.90        63.21167
259.35         61.3778
259.81        58.91865
260.27        56.15483
260.72         53.4955
261.18        51.42242
261.63        49.55621
262.09        48.07217
262.55        46.81531
263.00        45.65847
263.46        44.73402
263.91        43.90092
264.37        43.26611
264.83         42.7393
265.28        42.23775
265.74        41.75531
266.19        41.12516
266.65        40.38198
267.11        39.53675
267.56        38.58699
268.02        37.63096
268.47        36.67375
268.93        35.71619
269.38        34.82695
269.84        34.13137
270.30        33.62668
270.75         33.2651
271.21        32.89428
271.66        32.23576
272.12        31.26592
272.57         30.0555
273.03        28.80917
273.48        27.77122
273.94        27.06219
274.39        26.58011
274.85        26.25968
275.31        25.94556
275.76        25.57084
276.22        25.18338
276.67        24.79319
277.13        24.48581
277.58         24.2222
278.04        24.00449
278.49        23.70261
278.95        23.22735
279.40        22.54767
279.86        21.77975
280.31        21.03976
280.77        20.59097
281.22        20.43619
281.68        20.50936
282.13        20.66175
282.59        20.71174
283.04        20.61018
283.50        20.42912
283.95        20.22239
284.41        20.09552
284.86        20.06626
285.32        20.10604
285.77         20.1806
286.22        20.27203
286.68        20.38149
287.13        20.48678
287.59        20.60833
288.04        20.70726
288.50         20.8018
288.95        20.87437
289.41        20.93898
289.86        20.98112
290.32        21.02489
290.77         21.0797
291.22        21.17918
291.68        21.36511
292.13        21.64922
292.59        22.04629
293.04        22.55325
293.50        23.17988
293.95        23.91863
294.40        24.78083
294.86         25.7659
295.31        26.86285
295.77        28.07879
296.22        29.40444
296.68        30.84207
297.13        32.36364
297.58        33.95375
298.04        35.59839
298.49        37.29422
298.95        39.08231
299.40        40.96907
299.85        42.94903
300.31        45.01748
300.76        47.10013
301.21        49.17515
301.67         51.2726
302.12        53.34882
302.58        55.42336
303.03        57.48511
303.48        59.55423
303.94        61.73446
304.39         64.1007
304.84        66.67451
305.30        69.41825
305.75        72.16782
306.20         74.7636
306.66        77.18475
307.11        79.43171
307.57        81.60155
308.02        83.72554
308.47        85.83346
308.93        87.89243
309.38        89.85445
309.83        91.76254
310.29        93.64392
310.74        95.48395
311.19        97.24513
311.65        98.82664
312.10        100.1743
312.55        101.3177
313.00        102.3673
313.46        103.5129
313.91        104.7754
314.36        106.1168
314.82        107.3977
315.27        108.3812
315.72        109.0229
316.18        109.4277
316.63        109.7335
317.08        110.1997
317.53        110.8931
317.99         111.718
318.44        112.5957
318.89        113.3699
319.35        113.9814
319.80        114.4961
320.25        114.9046
320.70        115.1971
321.16         115.383
321.61        115.4811
322.06        115.5813
322.51        115.8484
322.97        116.2976
323.42        116.9307
323.87        117.6067
324.32        118.1055
324.78        118.3496
325.23        118.4377
325.68        118.4652
326.13        118.6296
326.59        118.9573
327.04        119.4374
327.49          119.96
327.94        120.3863
328.39        120.6781
328.85        120.8524
329.30        121.0403
329.75        121.2789
330.20        121.5957
330.66        121.9249
331.11        122.3348
331.56        122.8095
332.01        123.3495
332.46        123.9631
332.92         124.539
333.37        125.0541
333.82        125.4294
334.27        125.6842
334.72        125.9221
335.17        126.3254
335.63        126.9062
336.08        127.6712
336.53        128.4702
336.98        129.1013
337.43        129.5077
337.88        129.7515
338.34        129.9125
338.79        130.1874
339.24        130.6105
339.69        131.1332
340.14        131.6953
340.59        132.2017
341.05        132.6219
341.50         132.995
341.95        133.3489
342.40        133.7376
342.85        134.1754
343.30        134.6356
343.75        135.0818
344.20        135.4633
344.66        135.7686
345.11        136.0049
345.56         136.202
346.01        136.3992
346.46        136.6119
346.91        136.8399
347.36        137.0616
347.81        137.2411
348.26        137.3744
348.72        137.4726
349.17        137.5766
349.62        137.7768
350.07        138.0716
350.52        138.4184
350.97        138.7148
351.42        138.8018
351.87        138.6457
352.32        138.2987
352.77        137.8494
353.22        137.4386
353.67        137.1026
354.13        136.8069
354.58        136.4837
355.03        136.0912
355.48        135.6077
355.93        135.0587
356.38        134.4315
356.83        133.6993
357.28        132.8688
357.73        131.9554
358.18        131.0116
358.63        130.1165
359.08        129.2948
359.53         128.539
359.98          127.81
360.43        127.0416
360.88        126.2141
361.33        125.3361
361.78        124.4616
362.23        123.6696
362.68         122.967
363.13        122.3412
363.58        121.6988
364.03        120.7967
364.48        119.7716
364.93         118.564
365.38        117.3306
365.83        116.2395
366.28        115.3363
366.73        114.5618
367.18        113.8581
367.63        113.1349
368.08        112.3553
368.53        111.5499
368.98        110.7098
369.43        109.8153
369.88        108.8748
370.33        107.8952
370.78        106.9205
371.23        106.0302
371.68        105.2413
372.13        104.5264
372.58        103.8617
373.03        103.2047
373.48        102.5342
373.93        101.8645
374.38        101.1628
374.83        100.3743
375.28        99.49976
375.72        98.54276
376.17        97.61321
376.62        96.81403
377.07        96.16859
377.52        95.63229
377.97        95.15131
378.42        94.63971
378.87        94.07031
379.32        93.47853
379.77        92.85764
380.22        92.18934
380.67        91.48177
381.11        90.74416
381.56        90.03683
382.01        89.47817
382.46        89.09965
382.91        88.87046
383.36        88.71216
383.81        88.49579
384.26        88.17783
384.71        87.78185
385.15        87.33411
385.60        86.94212
386.05        86.60593
386.50        86.29623
386.95        85.96777
387.40        85.56199
387.85        85.07998
388.29        84.50833
388.74        83.99661
389.19        83.54984
389.64        83.16373
390.09        82.80292
390.54        82.44495
390.98        82.03964
391.43        81.63912
391.88        81.26257
392.33        80.87704
392.78         80.5129
393.23        80.20363
393.67        79.73436
394.12        79.23254
394.57        79.50537
395.02         79.2903
395.47        79.19617
395.91        78.87542
396.36        78.62963
396.81        78.48412
397.26         78.3144
397.71        78.07825
398.15        77.79216
398.60         77.5462
399.05        77.05585
399.50        76.51582
399.95        76.64645
400.39        77.24078
400.84        77.20457
401.29        76.50097
401.74        75.75494
402.18        75.19203
402.63         75.0049
403.08         75.1497
403.53        75.09906
403.97        74.82709
404.42        74.76971
404.87        74.86563
405.32        74.85134
405.76        74.69557
406.21        74.34641
406.66        73.93359
407.11        73.94222
407.55        74.27522
408.00        74.23455
408.45        73.78905
408.90        73.21437
409.34        72.68996
409.79        72.59628
410.24        72.84822
410.68        72.89334
411.13        72.69201
411.58        72.61683
412.03        72.67902
412.47        72.70935
412.92        72.67332
413.37        72.63759
413.81        72.59142
414.26        72.57372
414.71        72.57257
415.15        72.59606
415.60        72.61185
416.05        72.63107
416.49        72.65849
416.94        72.68043
417.39        72.70505
417.83        72.74268
418.28        72.78383
418.73        72.80444
419.17        72.80406
419.62        72.78735
420.07        72.76578
420.51        72.75069
420.96        72.71682
421.41         72.6185
421.85        72.43793
422.30        72.10709
422.74        71.76064
423.19        72.00047
423.64         72.7114
424.08        73.14907
424.53        73.12117
424.98        73.18797
425.42        73.36568
425.87        73.03721
426.31        72.42294
426.76         72.5968
427.21        73.41914
427.65        73.50729
428.10        72.86411
428.54        72.94328
428.99        73.15453
429.44        73.45805
429.88        73.57005
430.33        73.50852
430.77        73.29271
431.22        73.36501
431.66        73.71053
432.11        73.92647
432.56        74.06236
433.00        74.35062
433.45        74.49818
433.89        74.54412
434.34        74.62492
434.78        73.16022
435.23        73.05381
435.67        73.67561
436.12        74.46841
436.57        74.80338
437.01        74.48881
437.46        74.29169
437.90        74.65582
438.35        75.84721
438.79        75.34005
439.24        75.42884
439.68        75.39983
440.13        75.27399
440.57        75.12525
441.02        75.36855
441.46        75.88371
441.91        75.89973
442.35        75.47736
442.80         75.7549
443.24        76.53484
443.69        76.57005
444.13        75.92958
444.58        75.73766
445.02        76.00148
445.47        76.16979
445.91        76.20988
446.36        76.32491
446.80        76.47944
447.24        76.69244
447.69        76.91913
448.13        76.92497
448.58        76.77073
449.02        76.76111
449.47        76.92341
449.91        77.01444
450.36        77.05543
450.80        77.16133
451.25        77.32156
451.69        77.43291
452.13         77.4663
452.58        77.38512
453.02        77.21309
453.47        77.03045
453.91        76.85012
454.36        76.75475
454.80         76.6535
455.24        76.28019
455.69        75.79316
456.13        75.43449
456.58        75.30673
457.02         75.6338
457.46        76.06878
457.91        75.76907
458.35        75.09759
458.79        74.73306
459.24        74.82384
459.68        74.77848
460.13        74.60347
460.57        74.43813
461.01        74.66988
461.46        74.09514
461.90        74.47895
462.34        74.17375
462.79        74.51433
463.23        74.32081
463.68        73.95138
464.12        73.73312
464.56         73.7183
465.01        73.96668
465.45        74.20482
465.89        74.08118
466.34         73.7009
466.78        73.29899
467.22        72.91723
467.67        73.37777
468.11         72.8932
468.55        72.83791
468.99        72.69192
469.44        72.61137
469.88        72.58209
470.32        72.50818
470.77        72.39792
471.21         72.2972
471.65        72.21076
472.10        72.13933
472.54        72.05098
472.98        71.98024
473.42        71.93981
473.87          71.817
474.31        71.63351
474.75        71.82007
475.20        72.21701
475.64        72.08955
476.08        71.51564
476.52        71.30224
476.97        71.48837
477.41        71.65813
477.85        71.31753
478.29        71.71546
478.74        71.49056
479.18        70.73961
479.62        71.30943
480.06        71.21709
480.50        71.13832
480.95         71.0953
481.39        71.02777
481.83        71.24162
482.27        71.18864
482.72        70.78846
483.16          71.043
483.60        70.84102
484.04        70.80465
484.48        70.76482
484.93         70.9558
485.37        71.02538
485.81        70.64041
486.25        71.99037
486.69        72.48345
487.14        72.23454
487.58        70.99229
488.02        71.13048
488.46        71.21288
488.90        71.11304
489.34        70.49556
489.79        70.35793
490.23        70.54802
490.67        70.43342
491.11        70.03009
491.55         69.8984
491.99        70.01467
492.43        69.97292
492.88        69.76299
493.32        69.63091
493.76        69.59821
494.20         69.6488
494.64         69.7989
495.08        69.95287
495.52        70.09296
495.96        70.40559
496.41        70.74722
496.85        70.59834
497.29        70.07699
497.73        69.83036
498.17        69.84375
498.61        70.20319
499.05        70.63598
499.49        70.56036
499.93        70.04533
500.37        69.54901
500.82        69.19318
501.26        69.25117
501.70         69.7859
502.14        69.14501
502.58        69.75291
503.02        69.83392
503.46        69.80208
503.90        69.70581
504.34        69.52458
504.78        69.46784
505.22        69.50418
505.66         69.4923
506.10        69.45489
506.54        69.47817
506.98        69.47563
507.42        69.80113
507.86        69.37368
508.30         69.3485
508.74        69.42528
509.18        69.47144
509.62        69.44997
510.06        69.38084
510.50        69.27251
510.94        69.12102
511.38        68.96914
511.82        68.88091
512.26        68.86901
512.70        68.91321
513.14        68.99499
513.58         69.0584
514.02        69.08868
514.46        69.13483
514.90        69.18653
515.34        69.04042
515.78         69.1108
516.22        68.84544
516.66        68.82901
517.10        68.81271
517.54        68.93253
517.98        69.14143
518.42        69.36506
518.86         69.4837
519.30        69.46202
519.74        69.34368
520.18         69.1783
520.62        69.04467
521.06        68.97265
521.50        68.94135
521.93        68.94692
522.37        68.96965
522.81        69.00307
523.25        69.04713
523.69        69.09202
524.13        69.11887
524.57        69.12031
525.01        69.09949
525.45        69.04655
525.89        68.94891
526.32        68.80874
526.76          68.652
527.20        68.51198
527.64        68.44897
528.08        68.47306
528.52        68.55931
528.96        68.67859
529.40        68.78276
529.83        68.84618
530.27        68.89571
530.71        68.90958
531.15        68.86495
531.59        68.76824
532.03        68.62798
532.46         68.4911
532.90        68.45814
533.34        68.53742
533.78        68.69452
534.22        68.86951
534.66        68.96899
535.09         68.9604
535.53        68.89449
535.97        68.78378
536.41        68.66574
536.85        68.55942
537.28        68.45593
537.72        68.37577
538.16         68.3435
538.60        68.36299
539.04         68.4435
539.47        68.52931
539.91        68.57024
540.35        68.53729
540.79        68.46017
541.22        68.36285
541.66        68.29628
542.10        68.27122
542.54        68.26888
542.97        68.27359
543.41        68.30077
543.85        68.33363
544.29        68.37996
544.72        68.40564
545.16        68.39233
545.60        68.32417
546.04         68.2011
546.47        68.07324
546.91        68.03967
547.35        68.10797
547.79        68.23874
548.22        68.34304
548.66        68.35229
549.10        68.24438
549.53        68.06538
549.97         67.8939
550.41        67.86722
550.84         67.9854
551.28        68.12798
551.72        68.24437
552.15        68.30453
552.59        68.29071
553.03        68.27131
553.46        68.13314
553.90         68.0202
554.34        67.86426
554.77        67.94784
555.21        68.23609
555.65         67.5993
556.08        67.92885
556.52        67.82489
556.96         67.8407
557.39          67.952
557.83        68.11893
558.27        68.06765
558.70        67.83714
559.14        67.76344
559.57        67.84751
560.01          67.996
560.45        68.11384
560.88         68.0255
561.32        67.84009
561.75        67.74242
562.19        67.78217
562.63        67.97164
563.06        68.19482
563.50        68.02605
563.93        67.55927
564.37        67.49629
564.80        67.78852
565.24        67.90013
565.68        67.80186
566.11        67.79606
566.55        67.90202
566.98        67.93488
567.42         67.9162
567.85        67.91846
568.29        67.99698
568.72        67.97143
569.16        67.91895
569.60        68.05067
570.03        68.40334
570.47        68.17478
570.90        68.19907
571.34        68.78394
571.77        68.65514
572.21        68.43089
572.64        68.80875
573.08         68.4339
573.51         68.3615
573.95        68.38219
574.38        68.67804
574.82        68.63931
