SpectraSmart Spectrum 2.9.0.0
--------- Device Information -----------
Spectrum Name :  反射率_0
Saving Time :  2024/04/27 23:46:48
Spectro-Module Model Name : SE2030-DUVN
Spectro-Module Serial Number : OS361AC55029948
Wavelength Start : 200
Wavelength End : 1025
Wavelength Unit : Wavelength(nm)
Spectrum Unit : Reflectance(%)
-----------Spectrum Setting ------------
Integration Time : 20ms
Average : 10
Boxcar : 0
Background removal :  enabled
linearity correction :  enabled
SC :  disabled
Intensity correction :  disabled
DWT denoise :  enabled
savitzky-golay :  disabled
FFT :  disabled
Running average :  disabled
Kalman :  disabled
High pass :  disabled
---------------BEGIN--------------------
Wavelength(nm)             Reflectance(%)
200.29               0
200.75        60.02377
201.21        76.09698
201.67        87.86997
202.13         89.5371
202.58        84.13159
203.04        75.62518
203.50        67.54092
203.96        65.14175
204.42           68.38
204.88        73.88681
205.34        79.05089
205.80        81.98953
206.26        82.41854
206.72        80.39553
207.18        75.01244
207.64        67.80648
208.10        63.46267
208.55        63.25321
209.01        62.52308
209.47        57.97761
209.93        46.74931
210.39        17.84456
210.85       -67.70531
211.31       -163.7389
211.77       -34.21622
212.23        46.58045
212.69        73.78741
213.14         80.5501
213.60        77.01235
214.06        64.52649
214.52         41.0617
214.98        23.38062
215.44        30.27646
215.90        46.21179
216.36        59.45536
216.81        66.58331
217.27        69.25268
217.73        70.04855
218.19        68.91681
218.65         65.0265
219.11        58.35804
219.57         48.5862
220.02        37.14232
220.48        30.16893
220.94        29.90481
221.40        34.33035
221.86        40.94197
222.32        46.94437
222.77        51.53645
223.23        55.15646
223.69        57.11453
224.15        56.47345
224.61        53.46712
225.06        48.21827
225.52        42.65063
225.98        40.39571
226.44        41.86289
226.90        44.92491
227.36        47.64616
227.81        48.50121
228.27         47.5145
228.73        45.24056
229.19         41.9492
229.65        38.39596
230.10        35.18564
230.56        32.58908
231.02        30.69921
231.48        29.66477
231.93        29.37302
232.39        29.79249
232.85        30.91114
233.31        32.69384
233.77        34.91869
234.22        37.49728
234.68        39.71052
235.14        40.79738
235.60        40.69165
236.05        39.45622
236.51        37.99491
236.97        38.17972
237.43        40.65577
237.88        45.00368
238.34        49.49388
238.80        52.63742
239.26        54.25798
239.71        54.54834
240.17        54.06218
240.63        55.36269
241.08        59.46777
241.54        63.61562
242.00        66.15468
242.46        66.90199
242.91        66.21496
243.37        63.42756
243.83        57.50098
244.28        51.34678
244.74        54.52878
245.20        65.39246
245.66        73.15536
246.11        74.36366
246.57         70.3341
247.03        60.41013
247.48        45.82322
247.94        41.12773
248.40        56.98765
248.85        82.93356
249.31        104.8963
249.77        112.4233
250.22        108.7259
250.68        100.3548
251.14        91.92538
251.59        86.83797
252.05        84.94275
252.51        84.35126
252.96        84.11751
253.42         83.0831
253.88        80.82813
254.33        79.35908
254.79        78.34124
255.25        76.13023
255.70        72.97853
256.16        69.91447
256.62        68.46107
257.07        70.32967
257.53        74.58111
257.99        78.97316
258.44        81.63586
258.90        81.54627
259.35         78.8248
259.81        75.10633
260.27        71.05598
260.72        67.50599
261.18        65.05755
261.63        63.08454
262.09         61.7004
262.55        60.60154
263.00        59.57673
263.46        58.78819
263.91        58.04206
264.37         57.4495
264.83        56.88586
265.28        56.26361
265.74        55.54933
266.19        54.46399
266.65        53.08755
267.11        51.47298
267.56        49.77139
268.02         48.3378
268.47        47.21972
268.93        46.34024
269.38        45.62172
269.84        44.96012
270.30           44.29
270.75        43.64425
271.21        42.93642
271.66         41.9794
272.12        40.78756
272.57        39.37675
273.03        37.97578
273.48        36.86877
273.94        36.16116
274.39        35.70855
274.85        35.36947
275.31        34.85217
275.76        34.07963
276.22        33.18726
276.67        32.24254
277.13        31.43393
277.58        30.75886
278.04        30.21327
278.49         29.6967
278.95        29.18118
279.40        28.60856
279.86        28.05541
280.31        27.55033
280.77        27.24392
281.22        27.10197
281.68        27.11079
282.13        27.12723
282.59         27.0021
283.04        26.70477
283.50        26.31365
283.95        25.94463
284.41        25.81239
284.86        25.93369
285.32        26.23961
285.77        26.59502
286.22        26.84694
286.68        26.96944
287.13        26.97755
287.59        26.94947
288.04         26.9261
288.50        26.95773
288.95          26.999
289.41        27.05608
289.86        27.09251
290.32          27.134
290.77        27.20355
291.22        27.34538
291.68        27.60682
292.13        28.00216
292.59        28.55191
293.04         29.2491
293.50         30.1038
293.95        31.10285
294.40        32.24779
294.86         33.5435
295.31         34.9913
295.77        36.58493
296.22        38.28835
296.68        40.06073
297.13        41.80535
297.58        43.49572
298.04        45.15828
298.49        46.81149
298.95        48.54124
299.40         50.3786
299.85        52.31774
300.31        54.40631
300.76        56.64523
301.21        59.00515
301.67         61.4748
302.12        63.90289
302.58        66.16806
303.03        68.21924
303.48        70.12779
303.94        72.05955
304.39        74.17442
304.84         76.5337
305.30        79.08321
305.75        81.65816
306.20        84.10848
306.66        86.41582
307.11        88.58752
307.57        90.70598
308.02        92.76151
308.47        94.77763
308.93        96.72598
309.38        98.57964
309.83        100.4292
310.29        102.3034
310.74        104.1639
311.19        105.9286
311.65        107.4254
312.10        108.5893
312.55        109.4833
313.00         110.268
313.46         111.207
313.91        112.3427
314.36        113.6188
314.82        114.8797
315.27        115.8623
315.72        116.5055
316.18        116.9154
316.63        117.2199
317.08        117.6641
317.53        118.3102
317.99        119.0644
318.44        119.8415
318.89        120.4802
319.35        120.9265
319.80        121.2502
320.25        121.4805
320.70        121.6657
321.16         121.828
321.61        121.9803
322.06         122.153
322.51        122.4127
322.97        122.7486
323.42        123.1788
323.87         123.646
324.32        124.0721
324.78        124.4077
325.23        124.7178
325.68        124.9669
326.13        125.1364
326.59        125.2099
327.04         125.249
327.49        125.3119
327.94        125.5416
328.39        125.9671
328.85        126.5115
329.30        127.1554
329.75        127.6579
330.20        127.9564
330.66        128.0786
331.11        128.1692
331.56        128.3347
332.01         128.628
332.46        128.9938
332.92        129.3789
333.37        129.8777
333.82        130.4096
334.27        130.9773
334.72        131.4936
335.17        131.8078
335.63        131.8762
336.08        131.8242
336.53          131.75
336.98        131.8773
337.43         132.273
337.88        132.8635
338.34         133.583
338.79        134.3797
339.24        135.1729
339.69        135.9784
340.14        136.6862
340.59        137.1217
341.05        137.2729
341.50        137.2044
341.95        137.0895
342.40        137.2326
342.85        137.7067
343.30        138.4145
343.75        139.2289
344.20        139.9331
344.66        140.4489
345.11        140.8315
345.56        141.0788
346.01        141.1838
346.46        141.1763
346.91        141.0666
347.36        140.9451
347.81        140.9604
348.26        141.1377
348.72        141.4299
349.17        141.7628
349.62        142.0343
350.07        142.1918
350.52        142.2577
350.97        142.1956
351.42        141.9513
351.87        141.5405
352.32        140.9956
352.77        140.4099
353.22        139.9324
353.67        139.5901
354.13        139.3378
354.58        139.0966
355.03        138.8019
355.48        138.4092
355.93        137.9383
356.38        137.3281
356.83        136.4809
357.28        135.4122
357.73        134.1841
358.18        132.9361
358.63        131.8816
359.08        131.0783
359.53        130.4696
359.98        129.9837
360.43        129.4988
360.88        128.9538
361.33         128.359
361.78        127.6966
362.23        126.9363
362.68        126.0668
363.13        125.1007
363.58         124.049
364.03        122.8334
364.48        121.6562
364.93        120.4171
365.38        119.1894
365.83        117.9921
366.28        116.8428
366.73        115.7354
367.18         114.722
367.63        113.8811
368.08        113.2115
368.53        112.6878
368.98         112.175
369.43        111.4552
369.88        110.4864
370.33         109.329
370.78        108.1461
371.23         107.214
371.68        106.5929
372.13        106.1819
372.58        105.8367
373.03        105.3244
373.48         104.572
373.93        103.6617
374.38        102.6495
374.83        101.6139
375.28        100.6059
375.72        99.60028
376.17        98.67561
376.62        97.88474
377.07        97.23598
377.52        96.70039
377.97        96.25459
378.42        95.85437
378.87        95.46561
379.32        95.09038
379.77        94.65498
380.22        94.04797
380.67        93.26181
381.11        92.33866
381.56        91.39884
382.01        90.66338
382.46        90.19728
382.91        89.94205
383.36        89.79627
383.81        89.58896
384.26        89.26492
384.71        88.87482
385.15        88.43587
385.60        88.03675
386.05        87.68015
386.50         87.3336
386.95        86.99825
387.40         86.6916
387.85        86.41227
388.29        86.10472
388.74        85.83787
389.19         85.5069
389.64         85.0867
390.09         84.5714
390.54        84.00725
390.98        83.45705
391.43        83.01457
391.88        82.68109
392.33        82.37425
392.78        82.03003
393.23        81.66427
393.67        81.08236
394.12        80.53666
394.57        80.69591
395.02        81.13953
395.47        81.05551
395.91        80.38383
396.36         80.0165
396.81        79.99406
397.26        79.77341
397.71        79.39352
398.15        79.15576
398.60        79.10831
399.05        78.99915
399.50        78.83121
399.95         78.6479
400.39        78.44022
400.84        78.28609
401.29        78.14616
401.74        77.57683
402.18        76.76744
402.63        76.58571
403.08         76.9511
403.53        76.93188
403.97        76.47462
404.42        76.13129
404.87        75.95637
405.32        75.83236
405.76         75.7579
406.21        75.71829
406.66        75.68365
407.11         75.6931
407.55        75.69682
408.00        75.52839
408.45        75.22659
408.90        74.76926
409.34        74.31104
409.79        74.34257
410.24         74.7201
410.68        74.78072
411.13        74.46738
411.58        74.15438
412.03        73.94277
412.47        73.85779
412.92        73.90773
413.37        74.08571
413.81        74.28708
414.26        74.42039
414.71        74.43594
415.15        74.37877
415.60        74.25706
416.05        74.15546
416.49        74.10764
416.94        74.07901
417.39        74.05898
417.83        74.02785
418.28        73.97487
418.73         73.9025
419.17        73.83504
419.62        73.80894
420.07        73.83923
420.51        73.91379
420.96        73.99736
421.41        74.02174
421.85        73.95098
422.30        73.74109
422.74         73.4902
423.19        73.70139
423.64        74.27869
424.08        74.61665
424.53        74.55183
424.98        74.56705
425.42        74.69021
425.87        74.38449
426.31        73.85116
426.76        74.05328
427.21        74.82188
427.65        74.86215
428.10        74.24633
428.54        74.10526
428.99        74.47772
429.44        74.88413
429.88        75.14031
430.33        74.86294
430.77        74.21085
431.22        74.21339
431.66         74.7718
432.11        74.90941
432.56        74.67775
433.00        74.71587
433.45        74.85321
433.89        75.12823
434.34        75.53139
434.78        74.37369
435.23        74.14723
435.67        74.65898
436.12        75.63371
436.57        75.86931
437.01          75.313
437.46        74.90635
437.90        75.12371
438.35        76.16398
438.79        75.54998
439.24        75.67298
439.68        75.81625
440.13        76.02203
440.57        76.21395
441.02        76.49545
441.46         76.7539
441.91        76.42747
442.35        75.73926
442.80        75.99396
443.24        76.97033
443.69        77.18373
444.13        76.63818
444.58        76.56223
445.02        76.94727
445.47        77.15141
445.91        77.11622
446.36        77.12582
446.80        77.17052
447.24        77.10662
447.69        77.02065
448.13        77.20731
448.58        77.59146
449.02        77.69307
449.47        77.54266
449.91        77.52886
450.36        77.67871
450.80        77.72169
451.25        77.67397
451.69        77.66238
452.13        77.67998
452.58        77.63273
453.02        77.51978
453.47        77.38013
453.91        77.20588
454.36        77.09968
454.80        77.01469
455.24        76.64155
455.69        76.12228
456.13         75.9182
456.58        76.10072
457.02        75.94176
457.46        76.33583
457.91        75.95619
458.35        75.48013
458.79        75.13746
459.24        75.04771
459.68        74.93045
460.13        74.81043
460.57        74.53339
461.01        74.43734
461.46        74.52754
461.90        74.21107
462.34        74.38948
462.79        74.22755
463.23        74.15993
463.68        74.02457
464.12        73.86362
464.56        73.73589
465.01         73.8883
465.45        74.06793
465.89        73.91928
466.34        73.58508
466.78        73.12136
467.22         72.5533
467.67        73.55146
468.11         73.1256
468.55        73.04501
468.99        72.54113
469.44        72.37202
469.88         72.5524
470.32        72.68345
470.77        72.70563
471.21        72.66724
471.65        72.54903
472.10        72.35524
472.54        72.11355
472.98        71.93973
473.42        71.86774
473.87         71.7952
474.31        71.70174
474.75        71.87621
475.20        72.17087
475.64        72.05636
476.08        71.63281
476.52        71.42427
476.97        71.41931
477.41        71.71924
477.85        71.77935
478.29         71.4287
478.74        71.47446
479.18        71.08362
479.62        71.55381
480.06        71.55125
480.50        71.41447
480.95        71.35851
481.39        71.11086
481.83        71.28256
482.27        71.46702
482.72        70.76637
483.16         71.2661
483.60        71.15172
484.04        71.07601
484.48        70.94319
484.93        70.93441
485.37        71.08667
485.81        71.44859
486.25        71.71059
486.69        72.21975
487.14         71.6097
487.58        71.42932
488.02        71.42326
488.46        70.95731
488.90        71.36385
489.34        71.05747
489.79        69.98951
490.23        70.66014
490.67        70.49858
491.11        70.36216
491.55         70.2782
491.99        70.27738
492.43        70.27898
492.88        70.25415
493.32        70.26762
493.76        70.28929
494.20        70.37017
494.64        70.53317
495.08        70.56968
495.52        70.52798
495.96        70.97324
496.41        71.66017
496.85         71.4732
497.29         70.2951
497.73        70.13498
498.17        70.74229
498.61        71.01025
499.05        70.76419
499.49        70.49714
499.93         70.3412
500.37        70.28516
500.82        70.29058
501.26        70.48585
501.70        70.90405
502.14          70.046
502.58        70.47349
503.02         70.4296
503.46        70.37421
503.90        70.37676
504.34        70.36459
504.78        70.41521
505.22        70.46183
505.66        70.43753
506.10        70.38814
506.54        70.29259
506.98        70.11895
507.42         70.3954
507.86        70.45325
508.30        69.98719
508.74        70.30611
509.18         70.2038
509.62        70.14154
510.06        70.10899
510.50        70.12655
510.94        70.16608
511.38        70.19242
511.82        70.18951
512.26        70.14726
512.70        70.07616
513.14        70.00895
513.58        69.97195
514.02        69.97021
514.46        70.04042
514.90        70.16438
515.34        70.06186
515.78        70.12624
516.22          70.052
516.66        69.98318
517.10        69.94592
517.54        69.94846
517.98        69.96838
518.42         69.9949
518.86        70.00501
519.30        69.98718
519.74        70.00414
520.18        70.02981
520.62        69.89702
521.06        69.66799
521.50        69.63372
521.93         69.7795
522.37        69.83121
522.81        69.78241
523.25        69.73828
523.69         69.7965
524.13        69.81351
524.57        69.81395
525.01        69.81425
525.45        69.80444
525.89        69.76712
526.32          69.698
526.76        69.61716
527.20        69.54485
527.64        69.52458
528.08        69.56113
528.52        69.63232
528.96        69.71694
529.40        69.78075
529.83        69.80568
530.27        69.82018
530.71        69.80369
531.15        69.73455
531.59        69.61897
532.03        69.46331
532.46        69.32071
532.90        69.29995
533.34        69.40742
533.78        69.60611
534.22        69.81176
534.66         69.8951
535.09        69.82024
535.53        69.64979
535.97        69.43544
536.41        69.27667
536.85        69.20623
537.28        69.19868
537.72        69.23108
538.16        69.25735
538.60         69.2635
539.04        69.27798
539.47        69.28857
539.91        69.31197
540.35        69.33237
540.79        69.35903
541.22         69.3689
541.66        69.33842
542.10        69.26494
542.54        69.15773
542.97        69.05512
543.41        69.05474
543.85        69.15504
544.29         69.3316
544.72         69.5009
545.16        69.56854
545.60        69.49508
546.04        69.30583
546.47        69.07717
546.91        68.93562
547.35        68.90326
547.79        68.97739
548.22        69.06358
548.66        68.97925
549.10        68.74874
549.53        68.66591
549.97        68.75669
550.41        68.82404
550.84        68.86678
551.28         69.0126
551.72        69.21467
552.15        69.32198
552.59        69.32836
553.03        69.26025
553.46        69.14594
553.90        69.07983
554.34        69.06212
554.77        69.08634
555.21        69.11071
555.65        69.05743
556.08        68.85011
556.52        68.73938
556.96        68.70775
557.39        68.68119
557.83        68.67799
558.27        68.71137
558.70        68.76474
559.14         68.8091
559.57        68.81878
560.01        68.83801
560.45        68.84921
560.88        68.80264
561.32        68.76824
561.75        68.76006
562.19        68.80274
562.63        68.88874
563.06        68.96323
563.50        68.88528
563.93        68.69108
564.37        68.63274
564.80        68.70501
565.24        68.85832
565.68          69.021
566.11        69.04872
566.55        68.97989
566.98        68.95886
567.42        69.00893
567.85        69.02423
568.29        69.05829
568.72        69.00232
569.16        68.88473
569.60        69.05486
570.03        69.25778
570.47        68.97888
570.90        69.00725
571.34        69.36777
571.77        69.41559
572.21        69.09103
572.64        69.56011
573.08        69.26716
573.51        68.78749
573.95        69.02074
574.38         69.7487
574.82        69.40291
