SpectraSmart Spectrum 2.9.0.0
--------- Device Information -----------
Spectrum Name :  反射率_0
Saving Time :  2024/04/27 23:49:38
Spectro-Module Model Name : SE2030-DUVN
Spectro-Module Serial Number : OS361AC55029948
Wavelength Start : 200
Wavelength End : 1025
Wavelength Unit : Wavelength(nm)
Spectrum Unit : Reflectance(%)
-----------Spectrum Setting ------------
Integration Time : 20ms
Average : 10
Boxcar : 0
Background removal :  enabled
linearity correction :  enabled
SC :  disabled
Intensity correction :  disabled
DWT denoise :  enabled
savitzky-golay :  disabled
FFT :  disabled
Running average :  disabled
Kalman :  disabled
High pass :  disabled
---------------BEGIN--------------------
Wavelength(nm)             Reflectance(%)
200.29               0
200.75        93.09792
201.21        107.7445
201.67        112.6051
202.13        111.8625
202.58        108.0924
203.04        102.6849
203.50        96.19236
203.96        90.42564
204.42        86.49034
204.88        83.93124
205.34        83.01356
205.80        84.18491
206.26        87.38487
206.72         93.2211
207.18        101.2206
207.64        103.6637
208.10        96.83086
208.55         88.0554
209.01        80.43877
209.47        72.97375
209.93        62.20532
210.39        38.09695
210.85       -29.95741
211.31       -101.1112
211.77        4.689301
212.23        68.02235
212.69        88.96865
213.14        94.22136
213.60        91.36745
214.06        81.12894
214.52        60.03291
214.98        38.04062
215.44        34.10676
215.90        40.73403
216.36        48.72657
216.81        54.04577
217.27        57.05529
217.73        59.90032
218.19        62.20923
218.65        62.67892
219.11        61.07168
219.57        57.18015
220.02        52.16937
220.48        50.60168
220.94        53.42587
221.40        58.79412
221.86        64.20822
222.32         67.2709
222.77        68.00933
223.23         67.3914
223.69        66.28582
224.15         65.4803
224.61        65.05402
225.06        64.50619
225.52        63.81156
225.98        62.65771
226.44        61.26054
226.90        59.96114
227.36        58.76728
227.81        57.43488
228.27        55.84079
228.73        53.84527
229.19        51.50321
229.65        49.18428
230.10        47.16266
230.56        45.79456
231.02         44.8305
231.48        43.96278
231.93        43.07821
232.39        42.29762
232.85        42.06167
233.31        43.01355
233.77        45.07162
234.22        48.00027
234.68        50.72612
235.14         51.9519
235.60        51.51317
236.05        49.56872
236.51        47.46422
236.97        48.08452
237.43        52.30556
237.88        59.23387
238.34        66.19273
238.80        70.61296
239.26        72.03999
239.71        70.61353
240.17        66.36469
240.63        63.73024
241.08        66.68491
241.54        72.02757
242.00        76.38997
242.46        78.48524
242.91        78.89835
243.37        77.88241
243.83        75.18459
244.28        72.84511
244.74        75.38646
245.20         80.5391
245.66        83.68269
246.11        83.84466
246.57        81.57668
247.03        76.92148
247.48        69.24555
247.94        61.88754
248.40        60.49216
248.85        63.52786
249.31         69.9283
249.77        78.59318
250.22         87.3108
250.68        94.99577
251.14        100.4382
251.59        102.8887
252.05        102.7382
252.51        99.84102
252.96        93.29261
253.42          84.967
253.88        78.51569
254.33        75.24274
254.79        74.43066
255.25         73.8607
255.70        72.97038
256.16        72.58042
256.62          73.042
257.07         74.7281
257.53        77.32171
257.99        79.61974
258.44        80.60081
258.90        79.94627
259.35        77.62681
259.81        74.78369
260.27        71.79827
260.72        69.20078
261.18        67.48132
261.63        66.07038
262.09        65.09045
262.55        64.21548
263.00        63.27219
263.46        62.48896
263.91        61.67661
264.37        60.97938
264.83        60.31186
265.28        59.59446
265.74         58.9081
266.19        58.11055
266.65        57.26782
267.11        56.34714
267.56        55.33209
268.02        54.31852
268.47         53.2853
268.93        52.24284
269.38        51.20579
269.84         50.2294
270.30        49.31297
270.75        48.45256
271.21        47.58733
271.66        46.55914
272.12         45.3849
272.57         44.0899
273.03        42.84768
273.48        41.83604
273.94        41.14235
274.39        40.63631
274.85         40.2468
275.31        39.77742
275.76        39.15554
276.22        38.47962
276.67        37.73069
277.13        36.99803
277.58        36.25274
278.04        35.52938
278.49        34.79885
278.95        34.14853
279.40        33.53499
279.86        33.01374
280.31        32.51931
280.77        32.08149
281.22        31.65272
281.68        31.27653
282.13        30.92605
282.59          30.624
283.04         30.3443
283.50        30.09926
283.95        29.86443
284.41        29.65195
284.86        29.44765
285.32        29.27736
285.77        29.12884
286.22         29.0261
286.68        28.98452
287.13        28.95804
287.59        28.96898
288.04        28.97147
288.50        28.98613
288.95        28.99059
289.41        28.99955
289.86        28.98327
290.32        28.96841
290.77        28.96002
291.22        28.99427
291.68        29.11563
292.13          29.332
292.59        29.66022
293.04        30.09797
293.50        30.66311
293.95        31.34645
294.40        32.15808
294.86          33.086
295.31        34.10172
295.77        35.20237
296.22        36.36621
296.68        37.60969
297.13        38.92923
297.58        40.31174
298.04         41.7461
298.49        43.17544
298.95        44.56208
299.40        45.90744
299.85        47.24118
300.31        48.65614
300.76        50.23908
301.21        51.99322
301.67        53.87683
302.12        55.74623
302.58        57.47327
303.03        59.00476
303.48        60.42178
303.94        61.84526
304.39        63.37412
304.84        65.06669
305.30        66.88991
305.75        68.76131
306.20        70.64237
306.66        72.52306
307.11         74.3651
307.57        76.17464
308.02        77.84287
308.47        79.36636
308.93        80.76003
309.38        82.02464
309.83        83.26487
310.29        84.52945
310.74        85.78462
311.19        87.00507
311.65        88.11853
312.10        89.07794
312.55        89.91176
313.00        90.69788
313.46        91.56509
313.91         92.5201
314.36        93.53374
314.82         94.4898
315.27        95.19664
315.72        95.61745
316.18        95.83171
316.63        95.95955
317.08        96.22942
317.53        96.70013
317.99        97.29729
318.44         97.9356
318.89        98.44803
319.35        98.78577
319.80        99.01759
320.25        99.18864
320.70        99.37624
321.16        99.59871
321.61        99.83894
322.06        100.1008
322.51        100.4066
322.97        100.7357
323.42        101.1234
323.87        101.4967
324.32        101.7505
324.78        101.8514
325.23        101.8636
325.68        101.8586
326.13        101.9882
326.59        102.2639
327.04        102.6837
327.49        103.1505
327.94        103.5374
328.39        103.8034
328.85        103.9562
329.30        104.0894
329.75        104.2133
330.20        104.3521
330.66        104.4651
331.11        104.6372
331.56         104.891
332.01         105.244
332.46        105.6991
332.92        106.1699
333.37        106.6465
333.82        107.0503
334.27        107.3783
334.72        107.6873
335.17        108.0802
335.63        108.5541
336.08         109.142
336.53        109.7046
336.98         110.057
337.43        110.1704
337.88        110.1045
338.34        110.0381
338.79        110.3148
339.24        110.9855
339.69        111.9478
340.14         112.972
340.59        113.6818
341.05        113.9804
341.50        113.9947
341.95        113.8956
342.40        113.9723
342.85        114.3119
343.30         114.816
343.75        115.4023
344.20        115.9429
344.66         116.389
345.11        116.7805
345.56        117.1137
346.01        117.3683
346.46        117.5519
346.91        117.6668
347.36        117.7555
347.81        117.8923
348.26        118.0959
348.72        118.3513
349.17        118.6268
349.62        118.8879
350.07        119.1091
350.52        119.2885
350.97        119.4143
351.42         119.469
351.87        119.4511
352.32        119.3702
352.77        119.2232
353.22        119.0104
353.67        118.7405
354.13        118.4263
354.58        118.0886
355.03        117.8239
355.48        117.6371
355.93        117.4962
356.38        117.3074
356.83        116.9203
357.28         116.313
357.73        115.5513
358.18        114.7244
358.63        113.9694
359.08        113.3304
359.53        112.7642
359.98        112.2571
360.43        111.7873
360.88        111.3273
361.33        110.8761
361.78        110.3833
362.23        109.7619
362.68         109.001
363.13        108.1408
363.58        107.2346
364.03        106.3419
364.48         105.547
364.93        104.7942
365.38        104.1001
365.83        103.4623
366.28        102.8652
366.73        102.3012
367.18        101.7315
367.63        101.0922
368.08        100.3711
368.53        99.58971
368.98        98.77153
369.43        97.95981
369.88        97.17517
370.33        96.40751
370.78        95.68438
371.23        95.04583
371.68        94.49365
372.13        94.02148
372.58        93.56769
373.03        93.02975
373.48        92.38654
373.93        91.66382
374.38        90.93597
374.83          90.321
375.28        89.84145
375.72        89.44111
376.17        89.07462
376.62        88.60345
377.07        87.99838
377.52        87.29301
377.97        86.56685
378.42        85.94583
378.87        85.45674
379.32        85.06368
379.77        84.68007
380.22        84.16673
380.67        83.50298
381.11        82.75289
381.56        82.01007
382.01        81.43884
382.46        81.08842
382.91         80.8989
383.36        80.80872
383.81        80.72059
384.26        80.58785
384.71        80.43092
385.15        80.20658
385.60        79.90836
386.05        79.52116
386.50        79.04807
386.95        78.55153
387.40        78.14138
387.85        77.84694
388.29        77.60142
388.74        77.42753
389.19        77.17021
389.64        76.80023
390.09        76.33697
390.54        75.86376
390.98        75.50111
391.43        75.32868
391.88         75.2915
392.33        75.24767
392.78        75.10364
393.23         74.8661
393.67        74.29422
394.12        73.60049
394.57        73.85898
395.02        73.83431
395.47        73.61021
395.91        72.91308
396.36        72.52246
396.81        72.48977
397.26        72.42297
397.71        72.27969
398.15        72.15913
398.60        72.12099
399.05        71.92831
399.50        71.68854
399.95        71.83136
400.39        72.21666
400.84        72.17943
401.29        71.68778
401.74        71.01195
402.18        70.35935
402.63        70.12338
403.08        70.24054
403.53        70.07883
403.97        69.61366
404.42        69.29706
404.87        69.16733
405.32        69.10426
405.76        69.09538
406.21        69.10361
406.66          69.104
407.11        69.19817
407.55         69.3054
408.00        69.12398
408.45         68.7123
408.90        68.20612
409.34        67.79062
409.79        67.91072
410.24        68.40847
410.68        68.57993
411.13        68.35374
411.58        68.13963
412.03        68.01099
412.47        67.92121
412.92        67.87798
413.37        67.90479
413.81        67.95947
414.26        68.03622
414.71        68.10719
415.15        68.19275
415.60        68.26556
416.05        68.33534
416.49        68.40568
416.94         68.4585
417.39        68.49277
417.83        68.51392
418.28        68.51195
418.73        68.46033
419.17        68.38972
419.62        68.35379
420.07         68.3798
420.51        68.47426
420.96        68.54968
421.41        68.50661
421.85        68.32456
422.30        67.83452
422.74        67.27919
423.19         67.6743
423.64        68.80504
424.08        69.25248
424.53        68.84661
424.98        68.75854
425.42        69.02334
425.87         68.7259
426.31         68.0732
426.76        68.09885
427.21        68.72627
427.65        68.99306
428.10        68.81754
428.54        68.81487
428.99         69.0104
429.44        69.07941
429.88         69.0407
430.33        69.01074
430.77         68.9752
431.22        69.26043
431.66        69.77878
432.11        69.85789
432.56        69.56741
433.00        69.75365
433.45        70.26919
433.89        69.88164
434.34        70.04534
434.78        68.92818
435.23        69.06456
435.67        69.36407
436.12        70.67876
436.57        70.73421
437.01        69.85119
437.46        69.78064
437.90        70.30108
438.35        70.94876
438.79        70.97207
439.24        71.05708
439.68        71.07066
440.13        70.90762
440.57          70.705
441.02        71.03212
441.46        71.66919
441.91        71.64037
442.35        71.03522
442.80        70.97583
443.24        71.40746
443.69        71.65048
444.13         71.6212
444.58        71.64992
445.02        71.71089
445.47         71.6934
445.91        71.61887
446.36        71.61972
446.80        71.69792
447.24        71.75511
447.69        71.81407
448.13        72.05643
448.58        72.39147
449.02        72.39252
449.47        72.12964
449.91        72.03579
450.36        72.15643
450.80        72.21973
451.25        72.21742
451.69        72.23424
452.13        72.25354
452.58        72.19698
453.02        72.08737
453.47        71.99483
453.91        71.91606
454.36        71.94177
454.80        72.00411
455.24         71.7118
455.69        71.17916
456.13        70.96794
456.58        71.23344
457.02        70.81419
457.46        71.64626
457.91        71.35818
458.35        70.91772
458.79        70.68115
459.24         70.7718
459.68        70.80217
460.13        70.74994
460.57        70.54108
461.01        70.50122
461.46        70.32973
461.90         70.0168
462.34        70.11399
462.79        70.36351
463.23        70.31886
463.68        69.96342
464.12        69.67345
464.56        69.56123
465.01        69.74076
465.45        69.98755
465.89        70.04148
466.34        69.94256
466.78        69.60754
467.22        69.06389
467.67        69.71922
468.11        69.20074
468.55        69.17629
468.99        68.96889
469.44        68.88802
469.88        68.92709
470.32        68.95238
470.77        68.94295
471.21         68.8842
471.65        68.76385
472.10        68.60435
472.54         68.4128
472.98        68.24722
473.42         68.1316
473.87        68.03681
474.31        67.94656
474.75        68.02726
475.20        68.21992
475.64        68.23711
476.08        68.07888
476.52        68.06935
476.97        68.23483
477.41        68.04305
477.85        68.21762
478.29        67.88882
478.74        67.95117
479.18        67.11575
479.62        67.80314
480.06        67.79246
480.50        67.74098
480.95         67.8007
481.39        67.89924
481.83        68.02592
482.27        68.02081
482.72        67.69558
483.16        67.94908
483.60        67.63932
484.04        67.72256
484.48         67.6646
484.93        67.90009
485.37        67.82335
485.81        68.42551
486.25        68.80742
486.69        69.75279
487.14        68.57226
487.58         67.7803
488.02        68.20161
488.46        68.18636
488.90        68.39165
489.34        67.49651
489.79        66.71531
490.23        67.05277
490.67         67.1558
491.11        67.27749
491.55        67.25289
491.99        67.11078
492.43         67.1077
492.88        67.23553
493.32         67.3083
493.76        67.28445
494.20        67.29601
494.64        67.36217
495.08        67.31178
495.52        67.19608
495.96        67.41657
496.41        67.84105
496.85        67.68913
497.29        67.07168
497.73        66.95939
498.17        67.24204
498.61        67.42945
499.05        67.29298
499.49        67.26254
499.93        67.32513
500.37        67.27226
500.82        67.12883
501.26        67.08486
501.70        67.76505
502.14        66.92892
502.58        67.20404
503.02        67.03024
503.46        66.99059
503.90        66.95406
504.34        66.88522
504.78        66.89746
505.22        66.93676
505.66        66.91429
506.10        66.86884
506.54        66.85421
506.98        66.85154
507.42        67.08143
507.86        67.24902
508.30        66.98109
508.74        67.18913
509.18        67.07999
509.62         66.9713
510.06        66.87292
510.50        66.80889
510.94         66.7598
511.38        66.72164
511.82        66.71316
512.26        66.72817
512.70        66.76427
513.14         66.8101
513.58        66.81881
514.02        66.78025
514.46        66.75456
514.90        66.75816
515.34        66.58354
515.78        66.62146
516.22         66.5556
516.66        66.52325
517.10        66.54991
517.54        66.63786
517.98        66.77319
518.42        66.89587
518.86        66.91904
519.30        66.82643
519.74        66.64622
520.18        66.45026
520.62        66.35179
521.06        66.37804
521.50        66.49682
521.93        66.64973
522.37        66.72628
522.81        66.70319
523.25        66.61163
523.69        66.50061
524.13        66.44598
524.57        66.46581
525.01        66.53226
525.45        66.60454
525.89        66.62119
526.32        66.56248
526.76        66.46488
527.20        66.35802
527.64        66.29539
528.08        66.28909
528.52        66.31623
528.96        66.35651
529.40        66.37844
529.83        66.36755
530.27        66.35401
530.71        66.32676
531.15        66.27615
531.59        66.20719
532.03        66.11882
532.46        66.04589
532.90         66.0678
533.34        66.18345
533.78        66.36414
534.22         66.5388
534.66        66.59916
535.09         66.5178
535.53        66.35242
535.97        66.15285
536.41        66.01458
536.85        65.96777
537.28        65.98655
537.72        66.05025
538.16        66.11498
538.60        66.16468
539.04        66.22535
539.47        66.27154
539.91        66.30006
540.35        66.29391
540.79        66.26641
541.22        66.21915
541.66        66.16833
542.10        66.11811
542.54        66.06538
542.97         66.0165
543.41         66.0174
543.85        66.05782
544.29         66.1321
544.72        66.19135
545.16        66.19233
545.60        66.11183
546.04         65.9636
546.47        65.79958
546.91        65.70702
547.35        65.69738
547.79        65.77232
548.22        65.86282
548.66        65.83463
549.10        65.70811
549.53        65.73319
549.97        65.90714
550.41        65.99854
550.84        65.97851
551.28        66.04601
551.72        66.20393
552.15        66.17735
552.59        65.92948
553.03        66.31413
553.46        65.94782
553.90        65.98579
554.34         65.9908
554.77        66.27139
555.21         66.2719
555.65        66.28148
556.08        66.09155
556.52        65.92622
556.96        65.80382
557.39        65.77018
557.83        65.83346
558.27        65.86333
558.70        65.84978
559.14        65.88523
559.57        65.94777
560.01        65.99717
560.45        66.00497
560.88        65.98659
561.32        65.99743
561.75        65.92492
562.19        65.82963
562.63        65.96042
563.06        66.23106
563.50        66.12167
563.93        65.70907
564.37        65.72729
564.80        66.09037
565.24        66.15062
565.68        65.92381
566.11        65.88395
566.55        66.06193
566.98        66.18707
567.42        66.23749
567.85         66.2675
568.29        66.33112
568.72        66.26831
569.16         66.1217
569.60        66.39601
570.03        66.46738
570.47        66.36163
570.90        66.50394
571.34         66.7781
571.77         66.8532
572.21        66.71593
572.64        67.20386
573.08        66.64552
573.51        66.58676
573.95        66.65099
574.38        67.13654
574.82        66.81708
