SpectraSmart Spectrum 2.9.0.0
--------- Device Information -----------
Spectrum Name :  反射率_0
Saving Time :  2024/04/28 00:10:21
Spectro-Module Model Name : SE2030-DUVN
Spectro-Module Serial Number : OS361AC55029948
Wavelength Start : 200
Wavelength End : 1025
Wavelength Unit : Wavelength(nm)
Spectrum Unit : Reflectance(%)
-----------Spectrum Setting ------------
Integration Time : 20ms
Average : 10
Boxcar : 0
Background removal :  enabled
linearity correction :  enabled
SC :  disabled
Intensity correction :  disabled
DWT denoise :  enabled
savitzky-golay :  disabled
FFT :  disabled
Running average :  disabled
Kalman :  disabled
High pass :  disabled
---------------BEGIN--------------------
Wavelength(nm)             Reflectance(%)
200.29               0
200.75        91.19121
201.21        89.72807
201.67          87.504
202.13        82.25389
202.58        74.49511
203.04        65.72017
203.50        59.93433
203.96         62.9883
204.42        73.24017
204.88        86.04305
205.34        97.20692
205.80         103.727
206.26         105.881
206.72        104.6488
207.18        98.98423
207.64        90.74094
208.10        85.50943
208.55        84.00547
209.01        83.59451
209.47        82.63423
209.93        80.11783
210.39        74.00487
210.85        56.33514
211.31        36.35034
211.77        62.64255
212.23         79.2299
212.69        84.28806
213.14        84.46677
213.60        80.81446
214.06         73.0666
214.52        60.44403
214.98        53.31188
215.44        60.47641
215.90        71.48881
216.36        79.68559
216.81        83.47321
217.27        84.21207
217.73        83.49147
218.19        81.10136
218.65        76.38252
219.11        69.35384
219.57        59.60458
220.02        49.30433
220.48         45.4351
220.94        49.71629
221.40        59.25851
221.86        69.18642
222.32          74.649
222.77        75.65952
223.23         74.1507
223.69        71.88992
224.15        70.66267
224.61        70.70879
225.06        71.20129
225.52        71.80652
225.98        71.55947
226.44        70.40692
226.90        68.95183
227.36        67.57363
227.81        66.31703
228.27        65.11166
228.73        63.76709
229.19         62.0362
229.65        59.69762
230.10        56.93012
230.56        54.36335
231.02        52.43396
231.48        51.72644
231.93        52.16801
232.39         53.4999
232.85        55.43323
233.31        57.64826
233.77        59.88497
234.22         62.1669
234.68        64.03757
235.14        64.99048
235.60        65.01918
236.05        64.17684
236.51        63.09163
236.97        63.18063
237.43        64.92086
237.88        68.02545
238.34        71.20205
238.80        73.43854
239.26        74.60545
239.71        75.00511
240.17        74.66628
240.63         74.8321
241.08        76.27364
241.54        77.68065
242.00        78.56714
242.46        78.86382
242.91        78.76119
243.37        78.10323
243.83        76.72006
244.28        75.33231
244.74         75.9142
245.20        78.09268
245.66        79.63775
246.11          79.814
246.57        78.81348
247.03        76.60138
247.48         73.0201
247.94         70.2428
248.40         70.9369
248.85        74.01696
249.31        78.14059
249.77        82.02579
250.22        85.31007
250.68        88.21449
251.14        90.80948
251.59        93.59588
252.05        97.17668
252.51        101.6552
252.96        107.0728
253.42        111.6992
253.88        112.7604
254.33        110.8242
254.79        107.3503
255.25        102.1313
255.70        95.66785
256.16        89.36787
256.62        84.72698
257.07        83.51643
257.53        85.27173
257.99        87.86511
258.44         89.5033
258.90        89.27788
259.35        87.05222
259.81        84.22922
260.27        81.24954
260.72        78.70232
261.18         77.1254
261.63        75.84337
262.09        75.00022
262.55        74.25137
263.00        73.39816
263.46        72.68108
263.91        71.89999
264.37        71.24055
264.83        70.59734
265.28        69.88198
265.74        69.14015
266.19        68.12134
266.65        66.92489
267.11         65.5643
267.56        64.13538
268.02        62.92043
268.47        61.92729
268.93        61.09858
269.38        60.35773
269.84        59.62228
270.30        58.83723
270.75         58.0333
271.21        57.14156
271.66        55.99076
272.12        54.60919
272.57        53.00523
273.03        51.43457
273.48        50.19481
273.94        49.40843
274.39        48.92582
274.85        48.56913
275.31        47.96175
275.76        47.01296
276.22        45.88964
276.67        44.73474
277.13        43.89029
277.58        43.33302
278.04        43.00535
278.49        42.65006
278.95        42.05182
279.40        41.11664
279.86        40.02704
280.31         38.9271
280.77        38.16938
281.22        37.75372
281.68        37.61885
282.13        37.54985
282.59        37.33157
283.04        36.88958
283.50        36.33421
283.95        35.77497
284.41        35.43535
284.86        35.33298
285.32        35.41231
285.77        35.52864
286.22        35.53704
286.68        35.41969
287.13        35.18519
287.59        34.95115
288.04        34.80109
288.50        34.79087
288.95        34.84942
289.41        34.92365
289.86        34.87535
290.32        34.71815
290.77        34.49749
291.22          34.326
291.68        34.35345
292.13        34.60914
292.59        35.08258
293.04        35.70307
293.50        36.38833
293.95        37.10415
294.40        37.88864
294.86        38.80229
295.31        39.92776
295.77        41.27999
296.22        42.79281
296.68        44.38668
297.13        45.90712
297.58        47.30839
298.04        48.63273
298.49        49.91832
298.95        51.27869
299.40        52.74852
299.85        54.31845
300.31        56.00996
300.76        57.78879
301.21        59.63385
301.67        61.55518
302.12        63.46282
302.58        65.32249
303.03        67.08279
303.48         68.7675
303.94        70.46232
304.39         72.2112
304.84        74.04884
305.30        75.96247
305.75        77.82732
306.20        79.55098
306.66        81.14124
307.11        82.59541
307.57        84.02159
308.02        85.45804
308.47          86.937
308.93        88.42834
309.38        89.86266
309.83        91.24226
310.29        92.57877
310.74         93.8611
311.19        95.06258
311.65        96.11038
312.10        96.96243
312.55        97.63993
313.00        98.24927
313.46        98.97043
313.91        99.81889
314.36         100.759
314.82        101.6486
315.27        102.2477
315.72         102.514
316.18        102.5533
316.63        102.5121
317.08        102.6584
317.53        103.0645
317.99        103.6407
318.44        104.2996
318.89        104.8711
319.35        105.2929
319.80        105.6236
320.25        105.8817
320.70        106.1033
321.16        106.2964
321.61        106.4587
322.06         106.603
322.51         106.772
322.97        106.9577
323.42        107.1929
323.87        107.4378
324.32        107.6398
324.78        107.7728
325.23        107.8959
325.68        108.0163
326.13        108.1752
326.59        108.3599
327.04        108.6003
327.49         108.879
327.94        109.2059
328.39         109.575
328.85        109.9511
329.30        110.3554
329.75        110.6604
330.20        110.8427
330.66         110.894
331.11        110.9568
331.56        111.1451
332.01        111.5049
332.46        112.0099
332.92        112.5348
333.37        113.0117
333.82        113.3498
334.27        113.5873
334.72        113.8168
335.17        114.1941
335.63        114.7292
336.08        115.4221
336.53        116.1426
336.98        116.7234
337.43        117.1188
337.88        117.3824
338.34        117.5823
338.79         117.888
339.24        118.3244
339.69        118.8415
340.14         119.392
340.59        119.8988
341.05        120.3388
341.50         120.759
341.95        121.1492
342.40        121.5058
342.85        121.8372
343.30         122.124
343.75        122.4308
344.20        122.8658
344.66         123.439
345.11        124.1139
345.56        124.7417
346.01        125.0794
346.46        125.0917
346.91        124.8652
347.36        124.5991
347.81        124.6036
348.26        124.9384
348.72        125.4937
349.17        126.0982
349.62        126.4979
350.07        126.6141
350.52        126.5384
350.97        126.3311
351.42        126.0862
351.87         125.856
352.32        125.6111
352.77         125.398
353.22        125.2973
353.67        125.3045
354.13        125.3995
354.58        125.4622
355.03        125.3575
355.48        125.0389
355.93        124.5404
356.38         123.901
356.83        123.1872
357.28        122.4408
357.73        121.6724
358.18        120.9051
358.63        120.1667
359.08        119.4762
359.53        118.8418
359.98        118.2859
360.43         117.836
360.88        117.4714
361.33         117.148
361.78        116.8026
362.23        116.3346
362.68        115.7118
363.13        114.9797
363.58        114.1376
364.03        113.1295
364.48        112.0891
364.93        110.9584
365.38        109.8703
365.83        108.9796
366.28        108.3124
366.73        107.8229
367.18        107.3963
367.63        106.8405
368.08        106.1043
368.53        105.2441
368.98        104.3324
369.43        103.4906
369.88        102.7591
370.33        102.0974
370.78         101.484
371.23        100.8872
371.68        100.2897
372.13        99.70404
372.58        99.12272
373.03        98.53008
373.48        97.92203
373.93        97.29552
374.38        96.65562
374.83        96.01196
375.28        95.36908
375.72        94.71459
376.17        94.08024
376.62        93.44218
377.07        92.80335
377.52        92.16342
377.97        91.55363
378.42          91.024
378.87        90.57583
379.32        90.19093
379.77        89.80474
380.22        89.31357
380.67        88.69839
381.11        87.99949
381.56        87.28218
382.01        86.66988
382.46        86.20993
382.91        85.87563
383.36        85.62692
383.81        85.39474
384.26        85.15019
384.71        84.90654
385.15        84.65794
385.60        84.45412
386.05        84.27519
386.50        84.09914
386.95        83.89319
387.40        83.62184
387.85        83.28275
388.29         82.8419
388.74        82.42797
389.19        82.02718
389.64         81.6348
390.09        81.22933
390.54        80.80022
390.98        80.31828
391.43        79.85028
391.88        79.41075
392.33        78.97884
392.78        78.62185
393.23        78.36386
393.67        77.92876
394.12        77.44315
394.57        77.77937
395.02        77.67882
395.47        77.59615
395.91        77.20586
396.36        76.96546
396.81        76.90083
397.26        76.78032
397.71        76.59676
398.15         76.4163
398.60        76.31767
399.05        76.11857
399.50        75.87713
399.95        75.88162
400.39        76.02589
400.84        75.80003
401.29        75.24006
401.74        74.65854
402.18        74.22404
402.63        74.15845
403.08        74.35271
403.53        74.26588
403.97         73.8484
404.42        73.44622
404.87        73.15633
405.32        72.99619
405.76        72.97336
406.21        73.07994
406.66        73.21101
407.11        73.19664
407.55        73.01823
408.00        72.73926
408.45        72.42642
408.90        72.02789
409.34        71.63085
409.79        71.49548
410.24        71.57529
410.68        71.61268
411.13          71.576
411.58         71.6069
412.03        71.69701
412.47        71.77461
412.92        71.79796
413.37        71.79149
413.81        71.73763
414.26        71.67529
414.71        71.59391
415.15        71.50588
415.60        71.39648
416.05        71.30647
416.49        71.25145
416.94         71.2143
417.39        71.19206
417.83        71.16958
418.28        71.13469
418.73        71.08277
419.17        71.01429
419.62        70.93369
420.07        70.85282
420.51         70.7747
420.96        70.70959
421.41         70.6456
421.85        70.56277
422.30        70.43673
422.74        70.30477
423.19        70.50707
423.64        70.95141
424.08        71.20423
424.53        71.15298
424.98        71.14382
425.42        71.19326
425.87        71.03308
426.31        70.74532
426.76         70.6327
427.21        70.68787
427.65        70.71752
428.10        70.70844
428.54        70.74478
428.99        70.85091
429.44        71.08045
429.88        71.30766
430.33        71.13552
430.77        70.65137
431.22        70.57226
431.66        70.88528
432.11        71.05175
432.56        71.06202
433.00        71.36205
433.45        71.72353
433.89        71.65296
434.34        71.16135
434.78        70.96255
435.23        70.02805
435.67        70.81152
436.12        71.44956
436.57        71.82064
437.01        71.56762
437.46        71.33691
437.90        71.60687
438.35        72.20663
438.79        71.58685
439.24        71.67549
439.68         71.9378
440.13        71.93573
440.57        71.69112
441.02         71.8227
441.46        72.22625
441.91        72.13536
442.35        71.65776
442.80        71.85147
443.24        72.57825
443.69         72.8743
444.13        72.67425
444.58        72.64705
445.02        72.75483
445.47        72.70929
445.91        72.54946
446.36        72.38914
446.80        72.20747
447.24        72.56145
447.69        72.29408
448.13        72.53253
448.58        72.83649
449.02        72.81175
449.47        72.52703
449.91        72.43295
450.36        72.58347
450.80        72.68517
451.25        72.71793
451.69        72.74966
452.13        72.75993
452.58        72.66798
453.02        72.49787
453.47        72.34901
453.91        72.23174
454.36        72.12719
454.80        72.12041
455.24        71.77969
455.69        71.29648
456.13        70.99644
456.58        70.94328
457.02        71.15076
457.46         71.3737
457.91        71.25099
458.35        71.02449
458.79         70.8135
459.24        70.71587
459.68        70.52798
460.13        70.30035
460.57        69.94704
461.01        69.81631
461.46        69.70689
461.90        69.32577
462.34        69.60855
462.79        69.76552
463.23         69.7962
463.68        69.54281
464.12        69.34244
464.56        69.26665
465.01        69.45055
465.45        69.71233
465.89        69.60667
466.34        69.18718
466.78         69.0113
467.22        68.85568
467.67         68.6904
468.11        68.63916
468.55        68.40612
468.99        68.10688
469.44        67.93966
469.88        67.91999
470.32        67.90095
470.77        67.85037
471.21          67.804
471.65        67.74398
472.10        67.67695
472.54        67.57393
472.98        67.44033
473.42        67.28888
473.87        67.10059
474.31        66.89794
474.75        66.91048
475.20        67.10026
475.64        67.14769
476.08        67.08094
476.52        67.10832
476.97        67.28359
477.41        67.12579
477.85         66.7559
478.29        67.19816
478.74        67.15185
479.18        66.42902
479.62        67.04594
480.06        66.95705
480.50        66.86426
480.95        66.84122
481.39        66.87596
481.83        66.68752
482.27        66.79647
482.72         66.4605
483.16        66.46957
483.60         66.3956
484.04         66.3856
484.48        66.45461
484.93        66.79372
485.37        66.90944
485.81        66.65286
486.25        67.83076
486.69        69.39659
487.14        67.71237
487.58        66.90856
488.02        66.47269
488.46        66.61008
488.90        66.92237
489.34        65.76036
489.79        65.63182
490.23        65.72716
490.67        66.01685
491.11        66.23616
491.55         66.1463
491.99         65.8056
492.43        65.64182
492.88        65.69745
493.32        65.71842
493.76        65.66447
494.20        65.66457
494.64         65.7255
495.08        65.71223
495.52         65.6787
495.96        65.91225
496.41        66.30008
496.85        66.33292
497.29         66.0229
497.73         65.8251
498.17        65.73208
498.61         65.9091
499.05         66.2049
499.49        66.25539
499.93        66.07092
500.37        65.79235
500.82        65.48266
501.26         65.4824
501.70        65.96828
502.14        65.21458
502.58        65.61053
503.02        65.59821
503.46        65.59901
503.90        65.65678
504.34        65.65289
504.78        65.62852
505.22        65.53696
505.66        65.20283
506.10         64.7972
506.54        64.85197
506.98        65.28069
507.42        65.57095
507.86        65.64021
508.30        65.32922
508.74        65.64139
509.18        65.47733
509.62        65.19737
510.06        65.01324
510.50        64.96883
510.94        64.98544
511.38        65.02491
511.82        65.05431
512.26        65.05429
512.70        65.05138
513.14        65.05469
513.58        65.04407
514.02        65.01849
514.46        65.02155
514.90        65.06942
515.34        64.96185
515.78        65.07233
516.22        65.09016
516.66        65.11844
517.10        65.13345
517.54        65.13097
517.98        65.11259
518.42        65.06493
518.86        64.97742
519.30        64.85516
519.74         64.7093
520.18         64.5729
520.62         64.4949
521.06        64.48711
521.50        64.53759
521.93        64.62251
522.37        64.68649
522.81        64.71754
523.25        64.72398
523.69        64.71805
524.13        64.72221
524.57        64.73969
525.01        64.75712
525.45        64.76263
525.89        64.74039
526.32        64.68431
526.76         64.6191
527.20        64.54779
527.64        64.48976
528.08        64.45319
528.52        64.40593
528.96        64.36413
529.40        64.41358
529.83          64.517
530.27        64.54095
530.71        64.47743
531.15        64.44082
531.59         64.4351
532.03        64.39075
532.46        64.31716
532.90        64.28882
533.34        64.30797
533.78        64.35223
534.22        64.41033
534.66        64.46504
535.09        64.50005
535.53        64.54024
535.97        64.56409
536.41        64.55182
536.85        64.50365
537.28        64.42747
537.72        64.35255
538.16        64.31876
538.60        64.33615
539.04        64.40376
539.47         64.4724
539.91        64.50469
540.35        64.47519
540.79        64.41058
541.22        64.32179
541.66         64.2591
542.10        64.19356
542.54        64.14648
542.97        64.11263
543.41        64.13997
543.85        64.21548
544.29        64.33045
544.72        64.42968
545.16        64.45885
545.60         64.3904
546.04        64.23862
546.47        64.05629
546.91        63.93153
547.35        63.88012
547.79        63.91134
548.22        63.95825
548.66        63.88266
549.10         63.7092
549.53        63.69516
549.97        63.84506
550.41        63.93386
550.84        63.93774
551.28        64.03708
551.72        64.20026
552.15        64.16528
552.59        63.91071
553.03        64.02483
553.46        63.61461
553.90        63.59661
554.34        63.69559
554.77        63.90888
555.21        64.13148
555.65        64.21241
556.08        64.06427
556.52        63.89548
556.96        63.74752
557.39        63.72303
557.83        63.81906
558.27        63.83799
558.70        63.76473
559.14        63.74257
559.57        63.75753
560.01        63.74099
560.45         63.6856
560.88        63.66544
561.32        63.72734
561.75        63.70567
562.19        63.65289
562.63        63.82427
563.06        64.11077
563.50        64.01958
563.93        63.62031
564.37        63.49332
564.80        63.64367
565.24        63.83158
565.68        63.99269
566.11        64.07204
566.55        64.05904
566.98        64.18761
567.42        64.06861
567.85        64.06633
568.29        64.10894
568.72        64.06892
569.16        64.00256
569.60        64.11835
570.03        64.43262
570.47        64.32406
570.90        64.58109
571.34        64.84816
571.77        64.95318
572.21        64.72418
572.64        64.97057
573.08        64.70348
573.51        64.57355
573.95        64.88968
574.38        65.22265
574.82        65.11619
