SpectraSmart Spectrum 2.9.0.0
--------- Device Information -----------
Spectrum Name :  反射率_0
Saving Time :  2024/04/27 23:35:41
Spectro-Module Model Name : SE2030-DUVN
Spectro-Module Serial Number : OS361AC55029948
Wavelength Start : 200
Wavelength End : 1025
Wavelength Unit : Wavelength(nm)
Spectrum Unit : Reflectance(%)
-----------Spectrum Setting ------------
Integration Time : 20ms
Average : 10
Boxcar : 0
Background removal :  enabled
linearity correction :  enabled
SC :  disabled
Intensity correction :  disabled
DWT denoise :  enabled
savitzky-golay :  disabled
FFT :  disabled
Running average :  disabled
Kalman :  disabled
High pass :  disabled
---------------BEGIN--------------------
Wavelength(nm)             Reflectance(%)
200.29               0
200.75        107.5817
201.21        102.4107
201.67        94.11505
202.13        86.68315
202.58        79.94984
203.04        73.54508
203.50        69.47304
203.96        71.20296
204.42        77.56132
204.88        85.52993
205.34        92.92644
205.80        98.45961
206.26        102.4865
206.72        106.2788
207.18        107.9508
207.64        101.2733
208.10        88.46289
208.55         77.5999
209.01        70.55574
209.47        65.53426
209.93        60.01833
210.39        50.16656
210.85         27.8102
211.31        23.80402
211.77        72.51092
212.23         90.6151
212.69        94.91165
213.14        96.55615
213.60         96.8517
214.06        96.26481
214.52        92.33932
214.98        81.37776
215.44        69.36545
215.90        61.73613
216.36        59.25876
216.81        60.88066
217.27        64.96819
217.73        71.26125
218.19        77.67281
218.65        80.23474
219.11        77.66669
219.57        70.59212
220.02        60.52145
220.48        53.54058
220.94        52.13663
221.40        54.17477
221.86        57.82499
222.32        61.11034
222.77        63.39555
223.23        65.23589
223.69        65.91478
224.15        64.32827
224.61        60.61535
225.06        54.89773
225.52        49.10868
225.98        46.94432
226.44        48.70169
226.90        52.05236
227.36        55.03466
227.81        56.13861
228.27        55.43159
228.73        53.50736
229.19        50.45106
229.65        46.66599
230.10        42.72883
230.56        39.05156
231.02        36.22895
231.48        35.09431
231.93        35.50212
232.39        37.07467
232.85        39.25177
233.31        41.23354
233.77        42.74833
234.22        44.12257
234.68        44.92388
235.14         44.7024
235.60        43.47403
236.05        41.07325
236.51        38.70465
236.97        38.98795
237.43        42.70649
237.88        49.20476
238.34         55.7528
238.80        59.51204
239.26        59.87645
239.71        56.63176
240.17        49.92263
240.63        46.08144
241.08        50.69919
241.54        59.05652
242.00        66.05145
242.46        70.00822
242.91        72.00447
243.37        73.10543
243.83        73.52293
244.28        72.93908
244.74        71.25509
245.20        69.29935
245.66        67.93066
246.11        66.68153
246.57        65.07738
247.03         63.4419
247.48          62.778
247.94        66.77534
248.40        75.81468
248.85        85.56876
249.31        93.04811
249.77        96.77398
250.22        97.60871
250.68         96.8856
251.14        95.25835
251.59        93.08685
252.05        90.29475
252.51        85.89709
252.96        79.95016
253.42        76.31091
253.88        76.98193
254.33        80.13962
254.79        82.65706
255.25        81.71002
255.70        77.93588
256.16        73.46851
256.62        69.77962
257.07        68.55595
257.53        69.58463
257.99        71.07627
258.44        71.83453
258.90        71.32231
259.35         69.3786
259.81        67.05612
260.27        64.49545
260.72        61.92144
261.18        59.85398
261.63        57.93537
262.09         56.4823
262.55        55.44836
263.00         54.6572
263.46        54.16193
263.91        53.67302
264.37        53.15657
264.83         52.4972
265.28        51.69554
265.74        50.83475
266.19        49.79643
266.65        48.67127
267.11        47.46708
267.56        46.21876
268.02        45.09927
268.47        44.11209
268.93        43.21499
269.38        42.45609
269.84        41.92812
270.30         41.5913
270.75        41.40414
271.21         41.1007
271.66        40.22705
272.12        38.76421
272.57        36.84743
273.03        34.91738
273.48        33.57761
273.94        33.00812
274.39        32.96265
274.85        33.14599
275.31        33.05561
275.76        32.55599
276.22        31.83483
276.67        31.02855
277.13        30.41983
277.58         30.0135
278.04        29.74926
278.49        29.45328
278.95        28.99983
279.40        28.32665
279.86        27.56763
280.31         26.8247
280.77        26.34917
281.22        26.13337
281.68        26.12513
282.13        26.15965
282.59        26.05409
283.04        25.76112
283.50        25.36827
283.95        24.97028
284.41        24.74375
284.86        24.71356
285.32        24.83441
285.77        25.01002
286.22        25.14343
286.68         25.2165
287.13        25.21583
287.59        25.21594
288.04        25.25381
288.50        25.36272
288.95         25.5007
289.41        25.61308
289.86        25.57208
290.32        25.40422
290.77        25.17412
291.22        25.02249
291.68        25.14826
292.13        25.58406
292.59        26.27541
293.04        27.13973
293.50        28.06575
293.95        28.99949
294.40        29.99207
294.86         31.0266
295.31        32.06955
295.77         33.1409
296.22        34.22668
296.68        35.42591
297.13        36.87025
297.58        38.56673
298.04        40.45803
298.49          42.399
298.95        44.21315
299.40        45.87038
299.85        47.44687
300.31        49.07073
300.76        50.88422
301.21        52.91087
301.67        55.08356
302.12        57.27228
302.58        59.37807
303.03         61.3419
303.48        63.23618
303.94        65.13541
304.39        67.06052
304.84        69.05937
305.30        71.12486
305.75        73.21803
306.20        75.37566
306.66        77.60249
307.11        79.82758
307.57        82.02632
308.02        84.03393
308.47        85.83194
308.93        87.45862
309.38        88.91515
309.83        90.31786
310.29        91.72283
310.74        93.08228
311.19        94.39988
311.65        95.64789
312.10        96.78117
312.55        97.82262
313.00        98.78461
313.46        99.69357
313.91        100.5428
314.36        101.3366
314.82        102.0635
315.27        102.7009
315.72        103.2468
316.18        103.7313
316.63         104.157
317.08        104.5647
317.53        104.9747
317.99        105.3796
318.44        105.8024
318.89        106.2491
319.35        106.7165
319.80        107.2112
320.25        107.7098
320.70        108.1822
321.16        108.6063
321.61             109
322.06        109.3723
322.51        109.7549
322.97        110.1327
323.42        110.5249
323.87        110.8866
324.32        111.1682
324.78        111.3461
325.23         111.487
325.68        111.6041
326.13        111.7471
326.59        111.9133
327.04        112.1432
327.49        112.4335
327.94        112.8134
328.39        113.2807
328.85        113.7919
329.30         114.361
329.75        114.8372
330.20         115.184
330.66        115.3944
331.11        115.5956
331.56        115.8797
332.01        116.2894
332.46        116.7932
332.92        117.3021
333.37        117.8224
333.82        118.2743
334.27        118.6819
334.72        119.0668
335.17        119.4642
335.63        119.8619
336.08        120.3054
336.53        120.7594
336.98        121.2181
337.43        121.6782
337.88        122.1423
338.34        122.6031
338.79        123.1044
339.24        123.6298
339.69        124.1766
340.14        124.7169
340.59        125.2054
341.05         125.641
341.50        126.0518
341.95        126.4715
342.40         126.973
342.85        127.5654
343.30        128.2007
343.75        128.8538
344.20        129.4843
344.66        130.0695
345.11        130.6227
345.56        131.0677
346.01        131.2821
346.46        131.2718
346.91        131.0871
347.36        130.9171
347.81        131.0538
348.26        131.5421
348.72        132.2832
349.17        133.0662
349.62         133.572
350.07        133.7077
350.52        133.5724
350.97        133.2819
351.42        133.0258
351.87        132.8763
352.32        132.7786
352.77        132.7105
353.22        132.6452
353.67        132.5583
354.13         132.465
354.58        132.3267
355.03        132.1367
355.48        131.8786
355.93        131.5485
356.38        131.0975
356.83        130.4565
357.28        129.6367
357.73        128.6875
358.18        127.7209
358.63        126.9028
359.08        126.2761
359.53        125.7984
359.98        125.3947
360.43        124.9407
360.88        124.3868
361.33        123.7493
361.78        123.0577
362.23        122.3546
362.68        121.6505
363.13        120.9506
363.58        120.2086
364.03        119.2663
364.48        118.2742
364.93        117.1617
365.38        116.0725
365.83        115.1555
366.28        114.4359
366.73        113.8516
367.18        113.3104
367.63         112.665
368.08        111.8737
368.53         110.994
368.98        110.0492
369.43        109.0766
369.88        108.1096
370.33        107.1391
370.78        106.2418
371.23        105.5426
371.68        105.0567
372.13        104.7485
372.58        104.4932
373.03        104.0826
373.48        103.4574
373.93        102.6628
374.38        101.8012
374.83        101.0406
375.28        100.4235
375.72         99.8849
376.17        99.37231
376.62        98.73194
377.07        97.94122
377.52        97.05273
377.97        96.18137
378.42         95.5009
378.87        95.04183
379.32         94.7438
379.77        94.47588
380.22        94.03455
380.67        93.37759
381.11        92.58031
381.56        91.75227
382.01        91.08971
382.46        90.65602
382.91        90.38732
383.36        90.21292
383.81          90.022
384.26        89.76802
384.71        89.47884
385.15        89.14057
385.60        88.79145
386.05        88.42021
386.50        88.01714
386.95        87.59326
387.40        87.17842
387.85        86.79251
388.29        86.39276
388.74        86.07108
389.19        85.75397
389.64        85.41517
390.09        85.03107
390.54        84.65402
390.98        84.29748
391.43        84.02664
391.88        83.93477
392.33        83.88583
392.78        83.33711
393.23         83.0704
393.67        82.21398
394.12        81.33183
394.57        81.71158
395.02        81.93383
395.47          82.368
395.91         81.6515
396.36         81.4176
396.81        81.38983
397.26        81.07335
397.71        80.55003
398.15        80.15154
398.60        79.99059
399.05        79.87794
399.50        79.79503
399.95        79.70543
400.39        79.56973
400.84        79.43999
401.29        79.29151
401.74        78.75233
402.18        78.02022
402.63        77.92451
403.08        78.36053
403.53         78.3676
403.97        77.89049
404.42        77.49981
404.87        77.26781
405.32        77.13107
405.76        77.10248
406.21        77.06049
406.66        76.97781
407.11        77.12616
407.55        77.35737
408.00        76.96928
408.45        76.10187
408.90        75.46508
409.34        75.23457
409.79        75.38208
410.24        75.74788
410.68        75.92561
411.13        75.84075
411.58        75.74459
412.03        75.69073
412.47        75.66307
412.92        75.65336
413.37         75.6731
413.81        75.68112
414.26        75.68037
414.71        75.64687
415.15        75.60983
415.60        75.54591
416.05        75.47987
416.49        75.42575
416.94        75.36481
417.39        75.31004
417.83        75.28012
418.28        75.26553
418.73        75.24303
419.17        75.20784
419.62        75.15528
420.07        75.10548
420.51        75.08068
420.96        75.06665
421.41        75.04734
421.85        75.00447
422.30        74.76926
422.74        74.50644
423.19        74.90881
423.64        76.16698
424.08        76.40067
424.53        75.67195
424.98        75.39873
425.42        75.67278
425.87        75.51514
426.31        75.02084
426.76        75.03589
427.21        75.45705
427.65        75.47636
428.10        75.14803
428.54        75.09084
428.99        75.33722
429.44        75.75535
429.88        76.11925
430.33        75.76558
430.77        74.90959
431.22        74.77461
431.66        75.31213
432.11        75.58916
432.56        75.62022
433.00        75.86765
433.45        76.05752
433.89        76.19625
434.34        76.42352
434.78        74.77806
435.23        75.19946
435.67         75.3624
436.12        76.29668
436.57        76.62762
437.01        76.38132
437.46        76.63694
437.90        76.67759
438.35        77.18405
438.79         76.7421
439.24        76.64676
439.68        76.61485
440.13        76.59024
440.57        76.58826
441.02        76.95734
441.46        77.49191
441.91        77.27733
442.35        76.49374
442.80        76.64789
443.24        77.57995
443.69        77.74646
444.13        77.12313
444.58         77.4659
445.02        77.62748
445.47        77.89874
445.91        77.90992
446.36        77.85658
446.80        77.68889
447.24        77.91243
447.69        77.53049
448.13        77.68446
448.58        78.01575
449.02        78.22167
449.47        78.26696
449.91        78.31816
450.36        78.39252
450.80        78.32289
451.25        78.17378
451.69        78.10447
452.13        78.12241
452.58        78.11779
453.02        78.06107
453.47        77.94697
453.91        77.76413
454.36        77.63882
454.80        77.52646
455.24        77.17586
455.69         76.7502
456.13        76.56118
456.58        76.70219
457.02        76.95992
457.46        77.64672
457.91        77.40599
458.35        76.80343
458.79         76.4709
459.24        76.54227
459.68        76.50418
460.13        76.36197
460.57        76.08128
461.01        76.02092
461.46        75.90341
461.90        75.61169
462.34        75.78174
462.79        75.69452
463.23        75.78661
463.68        75.81777
464.12        75.70193
464.56        75.49469
465.01        75.51218
465.45        75.61616
465.89        75.53506
466.34        75.31657
466.78        75.05939
467.22        74.74123
467.67         74.9424
468.11        74.91162
468.55        74.82082
468.99         74.5162
469.44        74.41129
469.88        74.52008
470.32        74.61041
470.77        74.61913
471.21        74.55427
471.65        74.39717
472.10        74.16872
472.54        73.91366
472.98        73.75549
473.42        73.72375
473.87        73.75179
474.31        73.76996
474.75        73.89864
475.20        74.02746
475.64        73.87146
476.08        73.51857
476.52        73.32193
476.97        73.26836
477.41        73.54715
477.85        73.53047
478.29         73.4381
478.74        73.16734
479.18        73.05597
479.62        73.41395
480.06        73.44511
480.50        73.23111
480.95        73.19557
481.39        73.33962
481.83        72.80314
482.27        73.28242
482.72         72.6754
483.16         72.9575
483.60        72.86254
484.04        72.79595
484.48        72.81725
484.93        73.12036
485.37        72.96066
485.81        73.28008
486.25        73.88231
486.69        74.25229
487.14        73.26434
487.58        73.04241
488.02        73.05151
488.46        73.01332
488.90        73.43307
489.34        73.13184
489.79        72.06522
490.23         72.6517
490.67         72.4212
491.11        72.19711
491.55        72.11588
491.99        72.19088
492.43        72.23219
492.88        72.20558
493.32        72.25266
493.76        72.30561
494.20        72.33935
494.64        72.37336
495.08        72.15826
495.52        71.84219
495.96        72.26322
496.41        73.16945
496.85        73.08043
497.29        72.12886
497.73        71.85043
498.17        72.16191
498.61        72.37963
499.05        72.21244
499.49        72.10136
499.93        72.04857
500.37        71.98177
500.82         71.9011
501.26        72.05078
501.70        72.42582
502.14         71.8924
502.58        71.99888
503.02        71.97758
503.46        71.98376
503.90        72.07323
504.34        72.13499
504.78        72.16417
505.22        72.11411
505.66        72.09017
506.10        72.14709
506.54        72.07323
506.98        71.81509
507.42        72.39569
507.86        72.20222
508.30        72.05527
508.74         72.1795
509.18        72.06457
509.62        71.94067
510.06        71.85256
510.50        71.83374
510.94        71.84073
511.38        71.85371
511.82         71.8578
512.26        71.84049
512.70        71.81368
513.14        71.77719
513.58        71.70426
514.02        71.59663
514.46        71.50848
514.90        71.47449
515.34        71.32259
515.78        71.43161
516.22        71.48419
516.66        71.57234
517.10        71.65517
517.54        71.71831
517.98        71.76292
518.42        71.76933
518.86        71.71829
519.30         71.6136
519.74        71.46902
520.18        71.32181
520.62        71.22945
521.06        71.20943
521.50        71.25022
521.93        71.33776
522.37        71.42974
522.81        71.51464
523.25        71.59532
523.69        71.66717
524.13        71.72508
524.57        71.76596
525.01        71.78422
525.45        71.77751
525.89        71.74718
526.32        71.68945
526.76         71.6205
527.20        71.54497
527.64        71.47662
528.08        71.42177
528.52        71.38229
528.96        71.35416
529.40        71.32824
529.83        71.29669
530.27         71.2751
530.71         71.2632
531.15        71.27097
531.59        71.29729
532.03        71.33411
532.46        71.36312
532.90        71.37917
533.34        71.37284
533.78        71.34991
534.22        71.31416
534.66        71.27179
535.09        71.21866
535.53        71.17461
535.97        71.13673
536.41        71.11693
536.85        71.11617
537.28        71.13303
537.72        71.15853
538.16        71.16513
538.60        71.14737
539.04        71.13707
539.47        71.12125
539.91        71.09355
540.35        71.03399
540.79        71.06625
541.22        70.99205
541.66        70.97713
542.10        70.96072
542.54        70.94614
542.97        70.92055
543.41        70.90899
543.85        70.90067
544.29        70.89391
544.72        70.87261
545.16        70.84927
545.60        70.81433
546.04        70.76472
546.47         70.7121
546.91        70.70817
547.35        70.75161
547.79        70.77016
548.22        70.73652
548.66        70.78078
549.10        70.83878
549.53        70.70733
549.97        70.45182
550.41        70.34694
550.84        70.41816
551.28        70.54255
551.72        70.65729
552.15        70.67844
552.59        70.59518
553.03        70.52517
553.46         70.3265
553.90         70.2953
554.34        70.37726
554.77        70.55895
555.21        70.74354
555.65        70.78642
556.08        70.59592
556.52        70.38457
556.96        70.20113
557.39         70.2158
557.83        70.39744
558.27        70.40564
558.70        70.24337
559.14        70.20723
559.57        70.28338
560.01        70.31249
560.45        70.26738
560.88        70.22511
561.32        70.23795
561.75        70.16042
562.19        70.05159
562.63        70.15675
563.06        70.39658
563.50        70.28654
563.93        69.90609
564.37        69.94505
564.80        70.32266
565.24        70.45941
565.68        70.33116
566.11        70.29002
566.55        70.35984
566.98         70.3412
567.42        70.25404
567.85        70.16693
568.29        70.17531
568.72        70.16595
569.16        70.13908
569.60        70.49197
570.03        70.58563
570.47        70.37077
570.90        70.55317
571.34        70.70199
571.77        70.88171
572.21        70.42352
572.64        70.78905
573.08        70.44834
573.51        70.48694
573.95        70.53742
574.38        70.70732
574.82        70.61583
