SpectraSmart Spectrum 2.9.0.0
--------- Device Information -----------
Spectrum Name :  反射率_0
Saving Time :  2024/04/27 23:46:00
Spectro-Module Model Name : SE2030-DUVN
Spectro-Module Serial Number : OS361AC55029948
Wavelength Start : 200
Wavelength End : 1025
Wavelength Unit : Wavelength(nm)
Spectrum Unit : Reflectance(%)
-----------Spectrum Setting ------------
Integration Time : 20ms
Average : 10
Boxcar : 0
Background removal :  enabled
linearity correction :  enabled
SC :  disabled
Intensity correction :  disabled
DWT denoise :  enabled
savitzky-golay :  disabled
FFT :  disabled
Running average :  disabled
Kalman :  disabled
High pass :  disabled
---------------BEGIN--------------------
Wavelength(nm)             Reflectance(%)
200.29               0
200.75        165.7909
201.21        141.1383
201.67        120.3786
202.13          115.16
202.58         120.312
203.04        131.1969
203.50         141.589
203.96        143.2205
204.42        136.3691
204.88        125.8605
205.34        116.8666
205.80         113.697
206.26        116.8586
206.72        127.0368
207.18        143.2268
207.64         150.114
208.10        139.0815
208.55         122.365
209.01        110.9003
209.47        107.5214
209.93        111.4243
210.39        127.2791
210.85         180.657
211.31        255.1797
211.77        183.4189
212.23        131.4501
212.69        112.0497
213.14        105.5602
213.60        103.4897
214.06        104.0647
214.52        107.1468
214.98        110.0893
215.44        109.6965
215.90        107.8229
216.36        106.9417
216.81        108.2582
217.27        111.5011
217.73         115.904
218.19         119.942
218.65        120.9056
219.11        118.0625
219.57        112.1957
220.02        105.1901
220.48        102.5718
220.94        106.0016
221.40        112.8425
221.86        120.4525
222.32        126.5131
222.77        130.4174
223.23        132.9676
223.69        134.2695
224.15         134.463
224.61        133.7951
225.06        132.3818
225.52        130.4395
225.98        128.3021
226.44        126.6964
226.90        125.7665
227.36        125.8421
227.81        127.1308
228.27        129.8346
228.73        133.6689
229.19        137.9985
229.65          141.21
230.10        142.3651
230.56        141.9833
231.02        140.6648
231.48        139.4703
231.93        138.6406
232.39        138.2838
232.85        137.9911
233.31        137.4175
233.77        136.5682
234.22        135.5639
234.68        135.0302
235.14        135.6284
235.60        137.4902
236.05        140.7224
236.51        144.2923
236.97        146.0683
237.43        145.1124
237.88        141.9348
238.34        138.2614
238.80         137.034
239.26        139.1606
239.71        145.9551
240.17        156.2569
240.63        160.8314
241.08        152.4298
241.54          137.89
242.00         126.637
242.46        122.0559
242.91        123.1967
243.37        130.3039
243.83        147.6379
244.28        171.4269
244.74         174.495
245.20        156.2968
245.66        138.4032
246.11        129.7196
246.57        127.4947
247.03        128.3673
247.48        133.0865
247.94        140.6756
248.40         147.368
248.85        153.4039
249.31        156.0379
249.77        152.5206
250.22        145.5407
250.68        137.8438
251.14        132.7245
251.59        133.6789
252.05        141.4517
252.51        156.7224
252.96        178.8774
253.42        195.8864
253.88        197.3767
254.33        187.9015
254.79        177.8254
255.25        172.0883
255.70        169.6643
256.16        169.6215
256.62        170.1183
257.07        169.6299
257.53         169.218
257.99        168.6622
258.44        167.9492
258.90        168.3309
259.35        168.6462
259.81        169.4838
260.27        169.7623
260.72        168.4603
261.18        166.5688
261.63         163.791
262.09          161.45
262.55        159.8215
263.00        158.6119
263.46        157.9505
263.91        157.0078
264.37         155.669
264.83        153.7451
265.28        151.3793
265.74        149.1309
266.19        146.9352
266.65        145.0595
267.11        143.2906
267.56        141.5816
268.02         140.104
268.47        138.7595
268.93        137.5774
269.38        136.4171
269.84        135.1694
270.30         133.757
270.75        132.1739
271.21        130.4605
271.66        128.5603
272.12        126.5374
272.57        124.3152
273.03        122.0531
273.48        119.8077
273.94        117.7595
274.39        115.8178
274.85        114.0404
275.31        112.2014
275.76        110.2258
276.22        108.3091
276.67        106.4635
277.13        105.0522
277.58        103.9164
278.04        103.0396
278.49        102.0763
278.95        100.8585
279.40        99.21438
279.86        97.41785
280.31        95.46788
280.77        93.68348
281.22        92.03207
281.68        90.59197
282.13        89.29682
282.59        88.30024
283.04        87.46831
283.50        86.84189
283.95        86.21372
284.41        85.43705
284.86        84.42977
285.32        83.34853
285.77        82.24609
286.22        81.35313
286.68         80.7371
287.13        80.24303
287.59        79.88341
288.04          79.511
288.50        79.14903
288.95        78.75675
289.41         78.3628
289.86        77.86809
290.32        77.33739
290.77          76.762
291.22        76.23215
291.68        75.85809
292.13        75.64604
292.59        75.62909
293.04        75.78892
293.50        76.15925
293.95        76.70316
294.40        77.41463
294.86        78.27083
295.31         79.2105
295.77        80.21817
296.22        81.26723
296.68        82.32418
297.13        83.30447
297.58         84.1976
298.04        85.03914
298.49        85.86684
298.95        86.83614
299.40         87.9536
299.85        89.20946
300.31        90.57185
300.76        91.91356
301.21        93.20009
301.67        94.47879
302.12        95.69833
302.58        96.93652
303.03        98.14247
303.48        99.34264
303.94        100.5804
304.39        101.7942
304.84        103.0235
305.30        104.2933
305.75        105.5482
306.20        106.8398
306.66        108.1893
307.11        109.5197
307.57        110.8299
308.02        111.9599
308.47        112.9183
308.93        113.7617
309.38        114.5035
309.83        115.3007
310.29        116.2037
310.74        117.1342
311.19         118.057
311.65        118.8818
312.10        119.5458
312.55        120.0955
313.00        120.5639
313.46        121.0075
313.91        121.4311
314.36        121.8405
314.82        122.2406
315.27        122.6364
315.72        123.0269
316.18        123.4263
316.63        123.8109
317.08        124.1874
317.53         124.548
317.99        124.8708
318.44        125.1561
318.89         125.379
319.35         125.535
319.80        125.6527
320.25        125.7226
320.70        125.7389
321.16        125.7031
321.61        125.6428
322.06        125.6242
322.51        125.7637
322.97        126.0551
323.42        126.5013
323.87         126.965
324.32        127.2427
324.78        127.2659
325.23        127.1432
325.68        126.9655
326.13        126.9238
326.59        127.0523
327.04        127.3522
327.49         127.753
327.94        128.1818
328.39        128.6001
328.85        128.9836
329.30        129.3979
329.75        129.7526
330.20        130.0334
330.66        130.2118
331.11        130.3786
331.56        130.5532
332.01        130.7669
332.46        131.0161
332.92        131.2706
333.37        131.6591
333.82         132.122
334.27         132.641
334.72        133.1728
335.17        133.6442
335.63         134.003
336.08        134.3367
336.53        134.6183
336.98        134.8641
337.43        135.0938
337.88        135.3035
338.34        135.5398
338.79        135.9449
339.24        136.5133
339.69        137.2167
340.14        137.9409
340.59        138.4937
341.05        138.8352
341.50        139.0355
341.95        139.1954
342.40        139.4986
342.85        139.9916
343.30         140.599
343.75        141.2638
344.20        141.8962
344.66        142.4551
345.11        142.9632
345.56         143.371
346.01        143.5947
346.46        143.6386
346.91        143.5322
347.36        143.4026
347.81        143.4499
348.26        143.7111
348.72         144.129
349.17        144.5724
349.62         144.853
350.07        144.9093
350.52        144.7929
350.97        144.5686
351.42        144.3434
351.87        144.1533
352.32        143.9651
352.77        143.7467
353.22        143.4515
353.67        143.0685
354.13        142.6334
354.58        142.1494
355.03        141.6851
355.48        141.2461
355.93        140.8004
356.38        140.3057
356.83        139.6959
357.28        138.9599
357.73        138.1399
358.18        137.2554
358.63        136.3286
359.08        135.3908
359.53         134.454
359.98        133.5761
360.43         132.848
360.88        132.2713
361.33        131.7951
361.78        131.3524
362.23        130.8229
362.68        130.1564
363.13        129.4042
363.58        128.5487
364.03        127.4394
364.48        126.3114
364.93        125.0387
365.38        123.7764
365.83        122.6681
366.28        121.7475
366.73        120.9607
367.18        120.2711
367.63        119.6123
368.08        118.9475
368.53         118.306
368.98        117.6045
369.43        116.7104
369.88        115.6184
370.33         114.363
370.78        113.1355
371.23        112.2532
371.68        111.7815
372.13        111.6309
372.58         111.576
373.03        111.2414
373.48        110.5269
373.93        109.5394
374.38        108.4662
374.83        107.6043
375.28        107.0274
375.72        106.6157
376.17        106.2636
376.62        105.7373
377.07        104.9851
377.52        104.0856
377.97        103.1629
378.42        102.4014
378.87        101.8462
379.32        101.4396
379.77        101.0676
380.22        100.5551
380.67        99.86554
381.11        99.06429
381.56        98.26258
382.01        97.65503
382.46        97.29697
382.91        97.12643
383.36        97.03376
383.81        96.84821
384.26        96.52103
384.71        96.10265
385.15        95.64771
385.60        95.30544
386.05        95.08436
386.50        94.93401
386.95        94.79208
387.40        94.57679
387.85        94.26722
388.29        93.83423
388.74        93.42654
389.19        93.03354
389.64        92.65272
390.09        92.25552
390.54        91.82134
390.98        91.31532
391.43        90.81878
391.88        90.32635
392.33        89.83598
392.78         89.5262
393.23        89.39361
393.67        88.94835
394.12        88.36636
394.57        88.85061
395.02        88.94946
395.47        88.99342
395.91        88.58907
396.36        88.36086
396.81        88.33882
397.26         88.2009
397.71        87.95176
398.15        87.73487
398.60        87.65076
399.05        87.41647
399.50         87.1144
399.95        87.22057
400.39        87.55553
400.84        87.25365
401.29        86.39458
401.74        85.65003
402.18        85.25257
402.63         85.3269
403.08        85.73211
403.53        85.82061
403.97        85.52784
404.42        85.31425
404.87        85.18028
405.32        85.01505
405.76        84.82474
406.21        84.42963
406.66        83.99149
407.11        84.19511
407.55        84.84969
408.00        84.94829
408.45        84.43245
408.90        83.61948
409.34        82.84407
409.79        82.92079
410.24        83.64683
410.68        83.82931
411.13        83.38631
411.58        83.07782
412.03        83.00912
412.47        82.99127
412.92        83.01466
413.37        83.14182
413.81        83.28452
414.26        83.37347
414.71        83.36611
415.15        83.30498
415.60         83.1761
416.05        83.04012
416.49        82.93049
416.94         82.8203
417.39        82.73991
417.83        82.73553
418.28        82.79852
418.73        82.89308
419.17        82.99048
419.62        83.04632
420.07        83.06027
420.51        83.05164
420.96        82.99683
421.41        82.89232
421.85        82.73324
422.30        82.32243
422.74        81.82482
423.19         82.2015
423.64        83.19138
424.08        83.32388
424.53        82.55492
424.98        82.30122
425.42        82.64543
425.87        82.67861
426.31        82.42787
426.76        82.47242
427.21        82.75356
427.65        82.83312
428.10        82.71913
428.54        82.68872
428.99        82.78967
429.44        83.03266
429.88        83.25861
430.33        82.98634
430.77        82.36434
431.22        82.26827
431.66        82.68357
432.11        83.10757
432.56        83.48294
433.00         83.7613
433.45        83.67007
433.89        83.68002
434.34        83.94425
434.78        82.75565
435.23        82.54495
435.67        83.42387
436.12        83.73775
436.57        83.94028
437.01        83.57769
437.46        83.31583
437.90        83.68436
438.35        84.76287
438.79        84.47294
439.24        84.62488
439.68        84.61147
440.13        84.54655
440.57        84.46169
441.02         84.5417
441.46        84.72224
441.91        84.61314
442.35        84.24467
442.80        84.42392
443.24        84.98156
443.69        85.02782
444.13        84.59104
444.58        84.46774
445.02        84.65228
445.47        84.75315
445.91        84.73702
446.36        84.79584
446.80        84.90978
447.24        84.96341
447.69        84.96754
448.13        85.16051
448.58        85.44231
449.02        85.31374
449.47        84.89719
449.91        84.76289
450.36         84.9726
450.80        85.18382
451.25        85.34488
451.69        85.48656
452.13        85.56685
452.58        85.51054
453.02        85.35484
453.47        85.19687
453.91        85.03834
454.36        85.00723
454.80         85.0359
455.24        84.64597
455.69        83.96578
456.13         83.9185
456.58        83.99348
457.02        83.81152
457.46        84.65679
457.91        84.32824
458.35        83.72997
458.79          83.379
459.24         83.4379
459.68        83.34774
460.13        83.14051
460.57        82.95364
461.01        83.21071
461.46        82.95361
461.90        83.22333
462.34        83.24452
462.79        83.04766
463.23        82.86253
463.68         82.6896
464.12        82.55674
464.56        82.51402
465.01        82.70438
465.45        83.08914
465.89        82.96938
466.34        82.51038
466.78        82.08726
467.22        81.41664
467.67        81.98528
468.11        81.78876
468.55        81.86578
468.99        81.66606
469.44        81.65674
469.88        81.82726
470.32         81.8858
470.77        81.82617
471.21        81.76781
471.65        81.71255
472.10        81.64243
472.54        81.52585
472.98        81.39825
473.42        81.27685
473.87        81.08149
474.31         80.8418
474.75        80.95531
475.20        81.30782
475.64         81.2542
476.08        80.82265
476.52        80.68929
476.97         80.8989
477.41        80.61622
477.85        80.75422
478.29        80.41199
478.74        80.97185
479.18        79.97412
479.62        80.67676
480.06        80.58504
480.50        80.57178
480.95        80.60942
481.39        80.62967
481.83        80.55479
482.27        80.77308
482.72         80.0013
483.16        80.48654
483.60        79.97907
484.04        80.22353
484.48        80.13087
484.93        80.19097
485.37        80.48208
485.81        80.78632
486.25         80.9876
486.69        81.08267
487.14        80.09224
487.58        79.94143
488.02        80.47385
488.46        80.07798
488.90        80.73716
489.34        80.43403
489.79        79.19247
490.23        79.69925
490.67        79.61153
491.11        79.76669
491.55        79.69977
491.99         79.4597
492.43        79.39441
492.88        79.48135
493.32        79.52233
493.76        79.48812
494.20        79.54037
494.64        79.68785
495.08        79.77028
495.52        79.80421
495.96        80.06297
496.41        80.32607
496.85         80.2682
497.29        79.08383
497.73        78.89973
498.17        79.45786
498.61        79.71997
499.05         79.5659
499.49        79.49533
499.93        79.56145
500.37        79.44007
500.82        79.15842
501.26        79.28493
501.70         79.8456
502.14        79.08107
502.58         79.3391
503.02        79.26695
503.46        79.23153
503.90        79.23469
504.34         79.1946
504.78        79.25669
505.22        79.37422
505.66        79.38283
506.10        79.30275
506.54        79.33112
506.98        79.48226
507.42        79.38937
507.86         79.6661
508.30        79.40611
508.74        79.42536
509.18        79.21238
509.62        79.01752
510.06         78.9118
510.50        78.91517
510.94        79.00372
511.38        79.11559
511.82        79.16592
512.26        79.12973
512.70        79.03847
513.14        78.94008
513.58        78.88142
514.02        78.87786
514.46        78.96451
514.90        79.12664
515.34        79.06158
515.78        79.21025
516.22        79.21643
516.66        79.23346
517.10        79.27656
517.54        79.35011
517.98        79.43354
518.42        79.49515
518.86        79.49948
519.30        79.44035
519.74        79.33864
520.18        79.22106
520.62        79.12582
521.06        79.06986
521.50        79.04711
521.93        79.06329
522.37        79.11021
522.81         79.1851
523.25        79.27973
523.69        79.37656
524.13        79.44843
524.57        79.48524
525.01        79.49133
525.45        79.46362
525.89        79.40085
526.32        79.30393
526.76        79.19311
527.20        79.08978
527.64        79.03573
528.08        79.04056
528.52        79.09368
528.96        79.17183
529.40        79.23586
529.83        79.26454
530.27        79.27946
530.71        79.28045
531.15        79.28032
531.59        79.28343
532.03        79.28542
532.46        79.27246
532.90        79.24998
533.34        79.21266
533.78        79.16268
534.22          79.116
534.66        79.09483
535.09        79.09182
535.53        79.12508
535.97        79.15478
536.41        79.13595
536.85        79.06271
537.28        78.95335
537.72        78.85003
538.16        78.80959
538.60        78.84651
539.04        78.95441
539.47        79.06942
539.91        79.14032
540.35        79.13137
540.79        79.07702
541.22        78.99236
541.66        78.91277
542.10        78.84891
542.54        78.79098
542.97        78.73624
543.41          78.726
543.85        78.74866
544.29        78.80592
544.72        78.85955
545.16        78.88725
545.60        78.86646
546.04        78.79807
546.47        78.72089
546.91         78.7141
547.35        78.77878
547.79         78.8915
548.22        78.97556
548.66        78.95167
549.10        78.81544
549.53        78.70315
549.97        78.65773
550.41        78.63468
550.84        78.64716
551.28        78.74975
551.72        78.88097
552.15         78.9048
552.59        78.81641
553.03        78.63162
553.46        78.42364
553.90         78.3614
554.34        78.45103
554.77        78.68778
555.21        78.90915
555.65        78.96603
556.08        78.73888
556.52        78.47672
556.96        78.25028
557.39        78.27444
557.83        78.51723
558.27        78.58878
558.70        78.48051
559.14        78.48715
559.57         78.5831
560.01        78.64855
560.45        78.64362
560.88         78.5266
561.32        78.40337
561.75        78.36482
562.19        78.44224
562.63        78.57344
563.06         78.6786
563.50        78.58311
563.93        78.32353
564.37        78.22604
564.80        78.29109
565.24        78.39861
565.68        78.50259
566.11        78.59819
566.55        78.70003
566.98        78.74471
567.42        78.74609
567.85        78.81189
568.29         78.9585
568.72        78.80016
569.16        78.42182
569.60        78.67127
570.03        78.48982
570.47        78.56354
570.90        78.63667
571.34        78.63893
571.77        78.81097
572.21        78.61903
572.64        78.83724
573.08        78.43253
573.51        78.37624
573.95        78.65102
574.38        78.65594
574.82         78.5347
