SpectraSmart Spectrum 2.9.0.0
--------- Device Information -----------
Spectrum Name :  反射率_0
Saving Time :  2024/04/27 23:45:16
Spectro-Module Model Name : SE2030-DUVN
Spectro-Module Serial Number : OS361AC55029948
Wavelength Start : 200
Wavelength End : 1025
Wavelength Unit : Wavelength(nm)
Spectrum Unit : Reflectance(%)
-----------Spectrum Setting ------------
Integration Time : 20ms
Average : 10
Boxcar : 0
Background removal :  enabled
linearity correction :  enabled
SC :  disabled
Intensity correction :  disabled
DWT denoise :  enabled
savitzky-golay :  disabled
FFT :  disabled
Running average :  disabled
Kalman :  disabled
High pass :  disabled
---------------BEGIN--------------------
Wavelength(nm)             Reflectance(%)
200.29               0
200.75         132.696
201.21        118.9078
201.67         102.216
202.13        91.52276
202.58        84.99065
203.04        79.82434
203.50        77.35075
203.96         80.1278
204.42        86.88206
204.88          95.608
205.34        103.4828
205.80        108.3571
206.26         110.493
206.72        110.2472
207.18        107.6887
207.64        105.5119
208.10        105.8489
208.55        107.3196
209.01        107.6311
209.47        105.5491
209.93        99.79229
210.39          85.119
210.85        39.45669
211.31         -25.503
211.77        32.93212
212.23        76.91415
212.69        93.43196
213.14        99.07632
213.60        99.56776
214.06        97.27192
214.52        91.22815
214.98        84.03996
215.44        81.72999
215.90        82.12709
216.36        83.68481
216.81         85.8683
217.27         88.3429
217.73        91.30447
218.19         93.4615
218.65        92.17459
219.11        86.70842
219.57         77.5764
220.02        66.18069
220.48        58.25767
220.94        56.59918
221.40        59.57362
221.86        65.64305
222.32        73.07825
222.77        80.60448
223.23        87.80455
223.69        93.49003
224.15        96.52206
224.61        97.10327
225.06        95.66835
225.52        92.89794
225.98        90.06076
226.44        88.11877
226.90         86.8746
227.36        86.25362
227.81         86.0127
228.27        86.11853
228.73        86.50854
229.19         86.9075
229.65        86.72128
230.10        85.74255
230.56        84.47024
231.02        83.18453
231.48        82.38331
231.93        82.12279
232.39        82.40585
232.85        83.14832
233.31        84.37206
233.77        85.91589
234.22        87.63294
234.68        89.28662
235.14         90.5846
235.60        91.51009
236.05        92.23798
236.51        92.68713
236.97        92.77873
237.43        92.55641
237.88        92.22412
238.34         91.9511
238.80        92.59084
239.26        94.52573
239.71        98.50995
240.17        104.7447
240.63        110.3471
241.08         111.065
241.54        107.7903
242.00         103.981
242.46        101.3981
242.91        99.74871
243.37        97.68784
243.83        94.74711
244.28        92.75281
244.74        95.37199
245.20        101.6369
245.66         106.138
246.11        107.5504
246.57        106.9293
247.03        104.0187
247.48        98.65285
247.94        94.07254
248.40        94.54693
248.85        98.53674
249.31        103.8191
249.77         108.083
250.22        110.9741
250.68        113.4109
251.14        115.5932
251.59        118.1436
252.05        121.7134
252.51        126.3865
252.96        132.3683
253.42        137.8277
253.88        139.8284
254.33        138.6534
254.79        136.0662
255.25        131.9634
255.70         126.796
256.16        122.0794
256.62        118.9165
257.07        118.6517
257.53        121.0594
257.99         124.032
258.44        125.9894
258.90        126.5389
259.35        125.2625
259.81        123.6296
260.27        121.6071
260.72        119.2858
261.18        117.4482
261.63         115.444
262.09        114.0274
262.55        113.2454
263.00        112.7854
263.46        112.7706
263.91        112.4408
264.37        111.4686
264.83        109.7291
265.28        107.4393
265.74        105.1901
266.19        103.2088
266.65        101.7119
267.11        100.4561
267.56        99.28365
268.02        98.13661
268.47        96.89404
268.93        95.63754
269.38        94.35107
269.84        93.07311
270.30        91.78716
270.75        90.46384
271.21        89.06293
271.66        87.44037
272.12        85.63696
272.57        83.64996
273.03        81.70786
273.48        80.01653
273.94        78.71802
274.39        77.66566
274.85        76.77249
275.31        75.71431
275.76        74.40264
276.22        73.02993
276.67        71.65398
277.13        70.58719
277.58        69.75172
278.04        69.11543
278.49        68.45876
278.95        67.70068
279.40        66.70972
279.86        65.65254
280.31        64.48861
280.77        63.38057
281.22        62.29548
281.68        61.31557
282.13        60.39647
282.59        59.62999
283.04        58.94926
283.50        58.38556
283.95        57.87951
284.41        57.44438
284.86        57.03431
285.32        56.70793
285.77        56.38712
286.22        56.06161
286.68        55.74752
287.13        55.37656
287.59         55.0653
288.04        54.86724
288.50        54.83423
288.95        54.89414
289.41        54.95266
289.86        54.77053
290.32        54.37101
290.77        53.81138
291.22        53.30916
291.68        53.16984
292.13        53.43402
292.59         54.0468
293.04        54.81898
293.50        55.50123
293.95        56.01175
294.40        56.44285
294.86        56.95261
295.31        57.76727
295.77        58.94741
296.22        60.39083
296.68         61.9414
297.13        63.31907
297.58        64.45462
298.04        65.43648
298.49        66.39281
298.95        67.59039
299.40        69.06322
299.85        70.73265
300.31        72.48371
300.76         74.0733
301.21        75.43762
301.67        76.67031
302.12        77.78854
302.58        78.93659
303.03        80.11076
303.48         81.3143
303.94        82.59267
304.39        83.90826
304.84        85.28931
305.30        86.75472
305.75        88.23106
306.20        89.71379
306.66        91.20715
307.11        92.64746
307.57        94.04964
308.02        95.30369
308.47        96.41971
308.93        97.43317
309.38        98.33796
309.83        99.24066
310.29        100.1899
310.74        101.1404
311.19        102.0841
311.65        102.9775
312.10        103.7656
312.55        104.4571
313.00        105.0851
313.46        105.7092
313.91        106.3231
314.36        106.9355
314.82        107.4682
315.27        107.7909
315.72        107.9016
316.18        107.8742
316.63        107.8514
317.08        108.0958
317.53        108.6559
317.99        109.4314
318.44        110.2799
318.89        110.9405
319.35        111.3294
319.80        111.5324
320.25        111.6004
320.70        111.6319
321.16        111.6626
321.61        111.6737
322.06        111.7102
322.51        111.8625
322.97        112.1233
323.42        112.5222
323.87        112.9365
324.32        113.1721
324.78         113.171
325.23        113.0284
325.68        112.8571
326.13         112.882
326.59        113.1365
327.04        113.6019
327.49        114.1535
327.94        114.6229
328.39        114.9544
328.85        115.1625
329.30        115.3636
329.75        115.5861
330.20        115.8542
330.66        116.1049
331.11        116.4034
331.56        116.7377
332.01        117.1134
332.46         117.539
332.92        117.9359
333.37        118.3257
333.82        118.6428
334.27        118.8982
334.72        119.1458
335.17        119.4797
335.63        119.8974
336.08        120.4357
336.53        121.0044
336.98        121.4978
337.43        121.8904
337.88        122.2121
338.34        122.5133
338.79        122.9409
339.24         123.496
339.69         124.122
340.14        124.7449
340.59        125.2474
341.05        125.6017
341.50         125.875
341.95        126.0801
342.40        126.2493
342.85        126.4199
343.30        126.5822
343.75        126.8313
344.20        127.3209
344.66        128.0565
345.11        128.9646
345.56        129.8616
346.01        130.4469
346.46        130.6532
346.91        130.5806
347.36        130.3756
347.81        130.2726
348.26         130.344
348.72        130.5163
349.17        130.7533
349.62        131.0219
350.07        131.2808
350.52        131.5421
350.97          131.73
351.42         131.713
351.87        131.4778
352.32        131.0712
352.77        130.5857
353.22        130.1759
353.67        129.8786
354.13        129.6476
354.58        129.4305
355.03        129.2057
355.48        128.9404
355.93        128.6482
356.38        128.2466
356.83        127.5996
357.28        126.7111
357.73        125.6495
358.18        124.5661
358.63        123.6952
359.08        123.0941
359.53        122.6894
359.98        122.3927
360.43        122.0587
360.88        121.6221
361.33        121.1081
361.78        120.5066
362.23        119.7976
362.68        118.9879
363.13         118.098
363.58        117.1593
364.03         116.155
364.48        115.2363
364.93        114.3117
365.38        113.4347
365.83        112.6186
366.28        111.8592
366.73        111.1465
367.18         110.451
367.63        109.7247
368.08        108.9577
368.53        108.1712
368.98        107.3725
369.43        106.5755
369.88        105.7932
370.33        105.0194
370.78        104.2961
371.23        103.6925
371.68        103.2081
372.13        102.8106
372.58        102.4169
373.03        101.8922
373.48        101.2055
373.93        100.4046
374.38        99.55123
374.83        98.74144
375.28        98.01443
375.72        97.33234
376.17        96.73125
376.62        96.19546
377.07         95.7076
377.52        95.24795
377.97        94.80202
378.42        94.34476
378.87        93.86473
379.32        93.38127
379.77        92.84072
380.22        92.15798
380.67        91.33945
381.11        90.42464
381.56        89.56435
382.01        89.01829
382.46        88.84384
382.91        88.96172
383.36        89.18198
383.81        89.20372
384.26        88.94327
384.71        88.47452
385.15        87.91258
385.60        87.50756
386.05        87.29532
386.50        87.19862
386.95        87.10654
387.40        86.85924
387.85         86.4352
388.29        85.86165
388.74        85.33778
389.19        84.93525
389.64         84.6613
390.09        84.44666
390.54        84.24445
390.98        83.96408
391.43        83.64544
391.88        83.33624
392.33        83.00516
392.78        82.63293
393.23        82.25312
393.67        81.72702
394.12        81.28208
394.57        81.35359
395.02        81.68582
395.47        81.71351
395.91        81.36393
396.36        81.14642
396.81        81.08121
397.26        80.85612
397.71        80.51359
398.15        80.27123
398.60        80.23006
399.05        80.14118
399.50        80.03249
399.95        80.19427
400.39        80.49946
400.84        80.34779
401.29        79.77944
401.74        79.26591
402.18        78.94335
402.63        78.79034
403.08        78.76662
403.53        78.63903
403.97        78.39045
404.42        78.23045
404.87        78.15348
405.32        78.09428
405.76        78.03426
406.21        77.90067
406.66        77.72293
407.11        77.73904
407.55        77.86339
408.00        77.66683
408.45        77.18716
408.90        76.58829
409.34        76.07461
409.79        76.14133
410.24        76.63407
410.68        76.80642
411.13        76.58524
411.58        76.41113
412.03        76.35063
412.47        76.32001
412.92        76.31384
413.37        76.37062
413.81        76.43037
414.26        76.46795
414.71        76.45363
415.15        76.41058
415.60        76.35129
416.05        76.36581
416.49        76.47424
416.94        76.63691
417.39        76.78633
417.83        76.81678
418.28        76.70234
418.73        76.46279
419.17        76.19644
419.62        76.06796
420.07        76.12567
420.51        76.31901
420.96        76.54025
421.41         76.6306
421.85        76.53676
422.30        76.18236
422.74        75.73426
423.19        75.95899
423.64        76.67837
424.08        76.88728
424.53        76.50909
424.98        76.37257
425.42        76.49588
425.87        76.82581
426.31        76.22701
426.76        76.48621
427.21        77.07939
427.65        76.95535
428.10        76.25858
428.54        76.08115
428.99         76.5146
429.44        77.08099
429.88        77.50028
430.33        77.41615
430.77        76.86153
431.22        76.39198
431.66        76.16561
432.11        76.29842
432.56        76.79494
433.00        77.31159
433.45        77.48311
433.89        77.46025
434.34        77.38792
434.78        76.51797
435.23        76.30379
435.67        77.08923
436.12        78.13201
436.57        78.28091
437.01        77.40803
437.46        77.48972
437.90        78.00728
438.35        78.41909
438.79         78.4977
439.24        78.53008
439.68        78.55762
440.13        78.53528
440.57        78.50307
441.02        78.70434
441.46        78.98627
441.91        78.74953
442.35        78.12293
442.80        78.14696
443.24        78.79234
443.69         78.9377
444.13        78.59885
444.58        78.68314
445.02        78.93364
445.47        79.15611
445.91        79.23489
446.36        79.29939
446.80        79.31985
447.24        79.30602
447.69        79.32515
448.13        79.19836
448.58        79.43304
449.02        79.38123
449.47        79.24667
449.91        79.22057
450.36        79.33735
450.80        79.44694
451.25        79.52852
451.69        79.60046
452.13        79.63612
452.58        79.56429
453.02        79.43452
453.47        79.32351
453.91        79.22569
454.36        79.30849
454.80        79.46738
455.24         78.8952
455.69        78.44337
456.13        77.98596
456.58        77.87711
457.02         77.8851
457.46          78.258
457.91         78.1597
458.35        77.97727
458.79        77.86704
459.24        77.95519
459.68        77.88139
460.13         77.6372
460.57        77.52159
461.01        77.46702
461.46        76.78217
461.90        76.75273
462.34        76.66108
462.79        77.26658
463.23        77.32983
463.68        76.99007
464.12        76.70591
464.56        76.57894
465.01        76.63358
465.45        76.69495
465.89        76.71349
466.34        76.70266
466.78        76.38788
467.22        75.77269
467.67        76.36124
468.11        75.68768
468.55        75.69038
468.99        75.62843
469.44        75.61308
469.88        75.62288
470.32        75.64077
470.77        75.66135
471.21        75.62988
471.65        75.54053
472.10        75.43233
472.54        75.27005
472.98        75.10202
473.42        74.95676
473.87        74.66392
474.31        74.30027
474.75        74.51292
475.20        75.07439
475.64        74.95309
476.08        74.25475
476.52        73.97151
476.97        74.12323
477.41        74.60618
477.85        74.09653
478.29        74.55027
478.74        74.51004
479.18        73.75264
479.62        74.45556
480.06        74.42234
480.50        74.40359
480.95        74.39069
481.39        74.33548
481.83         74.6667
482.27        74.16013
482.72        74.27949
483.16        74.32951
483.60        73.86119
484.04         73.9418
484.48        73.89671
484.93        74.38467
485.37        73.78172
485.81        74.33836
486.25        75.17423
486.69        75.65643
487.14        74.53209
487.58        74.10577
488.02        74.34792
488.46        74.41346
488.90        74.02428
489.34        73.55473
489.79        73.12985
490.23        73.36663
490.67         73.4059
491.11        73.32957
491.55        73.25746
491.99         73.1902
492.43        73.14616
492.88        73.11465
493.32        73.06808
493.76        73.01015
494.20        73.01792
494.64        73.10323
495.08        73.21681
495.52        73.33353
495.96        73.43316
496.41        73.45364
496.85        73.32645
497.29        73.12617
497.73        72.83512
498.17        73.01339
498.61        73.03378
499.05        73.01276
499.49        72.83418
499.93        72.57872
500.37        72.51494
500.82        72.64156
501.26        72.41175
501.70         73.1487
502.14        72.24195
502.58        72.66053
503.02        72.70566
503.46        72.90359
503.90        72.37141
504.34        72.72423
504.78        72.67052
505.22        72.65987
505.66         72.5658
506.10        72.44501
506.54        72.40012
506.98        72.41172
507.42        72.64591
507.86        72.65173
508.30        72.71078
508.74        72.68589
509.18        72.60106
509.62        72.47746
510.06        72.35847
510.50        72.26717
510.94        72.19317
511.38        72.13903
511.82        72.11211
512.26        72.11662
512.70         72.1246
513.14        72.11495
513.58        72.17419
514.02         72.3239
514.46        72.19023
514.90        72.18082
515.34        72.42657
515.78        72.14362
516.22        72.06832
516.66        71.99207
517.10        72.03143
517.54        72.18201
517.98        72.41859
518.42        72.66323
518.86        72.73874
519.30        72.61093
519.74        72.41488
520.18        72.20722
520.62        71.90031
521.06        71.61652
521.50        71.72385
521.93        72.13996
522.37        72.36179
522.81         72.3373
523.25         72.3231
523.69        72.34006
524.13        72.31094
524.57        72.24684
525.01        72.16872
525.45        72.07674
525.89        71.97671
526.32        71.87227
526.76        71.77894
527.20         71.7222
527.64        71.74863
528.08        71.85764
528.52         72.0246
528.96        72.19685
529.40        72.29337
529.83        72.28689
530.27         72.2146
530.71        72.10043
531.15        71.99518
531.59        71.92023
532.03        71.86486
532.46        71.82598
532.90        71.82159
533.34        71.84241
533.78        71.88351
534.22        71.93233
534.66        71.96655
535.09         71.9696
535.53        71.96835
535.97        71.94219
536.41        71.87829
536.85        71.78127
537.28        71.65947
537.72        71.55186
538.16        71.51118
538.60        71.54872
539.04        71.66091
539.47        71.78084
539.91        71.84556
540.35        71.82127
540.79         71.7457
541.22        71.64381
541.66         71.5665
542.10        71.52797
542.54        71.51115
542.97        71.50771
543.41        71.54678
543.85        71.61093
544.29        71.70012
544.72        71.77122
545.16        71.79158
545.60        71.73798
546.04         71.6181
546.47        71.47505
546.91        71.38358
547.35        71.35137
547.79        71.39064
548.22         71.4394
548.66        71.36249
549.10        71.19334
549.53        71.21478
549.97        71.40655
550.41        71.49204
550.84        71.44221
551.28        71.42007
551.72        71.44704
552.15        71.41766
552.59        71.34272
553.03        71.52109
553.46        71.39839
553.90        71.43144
554.34        71.45025
554.77         71.4005
555.21        71.30633
555.65        71.38077
556.08        71.48447
556.52        71.41286
556.96        71.17423
557.39        71.05171
557.83         71.0877
558.27        71.13845
558.70        71.18545
559.14        71.22339
559.57        71.21896
560.01        71.28732
560.45        71.38612
560.88        71.25971
561.32        71.03855
561.75        71.09798
562.19        71.40112
562.63        71.48207
563.06        71.32071
563.50        71.20689
563.93        71.15503
564.37        71.11343
564.80        71.07227
565.24         71.1052
565.68        71.19312
566.11        71.26583
566.55        71.33566
566.98        71.42422
567.42        71.51608
567.85        71.48409
568.29        71.40252
568.72        71.28948
569.16        71.22796
569.60        71.30379
570.03        71.52563
570.47        71.38212
570.90        71.74379
571.34        71.74891
571.77        71.88548
572.21        71.56511
572.64        71.52364
573.08        71.36495
573.51        71.11392
573.95        71.41706
574.38        71.96342
574.82         71.6892
