SpectraSmart Spectrum 2.9.0.0
--------- Device Information -----------
Spectrum Name :  反射率_0
Saving Time :  2024/04/27 23:46:18
Spectro-Module Model Name : SE2030-DUVN
Spectro-Module Serial Number : OS361AC55029948
Wavelength Start : 200
Wavelength End : 1025
Wavelength Unit : Wavelength(nm)
Spectrum Unit : Reflectance(%)
-----------Spectrum Setting ------------
Integration Time : 20ms
Average : 10
Boxcar : 0
Background removal :  enabled
linearity correction :  enabled
SC :  disabled
Intensity correction :  disabled
DWT denoise :  enabled
savitzky-golay :  disabled
FFT :  disabled
Running average :  disabled
Kalman :  disabled
High pass :  disabled
---------------BEGIN--------------------
Wavelength(nm)             Reflectance(%)
200.29               0
200.75        127.7575
201.21         140.047
201.67        144.0066
202.13        138.8492
202.58        127.7001
203.04        113.5037
203.50        100.5083
203.96        96.17964
204.42        100.4603
204.88        108.6316
205.34        117.4329
205.80         124.918
206.26        131.6194
206.72        139.9441
207.18        149.3643
207.64        151.2721
208.10         142.274
208.55        130.0058
209.01        121.0402
209.47        115.9896
209.93        112.8765
210.39        110.3876
210.85        108.4391
211.31        114.3861
211.77        121.9792
212.23        122.3066
212.69        122.2116
213.14        123.6619
213.60        126.1964
214.06        130.8951
214.52        136.6304
214.98        134.2366
215.44        121.6567
215.90        108.8794
216.36        101.5075
216.81        100.2224
217.27        103.1415
217.73        108.9971
218.19        115.5342
218.65        118.7483
219.11        117.3623
219.57        112.1914
220.02        105.0796
220.48        101.7471
220.94        103.9952
221.40        109.2207
221.86        114.5842
222.32        117.5287
222.77         117.737
223.23        116.3803
223.69        114.1803
224.15        111.7004
224.61        108.9794
225.06        105.7337
225.52        101.9659
225.98        98.00975
226.44        94.88167
226.90        92.89983
227.36        92.12907
227.81        92.42709
228.27        93.72274
228.73        95.76214
229.19        98.15576
229.65        99.94575
230.10        100.5634
230.56        100.4741
231.02        99.79034
231.48        98.88749
231.93        97.90508
232.39        96.97279
232.85        96.37537
233.31          96.663
233.77          97.799
234.22        99.56874
234.68        101.4646
235.14        102.7274
235.60        103.2996
236.05        103.5248
236.51        103.7195
236.97        104.6986
237.43        106.6488
237.88        109.1601
238.34        111.8533
238.80        115.2732
239.26        120.0415
239.71        127.9368
240.17        138.4984
240.63        144.5756
241.08        139.5049
241.54        127.8341
242.00        118.2067
242.46        114.4204
242.91        115.9472
243.37        123.4518
243.83        141.4611
244.28        166.0058
244.74        169.3648
245.20        151.0262
245.66        133.2355
246.11        125.5102
246.57        125.4384
247.03        130.1212
247.48        141.3196
247.94        156.7719
248.40        168.3424
248.85        175.9179
249.31        176.9681
249.77        169.4488
250.22        157.5295
250.68        144.6197
251.14        135.1221
251.59        133.2251
252.05        139.1032
252.51        152.8042
252.96        172.5594
253.42        184.6745
253.88        180.1491
254.33        166.2585
254.79        153.8589
255.25        147.4884
255.70        145.4476
256.16        145.9812
256.62        147.3768
257.07        148.1925
257.53        149.0067
257.99         149.572
258.44        149.2967
258.90        148.7386
259.35        147.2301
259.81         145.743
260.27        144.1128
260.72         142.372
261.18        141.2034
261.63        139.7772
262.09        138.5874
262.55        137.1828
263.00        135.3139
263.46        133.4539
263.91        131.2201
264.37        128.9393
264.83        126.5801
265.28        124.1356
265.74        121.9795
266.19        119.9669
266.65        118.2652
267.11        116.7133
267.56         115.275
268.02        114.0943
268.47        113.0556
268.93        112.1385
269.38        111.1427
269.84        109.8583
270.30         108.223
270.75        106.3139
271.21         104.259
271.66        102.1528
272.12         100.108
272.57        98.02767
273.03        96.08967
273.48        94.40199
273.94        93.06868
274.39        91.95517
274.85        90.93902
275.31        89.60326
275.76        87.86409
276.22        85.97798
276.67        84.07938
277.13        82.63697
277.58        81.58202
278.04        80.84496
278.49        80.14848
278.95        79.35937
279.40        78.30336
279.86        77.17648
280.31        75.89955
280.77        74.61351
281.22        73.27559
281.68        71.99584
282.13        70.76572
282.59        69.76279
283.04        68.91888
283.50        68.26039
283.95        67.67789
284.41        67.12714
284.86        66.54939
285.32        66.04253
285.77        65.56796
286.22        65.18867
286.68        64.93066
287.13        64.68426
287.59        64.52486
288.04        64.43353
288.50        64.44264
288.95        64.48129
289.41        64.48594
289.86        64.24653
290.32        63.80932
290.77         63.2348
291.22        62.71421
291.68        62.50722
292.13        62.66095
292.59        63.15386
293.04        63.89191
293.50        64.77706
293.95         65.7369
294.40        66.79637
294.86        67.97769
295.31        69.29741
295.77        70.75382
296.22        72.28762
296.68        73.81973
297.13        75.19727
297.58        76.39858
298.04        77.49463
298.49         78.5669
298.95        79.82807
299.40          81.307
299.85        82.96323
300.31        84.76964
300.76        86.60249
301.21        88.40554
301.67         90.2196
302.12        91.91994
302.58        93.47128
303.03        94.82285
303.48        96.04129
303.94        97.28812
304.39        98.68522
304.84        100.3014
305.30        102.1008
305.75        103.9179
306.20        105.6319
306.66        107.2256
307.11        108.6776
307.57        110.0632
308.02        111.3419
308.47        112.5454
308.93        113.6781
309.38        114.7045
309.83        115.7117
310.29        116.7399
310.74        117.7562
311.19         118.738
311.65        119.6101
312.10        120.3212
312.55        120.8971
313.00        121.4268
313.46        122.0562
313.91        122.7902
314.36        123.6089
314.82        124.3798
315.27        124.8846
315.72         125.088
316.18         125.081
316.63        125.0214
317.08        125.2054
317.53         125.693
317.99        126.3722
318.44        127.0975
318.89        127.6024
319.35        127.8119
319.80        127.8352
320.25        127.7415
320.70        127.6514
321.16        127.6082
321.61        127.5872
322.06        127.6395
322.51        127.8654
322.97        128.2443
323.42        128.7976
323.87         129.353
324.32        129.6413
324.78        129.5827
325.23        129.2958
325.68        128.9366
326.13        128.8118
326.59        128.9794
327.04         129.409
327.49        129.9488
327.94        130.3873
328.39        130.6548
328.85        130.7772
329.30        130.8977
329.75         131.058
330.20        131.2911
330.66        131.5241
331.11        131.8223
331.56        132.1616
332.01        132.5442
332.46        132.9784
332.92        133.3836
333.37        133.8025
333.82        134.1587
334.27        134.4517
334.72          134.72
335.17        135.0341
335.63        135.3842
336.08        135.8293
336.53        136.2791
336.98        136.6371
337.43        136.8861
337.88        137.0509
338.34        137.2214
338.79        137.6124
339.24        138.2336
339.69        139.0251
340.14        139.8244
340.59        140.3667
341.05        140.5995
341.50        140.6275
341.95           140.6
342.40        140.7729
342.85        141.2146
343.30        141.8255
343.75        142.5307
344.20        143.2108
344.66         143.806
345.11        144.3421
345.56        144.7538
346.01        144.9317
346.46        144.8793
346.91        144.6384
347.36        144.3536
347.81        144.2542
348.26        144.3905
348.72        144.7001
349.17        145.0659
349.62        145.3207
350.07        145.3988
350.52        145.3417
350.97        145.1798
351.42        144.9607
351.87        144.7135
352.32        144.4353
352.77        144.1149
353.22         143.744
353.67        143.3199
354.13        142.8441
354.58        142.3549
355.03        141.9769
355.48        141.7077
355.93        141.5053
356.38          141.19
356.83        140.4803
357.28        139.3491
357.73         137.919
358.18        136.4293
358.63         135.246
359.08        134.4635
359.53        133.9733
359.98        133.6247
360.43        133.1753
360.88         132.535
361.33        131.7591
361.78        130.8996
362.23        130.0289
362.68        129.1695
363.13        128.3135
363.58        127.4156
364.03        126.2954
364.48        125.1549
364.93        123.8841
365.38        122.6368
365.83        121.5448
366.28        120.6381
366.73        119.8744
367.18        119.1653
367.63        118.3704
368.08        117.4526
368.53        116.4544
368.98        115.4373
369.43        114.5021
369.88        113.6752
370.33        112.9187
370.78        112.1943
371.23        111.4434
371.68        110.6469
372.13        109.8293
372.58        109.0066
373.03        108.2044
373.48        107.4355
373.93        106.6899
374.38        105.9742
374.83        105.2966
375.28        104.6525
375.72        104.0231
376.17        103.4157
376.62        102.7664
377.07         102.066
377.52        101.3174
377.97        100.5724
378.42        99.91696
378.87        99.36517
379.32        98.89791
379.77        98.43335
380.22        97.83691
380.67        97.09074
381.11         96.2532
381.56        95.42857
382.01        94.80275
382.46        94.43036
382.91        94.25061
383.36        94.17547
383.81        94.06683
384.26         93.8669
384.71        93.59813
385.15        93.25824
385.60        92.91007
386.05        92.54855
386.50        92.16322
386.95        91.73722
387.40         91.2616
387.85        90.75278
388.29        90.17404
388.74        89.68619
389.19        89.30128
389.64        89.00785
390.09        88.76115
390.54        88.49755
390.98        88.12315
391.43        87.69901
391.88        87.19958
392.33        86.63965
392.78        86.32717
393.23        86.23757
393.67          85.634
394.12        84.76343
394.57        85.22461
395.02        85.54121
395.47        85.44558
395.91        84.61808
396.36        84.22655
396.81        84.32525
397.26        84.30168
397.71        84.10749
398.15        83.89591
398.60        83.74126
399.05        83.45547
399.50        83.13497
399.95         83.0593
400.39        83.15567
400.84        83.05459
401.29        82.70333
401.74        82.09395
402.18        81.38881
402.63        81.04388
403.08        81.05642
403.53        80.91393
403.97        80.60696
404.42        80.50742
404.87        80.57916
405.32        80.64388
405.76        80.66229
406.21        80.54967
406.66        80.35225
407.11        80.41137
407.55        80.60664
408.00        80.33138
408.45        79.63657
408.90        78.82489
409.34        78.15861
409.79        78.17886
410.24        78.69436
410.68        78.82524
411.13        78.48863
411.58        78.20368
412.03        78.08453
412.47        78.09275
412.92        78.22412
413.37        78.48248
413.81         78.7326
414.26        78.84335
414.71        78.76318
415.15        78.55449
415.60         78.2647
416.05        78.05347
416.49        77.98069
416.94        77.99225
417.39        78.05215
417.83        78.10001
418.28        78.10365
418.73        78.06496
419.17        78.00789
419.62        77.97191
420.07        77.97671
420.51        78.01017
420.96        78.02122
421.41        77.94817
421.85        77.77196
422.30        77.37579
422.74        76.91446
423.19        77.18612
423.64        77.99474
424.08        78.19266
424.53        77.70372
424.98        77.58252
425.42        77.88058
425.87          77.892
426.31        77.65408
426.76        77.66059
427.21        77.86734
427.65         77.8904
428.10        77.74091
428.54        77.69807
428.99        77.79067
429.44        77.97961
429.88        78.13729
430.33        77.95184
430.77        77.49397
431.22         77.3909
431.66        77.62061
432.11        77.80327
432.56        77.98799
433.00        78.18313
433.45        78.14928
433.89        78.43214
434.34        79.00038
434.78        77.45381
435.23        76.98945
435.67        77.20408
436.12         78.8804
436.57        79.10134
437.01        78.01601
437.46        78.04773
437.90        78.43999
438.35        78.92928
438.79        78.72689
439.24        78.73803
439.68        78.83478
440.13         78.8889
440.57        78.93063
441.02        79.16885
441.46        79.46847
441.91        79.40607
442.35        79.00401
442.80         78.9642
443.24        79.21005
443.69        79.24803
444.13        79.07983
444.58        79.07693
445.02        79.22378
445.47        79.38216
445.91        79.49244
446.36        79.58282
446.80        79.62797
447.24        79.54826
447.69        79.43713
448.13        79.60467
448.58        79.97762
449.02        80.04742
449.47         79.8454
449.91        79.78167
450.36        79.88664
450.80        79.88091
451.25        79.78654
451.69        79.74339
452.13        79.74737
452.58        79.69572
453.02        79.58266
453.47        79.46387
453.91        79.33871
454.36        79.24152
454.80        79.10565
455.24        78.83465
455.69        78.50269
456.13        78.06384
456.58        77.70097
457.02        77.86269
457.46        78.25796
457.91         78.4053
458.35        77.98106
458.79          77.775
459.24        77.74033
459.68        77.49603
460.13        77.10265
460.57        76.74572
461.01        76.86845
461.46        76.38523
461.90        76.30416
462.34        76.67935
462.79        76.82809
463.23        76.71818
463.68         76.2039
464.12        76.11173
464.56        76.42116
465.01        76.57713
465.45        76.41042
465.89        76.36854
466.34        76.47199
466.78         76.0133
467.22        75.03557
467.67        75.80318
468.11        75.15851
468.55        75.28127
468.99         75.2043
469.44        75.22669
469.88        75.31669
470.32        75.36791
470.77        75.36937
471.21        75.29346
471.65        75.13599
472.10        74.92118
472.54        74.67229
472.98        74.49303
473.42         74.4128
473.87        74.34751
474.31         74.2594
474.75        74.38683
475.20        74.61021
475.64        74.44546
476.08        73.98932
476.52        73.80894
476.97        73.91604
477.41        73.92168
477.85        74.27408
478.29        73.77699
478.74        73.98164
479.18        73.53458
479.62        73.75574
480.06         73.7025
480.50        73.62477
480.95        73.62981
481.39        73.66566
481.83        73.74448
482.27        73.33228
482.72        73.66651
483.16        73.64331
483.60        73.18337
484.04        73.40971
484.48        73.25441
484.93           73.42
485.37        73.18074
485.81        74.16402
486.25        74.25892
486.69        74.83714
487.14         73.6452
487.58        72.96598
488.02        74.00786
488.46        73.55717
488.90        73.29022
489.34        72.95133
489.79        72.18391
490.23        72.96002
490.67        72.88563
491.11        72.52924
491.55        72.33727
491.99        72.35136
492.43        72.34579
492.88        72.29892
493.32        72.33855
493.76        72.41107
494.20        72.47932
494.64        72.55293
495.08        72.49718
495.52        72.36437
495.96        72.60667
496.41        73.07748
496.85        72.85912
497.29        72.10484
497.73        72.02846
498.17        72.48296
498.61        72.66729
499.05        72.44795
499.49        72.27342
499.93        72.21524
500.37         72.0588
500.82        71.81667
501.26        71.91763
501.70        72.43011
502.14        71.68955
502.58        72.25378
503.02         72.2567
503.46         72.1477
503.90        72.04157
504.34        71.88874
504.78        71.80666
505.22        71.76976
505.66        71.64254
506.10        71.45383
506.54        71.43334
506.98        71.60293
507.42        71.54904
507.86        71.79088
508.30        71.81055
508.74        71.76302
509.18        71.65262
509.62        71.51401
510.06        71.39381
510.50         71.3082
510.94        71.24708
511.38        71.22546
511.82        71.26622
512.26        71.36285
512.70        71.51048
513.14        71.66035
513.58        71.70332
514.02        71.61833
514.46        71.48604
514.90        71.37512
515.34         71.1477
515.78        71.24031
516.22        71.28973
516.66        71.38895
517.10        71.47923
517.54        71.53974
517.98        71.58038
518.42        71.58298
518.86        71.52203
519.30        71.39884
519.74        71.24359
520.18        71.09231
520.62         70.9543
521.06        70.87183
521.50        70.94518
521.93        71.12906
522.37        71.23619
522.81        71.24403
523.25        71.22568
523.69        71.22504
524.13        71.28404
524.57        71.41039
525.01        71.58429
525.45        71.73596
525.89        71.75966
526.32        71.63335
526.76        71.40826
527.20         71.1676
527.64        71.05215
528.08        71.09253
528.52        71.24001
528.96        71.41995
529.40        71.51406
529.83        71.48381
530.27        71.38398
530.71        71.24347
531.15        71.11651
531.59        71.02483
532.03         70.9485
532.46        70.88762
532.90        70.86878
533.34         70.8836
533.78        70.92937
534.22        70.97906
534.66        70.98515
535.09        70.93305
535.53        70.86283
535.97        70.78384
536.41        70.72892
536.85        70.70674
537.28        70.70506
537.72        70.73618
538.16        70.78993
538.60        70.85593
539.04        71.00326
539.47        71.15713
539.91        71.10704
540.35        70.89217
540.79        70.85858
541.22         70.9794
541.66          70.953
542.10        70.77381
542.54        70.62476
542.97        70.53335
543.41         70.4996
543.85        70.51991
544.29        70.60092
544.72        70.68983
545.16        70.73951
545.60        70.72112
546.04        70.64024
546.47        70.53762
546.91        70.49825
547.35        70.52876
547.79         70.5992
548.22        70.64445
548.66        70.61412
549.10         70.5079
549.53        70.41462
549.97        70.36584
550.41        70.39604
550.84        70.48913
551.28        70.50043
551.72        70.43664
552.15         70.5108
552.59        70.67768
553.03        70.58768
553.46        70.28543
553.90        70.16609
554.34        70.24094
554.77        70.30732
555.21         70.3339
555.65        70.40051
556.08        70.46628
556.52        70.36919
556.96        70.17263
557.39        70.20302
557.83        70.44015
558.27        70.50028
558.70        70.36557
559.14        70.29577
559.57        70.29961
560.01        70.21526
560.45        70.07554
560.88        70.03816
561.32         70.1325
561.75        70.17401
562.19        70.17329
562.63        70.18765
563.06        70.19631
563.50        70.13627
563.93        70.02267
564.37        69.98489
564.80        70.01919
565.24        70.13889
565.68        70.27961
566.11        70.35169
566.55        70.36887
566.98        70.26768
567.42        70.13242
567.85        70.22194
568.29        70.51203
568.72        70.46554
569.16        70.16968
569.60        70.19382
570.03        70.55492
570.47         70.4332
570.90        70.50863
571.34        70.86189
571.77        70.83955
572.21        70.64413
572.64         70.8645
573.08        70.50393
573.51        70.49222
573.95        70.47768
574.38         70.5932
574.82         70.7462
