SpectraSmart Spectrum 2.9.0.0
--------- Device Information -----------
Spectrum Name :  反射率_0
Saving Time :  2024/04/28 00:08:28
Spectro-Module Model Name : SE2030-DUVN
Spectro-Module Serial Number : OS361AC55029948
Wavelength Start : 200
Wavelength End : 1025
Wavelength Unit : Wavelength(nm)
Spectrum Unit : Reflectance(%)
-----------Spectrum Setting ------------
Integration Time : 20ms
Average : 10
Boxcar : 0
Background removal :  enabled
linearity correction :  enabled
SC :  disabled
Intensity correction :  disabled
DWT denoise :  enabled
savitzky-golay :  disabled
FFT :  disabled
Running average :  disabled
Kalman :  disabled
High pass :  disabled
---------------BEGIN--------------------
Wavelength(nm)             Reflectance(%)
200.29               0
200.75        71.29818
201.21        109.2932
201.67        129.6414
202.13         130.615
202.58        119.7878
203.04        103.0549
203.50         85.3158
203.96        75.13403
204.42        73.95274
204.88        77.20812
205.34          82.794
205.80        89.89055
206.26        98.96842
206.72        113.0323
207.18        131.2429
207.64        136.9711
208.10        122.1529
208.55        101.2209
209.01         85.0518
209.47        74.22512
209.93        64.12421
210.39        46.69257
210.85        2.063226
211.31       -42.89176
211.77        26.17699
212.23        67.68941
212.69        81.60584
213.14        85.52103
213.60        84.25252
214.06        78.66705
214.52        66.91326
214.98        55.12998
215.44        53.73014
215.90        57.69166
216.36        62.41098
216.81        66.13607
217.27        68.93749
217.73        71.91707
218.19        73.95813
218.65        72.62887
219.11        67.37284
219.57        58.42232
220.02          47.783
220.48        42.48169
220.94        44.67345
221.40        51.35639
221.86        59.33802
222.32        65.44485
222.77        69.13086
223.23        71.45366
223.69        72.14363
224.15        70.65005
224.61        67.24859
225.06        61.91025
225.52        56.58381
225.98         54.8997
226.44        57.03256
226.90         60.7023
227.36        63.84501
227.81        64.83022
228.27        63.80124
228.73        61.36275
229.19        57.80056
229.65        53.94371
230.10        50.46497
230.56        47.60377
231.02        45.65051
231.48        45.00471
231.93        45.49862
232.39        47.01983
232.85        49.11707
233.31        51.16899
233.77        52.92561
234.22        54.50105
234.68        55.69461
235.14        56.40584
235.60        56.67785
236.05        56.43788
236.51        56.10903
236.97        56.53727
237.43        57.97943
237.88         60.3943
238.34        62.71569
238.80        64.15551
239.26        64.59441
239.71        63.99671
240.17        62.77162
240.63        63.68662
241.08        67.95702
241.54        72.74236
242.00        75.95808
242.46        77.23074
242.91        77.15372
243.37        75.45649
243.83        71.59904
244.28        68.28894
244.74        71.98547
245.20        79.97776
245.66        85.88898
246.11         88.9277
246.57        90.68112
247.03        92.05683
247.48        93.01523
247.94        92.66972
248.40        90.93555
248.85        88.66514
249.31        87.93596
249.77        90.11978
250.22        93.95058
250.68        98.03394
251.14        101.3546
251.59        103.3266
252.05        104.1752
252.51        103.9641
252.96         101.642
253.42        96.58418
253.88        90.38943
254.33        85.26447
254.79        82.44699
255.25        80.91929
255.70        79.94424
256.16        79.89577
256.62        80.67379
257.07        82.24956
257.53        84.43386
257.99        86.20821
258.44        86.81208
258.90         86.1946
259.35        84.17589
259.81        81.75779
260.27        79.02923
260.72         76.1992
261.18        73.87263
261.63        71.67264
262.09        69.98228
262.55        68.71227
263.00        67.66389
263.46        66.92695
263.91        66.20188
264.37        65.51514
264.83        64.75185
265.28        63.91029
265.74        63.04857
266.19        61.95695
266.65        60.73366
267.11        59.36311
267.56        57.99209
268.02        56.97938
268.47        56.32991
268.93        55.95752
269.38        55.64601
269.84         55.0919
270.30        54.20441
270.75        53.07425
271.21         51.8165
271.66        50.55416
272.12        49.36704
272.57        48.17136
273.03        47.02342
273.48        45.91835
273.94        44.92287
274.39        44.01797
274.85        43.20766
275.31        42.37498
275.76        41.48467
276.22        40.60529
276.67        39.76514
277.13        39.13233
277.58        38.65329
278.04        38.31933
278.49        37.95992
278.95         37.4673
279.40        36.76281
279.86        35.96806
280.31        35.14264
280.77        34.51115
281.22        34.06594
281.68        33.79985
282.13        33.58468
282.59        33.31096
283.04        32.92837
283.50        32.49792
283.95        32.09491
284.41         31.8805
284.86        31.85759
285.32         31.9978
285.77        32.15101
286.22        32.15547
286.68        31.99983
287.13        31.69343
287.59        31.40994
288.04        31.32689
288.50        31.50331
288.95        31.83923
289.41        32.18404
289.86        32.25521
290.32        32.04427
290.77        31.65262
291.22        31.29218
291.68        31.26491
292.13        31.63186
292.59        32.32354
293.04        33.19774
293.50         34.0591
293.95        34.84006
294.40        35.61731
294.86        36.47963
295.31        37.55135
295.77        38.86983
296.22        40.36275
296.68        41.95931
297.13        43.52091
297.58        45.00549
298.04        46.45189
298.49          47.897
298.95        49.44864
299.40        51.12992
299.85        52.91583
300.31        54.80178
300.76        56.71716
301.21         58.6291
301.67        60.56018
302.12        62.43563
302.58        64.23995
303.03         65.9495
303.48        67.61324
303.94        69.33921
304.39        71.19902
304.84        73.23704
305.30        75.42564
305.75        77.65556
306.20        79.85987
306.66        82.01778
307.11        84.08118
307.57        86.07272
308.02        87.89951
308.47        89.57249
308.93        91.12366
309.38        92.52977
309.83        93.87107
310.29        95.20423
310.74         96.5001
311.19        97.81183
311.65        99.18546
312.10        100.5744
312.55        101.9542
313.00        103.2632
313.46        104.4195
313.91        105.3866
314.36         106.205
314.82        106.8868
315.27         107.451
315.72        107.9235
316.18        108.3259
316.63        108.7002
317.08        109.1532
317.53        109.7044
317.99        110.3171
318.44        110.9479
318.89        111.4892
319.35        111.9079
319.80        112.2512
320.25        112.5206
320.70        112.7296
321.16        112.8892
321.61        113.0136
322.06        113.1727
322.51        113.4931
322.97        113.9732
323.42        114.6123
323.87        115.2715
324.32        115.7386
324.78        115.9401
325.23        115.9748
325.68        115.9307
326.13         115.994
326.59        116.1973
327.04        116.5389
327.49        116.9452
327.94        117.3341
328.39        117.6756
328.85        117.9674
329.30        118.2926
329.75        118.6064
330.20        118.9112
330.66        119.1703
331.11        119.4714
331.56        119.8359
332.01        120.2838
332.46        120.8065
332.92        121.3276
333.37        121.8824
333.82        122.3911
334.27        122.8465
334.72        123.2678
335.17        123.6939
335.63        124.1066
336.08        124.5653
336.53        124.9867
336.98        125.2839
337.43        125.4553
337.88        125.5395
338.34        125.6502
338.79        126.0288
339.24        126.6988
339.69         127.592
340.14        128.5472
340.59        129.2998
341.05        129.7755
341.50        130.0554
341.95        130.2435
342.40        130.5288
342.85        130.9678
343.30        131.4909
343.75         132.047
344.20        132.5581
344.66        132.9973
345.11        133.3947
345.56        133.7413
346.01         134.009
346.46        134.2059
346.91        134.3428
347.36         134.476
347.81        134.6973
348.26        135.0203
348.72        135.4125
349.17         135.812
349.62        136.1447
350.07         136.372
350.52        136.5064
350.97        136.5443
351.42        136.4813
351.87        136.3342
352.32        136.1233
352.77        135.8701
353.22        135.6114
353.67        135.3565
354.13        135.0931
354.58        134.8273
355.03        134.6334
355.48        134.4936
355.93        134.3748
356.38        134.1326
356.83        133.5413
357.28        132.5834
357.73        131.3667
358.18        130.0806
358.63         129.013
359.08        128.2525
359.53        127.7267
359.98         127.354
360.43        126.9998
360.88        126.5938
361.33        126.1434
361.78        125.6453
362.23        125.0854
362.68        124.4513
363.13        123.7564
363.58        122.9454
364.03        121.8447
364.48        120.6399
364.93        119.2588
365.38        117.9096
365.83        116.8285
366.28        116.0643
366.73        115.5428
367.18        115.1208
367.63        114.5607
368.08        113.7957
368.53        112.9031
368.98        111.9511
369.43        111.0525
369.88         110.252
370.33        109.5053
370.78        108.8259
371.23        108.2434
371.68        107.7462
372.13        107.3246
372.58        106.9112
373.03         106.391
373.48        105.7362
373.93         104.976
374.38        104.1646
374.83        103.3914
375.28        102.6856
375.72        102.0071
376.17         101.374
376.62         100.739
377.07        100.0905
377.52        99.43437
377.97        98.79061
378.42        98.18638
378.87        97.62852
379.32        97.12075
379.77        96.61317
380.22        96.02344
380.67        95.34554
381.11        94.61216
381.56         93.9202
382.01        93.44493
382.46        93.22055
382.91        93.17932
383.36        93.19443
383.81        93.06817
384.26        92.74204
384.71        92.27142
385.15        91.70207
385.60        91.17324
386.05         90.7086
386.50        90.27679
386.95        89.87341
387.40        89.50178
387.85        89.16122
388.29        88.80475
388.74        88.52174
389.19        88.22734
389.64        87.90154
390.09        87.52843
390.54        87.12022
390.98        86.71526
391.43        86.39643
391.88        86.07352
392.33        85.69692
392.78        85.49828
393.23        85.41056
393.67        84.71959
394.12        83.72845
394.57        84.02753
395.02        84.24796
395.47        84.37619
395.91        83.98647
396.36        83.77959
396.81         83.7545
397.26        83.53797
397.71        83.16117
398.15        82.79388
398.60        82.54253
399.05        82.24829
399.50         81.9652
399.95        81.86337
400.39        81.89973
400.84        81.81545
401.29        81.57036
401.74        81.19685
402.18        80.76291
402.63        80.40131
403.08        80.16964
403.53        79.97459
403.97        79.82952
404.42        79.86548
404.87        79.98502
405.32        79.99084
405.76        79.83442
406.21        79.53609
406.66        79.20399
407.11        79.08666
407.55        79.18846
408.00         79.2914
408.45         79.3086
408.90        78.99493
409.34        78.45771
409.79        78.28449
410.24        78.44987
410.68        78.45587
411.13        78.28574
411.58        78.26423
412.03        78.36488
412.47        78.38583
412.92         78.2802
413.37        78.12775
413.81        77.96118
414.26        77.88764
414.71        77.90319
415.15        77.99323
415.60          78.078
416.05         78.0945
416.49        78.02737
416.94        77.89072
417.39        77.73554
417.83        77.63037
418.28         77.5928
418.73        77.59892
419.17        77.62688
419.62        77.64516
420.07        77.64424
420.51        77.62481
420.96         77.6144
421.41        77.60574
421.85        77.56764
422.30        77.51883
422.74        77.44026
423.19        77.49504
423.64        77.63678
424.08        77.72723
424.53        77.67652
424.98         77.6497
425.42        77.67567
425.87        77.51675
426.31        77.27308
426.76        77.44164
427.21        77.90356
427.65         77.8931
428.10        77.46583
428.54        77.36103
428.99        77.63566
429.44         77.9237
429.88        78.08963
430.33        78.02215
430.77        77.72507
431.22        77.59731
431.66        77.65056
432.11        77.73482
432.56        77.92448
433.00        78.08071
433.45        77.94446
433.89        78.21114
434.34        78.87029
434.78        77.33307
435.23        76.73006
435.67        77.47911
436.12        78.43479
436.57        78.85998
437.01        78.32033
437.46        78.00836
437.90        78.44089
438.35        79.04275
438.79        78.62035
439.24        78.55501
439.68        78.52808
440.13        78.40953
440.57        78.31328
441.02        78.81252
441.46        79.62708
441.91        79.70712
442.35        79.14778
442.80        78.90281
443.24        79.52713
443.69        79.52995
444.13        79.13107
444.58        79.01453
445.02        79.17937
445.47        79.35852
445.91        79.49713
446.36        79.61062
446.80        79.64593
447.24        79.67709
447.69        79.80183
448.13        79.61887
448.58        80.05721
449.02        80.10488
449.47        79.63951
449.91        79.54053
450.36        79.71054
450.80        79.85107
451.25        79.91119
451.69        79.94981
452.13        79.94139
452.58        79.80708
453.02        79.60088
453.47        79.43845
453.91        79.32642
454.36        79.36041
454.80        79.43507
455.24        79.06145
455.69        78.50088
456.13         78.1721
456.58        78.26624
457.02        78.17194
457.46        78.15064
457.91        78.68665
458.35        77.89702
458.79        77.79031
459.24        77.79313
459.68        77.70571
460.13        77.55357
460.57        77.28803
461.01        77.30196
461.46        77.26868
461.90        76.94867
462.34        77.33148
462.79         77.1731
463.23        77.29496
463.68        77.29131
464.12        77.07001
464.56        76.74287
465.01        76.63809
465.45         76.6311
465.89        76.74509
466.34        76.93002
466.78        76.47911
467.22        75.46296
467.67        76.20454
468.11        75.78595
468.55        75.92775
468.99         75.7289
469.44        75.65571
469.88        75.69083
470.32        75.64252
470.77        75.54105
471.21        75.46777
471.65        75.42719
472.10        75.40833
472.54         75.3726
472.98        75.32014
473.42        75.25301
473.87        75.13427
474.31        74.95882
474.75        74.97624
475.20         75.1125
475.64        74.95816
476.08        74.55846
476.52        74.42002
476.97        74.58051
477.41        74.43501
477.85        74.56876
478.29         74.4783
478.74        74.82269
479.18        74.07885
479.62        74.56348
480.06        74.48986
480.50        74.49384
480.95        74.58307
481.39        74.68293
481.83        74.63043
482.27        74.70558
482.72          74.348
483.16        74.42731
483.60        74.29131
484.04        74.13033
484.48        74.18279
484.93        74.65582
485.37        74.09435
485.81        74.70294
486.25        75.01033
486.69        75.83563
487.14        74.86925
487.58         74.0458
488.02        74.90288
488.46        74.63363
488.90        74.22928
489.34        74.02805
489.79        73.65707
490.23        73.67059
490.67        73.61693
491.11        73.55452
491.55        73.51394
491.99        73.47409
492.43        73.43977
492.88        73.39674
493.32        73.34486
493.76        73.28694
494.20        73.29734
494.64        73.39713
495.08        73.48872
495.52        73.56433
495.96        73.79769
496.41        74.09087
496.85        73.96616
497.29        73.52733
497.73        73.46366
498.17        73.87293
498.61        73.87751
499.05        73.51952
499.49        73.33235
499.93        73.37197
500.37          73.381
500.82        73.33688
501.26        73.23734
501.70        73.69785
502.14        72.94379
502.58        73.70155
503.02        73.39503
503.46        73.39135
503.90        73.17648
504.34        73.01548
504.78        73.01865
505.22        73.14843
505.66        73.30563
506.10        73.43799
506.54         73.4807
506.98        73.38514
507.42        73.55981
507.86        73.26106
508.30        73.20316
508.74        73.17619
509.18        73.17294
509.62        73.17167
510.06        73.15495
510.50        73.12343
510.94        73.08166
511.38        73.04201
511.82         73.0179
512.26        73.00986
512.70        73.01147
513.14        73.01913
513.58        73.00281
514.02        72.96107
514.46        72.94727
514.90        72.96957
515.34        72.82012
515.78        72.93051
516.22         72.7994
516.66        72.85172
517.10         72.8988
517.54        73.01818
517.98        73.17654
518.42        73.31071
518.86          73.311
519.30         73.1563
519.74          72.937
520.18        72.70261
520.62        72.44293
521.06         72.2433
521.50        72.28179
521.93        72.50451
522.37        72.75552
522.81        72.75138
523.25        72.84142
523.69        72.94328
524.13        72.98753
524.57        72.97066
525.01        72.90722
525.45         72.8241
525.89        72.76404
526.32        72.73386
526.76        72.73731
527.20        72.74929
527.64        72.73717
528.08        72.69305
528.52        72.62688
528.96        72.56203
529.40        72.53297
529.83        72.54033
530.27        72.58793
530.71        72.63695
531.15        72.63852
531.59        72.58349
532.03        72.48492
532.46        72.38126
532.90        72.35671
533.34        72.41872
533.78        72.54181
534.22         72.6665
534.66        72.70346
535.09        72.62673
535.53        72.48604
535.97        72.32783
536.41        72.24281
536.85        72.25261
537.28        72.33056
537.72        72.42972
538.16        72.46423
538.60        72.41803
539.04        72.33925
539.47         72.2448
539.91        72.19927
540.35        72.19938
540.79        72.23752
541.22        72.29049
541.66        72.33318
542.10        72.35121
542.54        72.35111
542.97        72.33186
543.41        72.33358
543.85        72.34696
544.29        72.36587
544.72        72.36211
545.16        72.33079
545.60        72.26015
546.04        72.15792
546.47        72.05244
546.91         72.0127
547.35        72.04422
547.79        72.08907
548.22        72.10348
548.66        72.15243
549.10        72.18088
549.53        72.07349
549.97        71.88433
550.41        71.78958
550.84         71.7963
551.28        71.87907
551.72        72.00706
552.15        71.96111
552.59        71.74194
553.03        72.01945
553.46        71.65312
553.90         71.6992
554.34        71.79868
554.77         71.9664
555.21        72.12434
555.65        72.13908
556.08        71.92529
556.52        71.80075
556.96        71.76862
557.39        71.62564
557.83        71.44187
558.27        71.56757
558.70        71.95939
559.14        71.83393
559.57        71.88908
560.01        71.79297
560.45        71.76422
560.88        71.56937
561.32        71.35349
561.75        71.39444
562.19        71.65801
562.63        71.82372
563.06        71.82304
563.50        71.72272
563.93        71.55514
564.37        71.47103
564.80         71.4757
565.24        71.53944
565.68        71.62447
566.11        71.71379
566.55        71.82783
566.98         71.8763
567.42        71.88026
567.85        72.06981
568.29        72.43774
568.72        72.34022
569.16        71.83913
569.60        72.29164
570.03        72.25412
570.47        72.08704
570.90        72.29105
571.34        72.31956
571.77        72.61499
572.21        72.22289
572.64        72.69865
573.08        72.25841
573.51        71.96035
573.95        72.11887
574.38        72.32554
574.82        72.62971
