SpectraSmart Spectrum 2.9.0.0
--------- Device Information -----------
Spectrum Name :  反射率_0
Saving Time :  2024/04/27 23:40:03
Spectro-Module Model Name : SE2030-DUVN
Spectro-Module Serial Number : OS361AC55029948
Wavelength Start : 200
Wavelength End : 1025
Wavelength Unit : Wavelength(nm)
Spectrum Unit : Reflectance(%)
-----------Spectrum Setting ------------
Integration Time : 20ms
Average : 10
Boxcar : 0
Background removal :  enabled
linearity correction :  enabled
SC :  disabled
Intensity correction :  disabled
DWT denoise :  enabled
savitzky-golay :  disabled
FFT :  disabled
Running average :  disabled
Kalman :  disabled
High pass :  disabled
---------------BEGIN--------------------
Wavelength(nm)             Reflectance(%)
200.29               0
200.75        12.11395
201.21         15.5377
201.67        24.80482
202.13        34.50614
202.58        44.26105
203.04        54.79239
203.50        66.46047
203.96        77.94022
204.42        87.39964
204.88        94.72015
205.34        99.44742
205.80        101.5244
206.26        101.2261
206.72        97.73616
207.18        90.09993
207.64        81.92375
208.10         78.8755
208.55        80.68635
209.01        81.61565
209.47        77.88041
209.93        66.86366
210.39        38.01591
210.85       -50.54856
211.31       -165.7834
211.77       -44.05139
212.23        40.17701
212.69        70.25616
213.14        78.92117
213.60        77.13161
214.06        67.65999
214.52        47.76912
214.98        28.05087
215.44        26.33241
215.90        33.54801
216.36        41.82648
216.81        48.49496
217.27        53.69269
217.73        59.20293
218.19        63.50898
218.65        63.14055
219.11         57.2068
219.57        46.03204
220.02        31.97444
220.48        23.64294
220.94           24.22
221.40        30.43904
221.86        38.94893
222.32        46.22567
222.77        51.44062
223.23        55.53334
223.69        57.76204
224.15        57.03664
224.61         53.6838
225.06        47.82092
225.52        41.87202
225.98        40.34606
226.44        43.36599
226.90        48.06388
227.36        51.92327
227.81        53.00914
228.27        51.43082
228.73        47.92144
229.19        42.87482
229.65        37.44083
230.10        32.58059
230.56        28.61521
231.02        25.75715
231.48         24.2305
231.93         23.8708
232.39        24.58121
232.85        26.26767
233.31        28.73428
233.77        31.66604
234.22        34.97969
234.68        37.79152
235.14        39.15948
235.60        39.01145
236.05        37.39597
236.51        35.49844
236.97        35.83175
237.43        39.20531
237.88        44.95772
238.34        50.81824
238.80          54.616
239.26        56.02336
239.71        55.25305
240.17         52.6757
240.63        51.99801
241.08        55.84631
241.54        60.82962
242.00        64.66054
242.46        67.05148
242.91         68.7916
243.37        70.75342
243.83        73.42324
244.28        74.54994
244.74        69.92542
245.20        62.82641
245.66        57.98958
246.11        55.09333
246.57        52.59514
247.03        50.30543
247.48         48.9697
247.94         52.2335
248.40        60.66884
248.85        70.38347
249.31        77.65513
249.77        80.42591
250.22        79.94033
250.68        77.68761
251.14        75.21588
251.59        73.76466
252.05        73.37816
252.51        73.42725
252.96        73.38236
253.42        72.86781
253.88        71.70807
254.33        71.03956
254.79        70.76785
255.25        69.87731
255.70        68.41651
256.16        67.06712
256.62         66.8348
257.07        68.80991
257.53        72.38113
257.99        75.94595
258.44        77.96139
258.90        77.62865
259.35        75.05459
259.81        71.63427
260.27        68.08891
260.72        65.32481
261.18         63.7833
261.63        62.72124
262.09        61.99949
262.55        61.03024
263.00        59.67196
263.46        58.29771
263.91        56.93335
264.37        55.98443
264.83        55.39225
265.28        54.94635
265.74        54.57003
266.19        53.95392
266.65        53.11768
267.11        52.08796
267.56        50.89963
268.02        49.71737
268.47        48.55119
268.93        47.39622
269.38        46.24293
269.84        45.10828
270.30        43.99861
270.75        42.93763
271.21        41.93277
271.66        40.92901
272.12        39.94276
272.57        38.94729
273.03        38.01731
273.48        37.18381
273.94        36.50202
274.39        35.91331
274.85        35.38636
275.31        34.79731
275.76        34.10425
276.22        33.36411
276.67         32.6225
277.13        32.04413
277.58        31.59759
278.04        31.28933
278.49        30.94613
278.95        30.43129
279.40        29.68783
279.86        28.84213
280.31        28.03534
280.77        27.58804
281.22        27.49202
281.68        27.67044
282.13        27.89133
282.59        27.88383
283.04        27.58721
283.50        27.12029
283.95        26.63742
284.41        26.41095
284.86        26.47839
285.32         26.7586
285.77        27.09699
286.22        27.31545
286.68         27.3883
287.13        27.34366
287.59        27.29593
288.04        27.33644
288.50        27.51468
288.95        27.75512
289.41        28.00732
289.86        28.15203
290.32         28.1964
290.77        28.18695
291.22        28.20717
291.68        28.36485
292.13        28.69259
292.59        29.19696
293.04        29.85373
293.50        30.64629
293.95        31.55661
294.40        32.60035
294.86        33.80196
295.31        35.18794
295.77         36.7566
296.22        38.46104
296.68        40.23391
297.13        41.94125
297.58        43.54163
298.04        45.05984
298.49        46.53996
298.95        48.10644
299.40        49.79389
299.85        51.58857
300.31        53.48476
300.76        55.40417
301.21        57.31724
301.67        59.24842
302.12        61.14766
302.58        63.03423
303.03        64.87772
303.48        66.69876
303.94        68.55412
304.39        70.44268
304.84        72.39449
305.30        74.41021
305.75        76.41355
306.20        78.38557
306.66        80.32785
307.11        82.18686
307.57        83.99263
308.02        85.66646
308.47        87.21471
308.93        88.65729
309.38        89.95766
309.83        91.17002
310.29        92.33672
310.74        93.43361
311.19        94.49493
311.65        95.54121
312.10        96.54004
312.55        97.49383
313.00        98.39342
313.46        99.23313
313.91        99.99456
314.36        100.6918
314.82        101.3154
315.27        101.8465
315.72        102.2863
316.18        102.6599
316.63        102.9774
317.08        103.2947
317.53        103.6305
317.99        103.9693
318.44        104.3174
318.89        104.6543
319.35        104.9712
319.80        105.2865
320.25        105.5863
320.70         105.855
321.16        106.0818
321.61         106.286
322.06        106.4923
322.51        106.7541
322.97        107.0626
323.42        107.4346
323.87        107.8068
324.32        108.0961
324.78        108.2669
325.23         108.384
325.68        108.4773
326.13        108.6268
326.59        108.8319
327.04        109.1167
327.49        109.4417
327.94        109.7787
328.39        110.1133
328.85        110.4216
329.30        110.7573
329.75        111.0463
330.20        111.2787
330.66        111.4304
331.11        111.6002
331.56        111.8313
332.01        112.1495
332.46        112.5429
332.92         112.931
333.37        113.3278
333.82        113.6642
334.27        113.9558
334.72        114.2406
335.17        114.5839
335.63        114.9755
336.08        115.4502
336.53        115.9398
336.98        116.3768
337.43        116.7486
337.88        117.0867
338.34        117.4137
338.79        117.8249
339.24        118.3177
339.69        118.8534
340.14        119.4199
340.59        119.9991
341.05        120.5729
341.50        121.1615
341.95        121.6888
342.40        122.0515
342.85        122.2473
343.30        122.3025
343.75        122.3657
344.20        122.6785
344.66        123.2852
345.11        124.1024
345.56        124.9325
346.01        125.4517
346.46        125.5893
346.91        125.4544
347.36          125.23
347.81        125.1996
348.26        125.4325
348.72        125.8302
349.17        126.2736
349.62        126.6001
350.07        126.7472
350.52        126.7716
350.97        126.6977
351.42        126.5562
351.87        126.3747
352.32        126.1488
352.77        125.8985
353.22        125.6643
353.67         125.449
354.13        125.2435
354.58        125.0222
355.03        124.8046
355.48        124.5714
355.93        124.3129
356.38        123.9448
356.83        123.3353
357.28        122.4849
357.73         121.467
358.18        120.4171
358.63        119.5399
359.08        118.8936
359.53         118.421
359.98        118.0605
360.43        117.7109
360.88        117.3151
361.33        116.8756
361.78        116.3697
362.23        115.7593
362.68         115.036
363.13        114.2205
363.58        113.3125
364.03        112.2636
364.48        111.1985
364.93        110.0729
365.38        108.9949
365.83        108.0766
366.28         107.341
366.73        106.7569
367.18        106.2483
367.63        105.6885
368.08         105.036
368.53        104.3162
368.98        103.5637
369.43        102.8416
369.88         102.166
370.33        101.5111
370.78        100.8514
371.23         100.151
371.68        99.40426
372.13        98.63316
372.58        97.86797
373.03        97.15504
373.48        96.50829
373.93        95.91103
374.38        95.34759
374.83        94.78818
375.28        94.21953
375.72        93.63667
376.17        93.05852
376.62        92.44413
377.07        91.79562
377.52        91.11358
377.97        90.45351
378.42        89.90768
378.87        89.48548
379.32        89.15751
379.77         88.8362
380.22        88.37959
380.67        87.76302
381.11        87.04442
381.56         86.3047
382.01        85.69327
382.46        85.26236
382.91        84.96597
383.36        84.76733
383.81        84.60411
384.26        84.44202
384.71        84.29687
385.15        84.11813
385.60        83.88528
386.05        83.57497
386.50        83.19058
386.95        82.78638
387.40        82.46101
387.85        82.23441
388.29        82.02649
388.74        81.86678
389.19        81.60684
389.64        81.21427
390.09        80.70235
390.54         80.1422
390.98        79.63512
391.43         79.2745
391.88        79.03656
392.33        78.81145
392.78          78.516
393.23        78.16807
393.67        77.56573
394.12        76.94855
394.57        77.15729
395.02        77.45429
395.47        77.32069
395.91        76.64796
396.36        76.35856
396.81        76.50007
397.26        76.57041
397.71        76.45862
398.15        76.24715
398.60        76.01821
399.05         75.5062
399.50         74.9221
399.95        75.00639
400.39        75.58847
400.84        75.54266
401.29        74.87316
401.74        74.43036
402.18        74.32212
402.63        74.23754
403.08        74.14117
403.53        73.98135
403.97         73.7606
404.42        73.62027
404.87        73.54341
405.32        73.49125
405.76        73.44658
406.21          73.259
406.66        73.00206
407.11        73.12887
407.55        73.47015
408.00        73.25386
408.45        72.53019
408.90         71.6772
409.34        71.02871
409.79        71.28561
410.24        72.18658
410.68        72.52871
411.13        72.19356
411.58        71.89075
412.03        71.75636
412.47        71.69844
412.92        71.73479
413.37        71.89542
413.81        72.06801
414.26        72.14589
414.71        72.08332
415.15        71.93047
415.60         71.7262
416.05        71.60463
416.49        71.60796
416.94        71.68334
417.39         71.7737
417.83        71.79045
418.28        71.70316
418.73        71.52745
419.17        71.32743
419.62        71.20834
420.07        71.20846
420.51        71.30007
420.96        71.40698
421.41        71.42397
421.85        71.31322
422.30        70.97994
422.74        70.58939
423.19        70.86644
423.64        71.63925
424.08        71.94352
424.53        71.68027
424.98        71.42111
425.42        71.79752
425.87         71.6268
426.31        71.20072
426.76        71.31742
427.21        71.84887
427.65        71.81955
428.10        71.32132
428.54        71.21626
428.99        71.55009
429.44         72.0517
429.88         72.4614
430.33        72.16083
430.77        71.31534
431.22        71.03695
431.66        71.34911
432.11        71.47061
432.56        71.48794
433.00        72.00592
433.45        72.59617
433.89        72.70657
434.34        72.59044
434.78        70.62036
435.23        71.23707
435.67        71.70723
436.12        73.15142
436.57        73.34586
437.01        72.51649
437.46        72.23445
437.90        73.03925
438.35        73.20052
438.79        73.13472
439.24        73.00252
439.68        72.96511
440.13        72.82906
440.57        72.68951
441.02        73.03664
441.46        73.62659
441.91        73.56278
442.35        72.92527
442.80        72.78869
443.24        73.09834
443.69        73.20866
444.13        73.08527
444.58        73.09801
445.02        73.22052
445.47        73.33199
445.91        73.41993
446.36         73.5202
446.80        73.60499
447.24        73.74754
447.69        73.77361
448.13        73.84811
448.58        73.89539
449.02        73.76815
449.47        73.55209
449.91        73.47837
450.36         73.5918
450.80        73.74918
451.25        73.90047
451.69        73.99522
452.13        73.99466
452.58        73.85205
453.02        73.62454
453.47        73.44347
453.91        73.33646
454.36        73.37044
454.80        73.41771
455.24        73.18016
455.69        72.79726
456.13        72.43919
456.58        72.25758
457.02        72.71857
457.46        73.41697
457.91        73.12758
458.35        72.24464
458.79        71.80684
459.24        71.96373
459.68        71.96896
460.13        71.80124
460.57        71.62603
461.01        71.80758
461.46        71.40321
461.90        71.36428
462.34        71.53867
462.79        71.86324
463.23        71.67923
463.68        71.05461
464.12        70.68303
464.56        70.67937
465.01        71.03328
465.45        71.40005
465.89        71.32127
466.34        70.88866
466.78         70.2477
467.22        69.57645
467.67        70.21543
468.11        70.33055
468.55        70.45889
468.99        70.08784
469.44        70.03383
469.88        70.28801
470.32        70.33833
470.77         70.1946
471.21        70.11483
471.65        70.11629
472.10        70.14501
472.54        70.11151
472.98        69.98913
473.42        69.78873
473.87        69.36252
474.31        68.85818
474.75        69.03397
475.20        69.69415
475.64        69.71847
476.08        69.11163
476.52        68.91862
476.97        69.17329
477.41        69.17781
477.85        68.46803
478.29        69.13715
478.74        69.23186
479.18        68.63889
479.62        68.99728
480.06        68.86632
480.50        68.87206
480.95         68.9034
481.39        68.94609
481.83         68.7562
482.27        68.84567
482.72        68.63545
483.16        68.64867
483.60        68.56632
484.04        68.47113
484.48        68.43418
484.93        68.62557
485.37        68.46024
485.81        68.80921
486.25        69.19143
486.69        69.05354
487.14        68.42168
487.58        68.31752
488.02        68.83691
488.46        68.72295
488.90         69.0066
489.34        68.12836
489.79        68.21696
490.23        68.04853
490.67        67.90652
491.11        67.57735
491.55        67.47282
491.99        67.59252
492.43        67.65981
492.88        67.66611
493.32        67.75925
493.76        67.90442
494.20        68.05497
494.64         68.2111
495.08        68.24916
495.52          68.216
495.96        68.45317
496.41        68.81709
496.85        68.66445
497.29        68.10471
497.73        67.70054
498.17        67.73055
498.61        67.93151
499.05        68.19408
499.49        68.05641
499.93        67.60915
500.37        67.37333
500.82        67.36636
501.26        67.46919
501.70        67.79127
502.14        67.22345
502.58        68.09734
503.02        68.25944
503.46        68.10191
503.90        67.92014
504.34        67.71378
504.78        67.60437
505.22        67.58797
505.66        67.52682
506.10        67.43519
506.54        67.49001
506.98        67.69693
507.42        67.71735
507.86        68.04435
508.30        67.96612
508.74        67.98584
509.18        67.81824
509.62        67.62779
510.06          67.494
510.50        67.44253
510.94        67.44985
511.38        67.48888
511.82        67.52396
512.26        67.53691
512.70        67.54242
513.14        67.53975
513.58        67.50285
514.02        67.43098
514.46        67.36993
514.90        67.34088
515.34        67.18423
515.78        67.22959
516.22        67.21414
516.66         67.2401
517.10        67.30741
517.54        67.41067
517.98        67.53652
518.42        67.65154
518.86        67.71142
519.30        67.70456
519.74        67.64556
520.18        67.55585
520.62        67.47091
521.06        67.40662
521.50        67.35687
521.93        67.33072
522.37        67.32723
522.81        67.34747
523.25        67.38612
523.69        67.42706
524.13        67.44285
524.57        67.42565
525.01        67.38335
525.45        67.31775
525.89        67.23376
526.32        67.13357
526.76        67.03245
527.20        66.94695
527.64        66.91053
528.08        66.92822
528.52        66.98863
528.96        67.06886
529.40        67.13099
529.83        67.15681
530.27        67.16747
530.71        67.16162
531.15        67.14864
531.59        67.13377
532.03        67.11276
532.46        67.08706
532.90        67.08295
533.34        67.09634
533.78         67.1209
534.22        67.14384
534.66        67.14437
535.09        67.10948
535.53        67.06641
535.97        67.00954
536.41         66.9452
536.85        66.88052
537.28        66.81985
537.72        66.77525
538.16          66.757
538.60        66.76734
539.04        66.81152
539.47        66.86027
539.91        66.90644
540.35        66.92677
540.79        66.94033
541.22        66.92808
541.66        66.87013
542.10        66.76691
542.54        66.62571
542.97        66.48777
543.41        66.45506
543.85        66.52798
544.29        66.68314
544.72        66.83687
545.16        66.89099
545.60        66.80782
546.04        66.61733
546.47        66.39669
546.91        66.27277
547.35        66.26703
547.79         66.3698
548.22        66.49243
548.66        66.46391
549.10        66.30239
549.53        66.28781
549.97        66.42394
550.41        66.47827
550.84        66.43903
551.28        66.47445
551.72        66.57267
552.15        66.55678
552.59        66.41988
553.03        66.49557
553.46        66.29928
553.90        66.27425
554.34        66.39459
554.77        66.55087
555.21        66.69588
555.65        66.72247
556.08        66.54515
556.52        66.31984
556.96        66.10053
557.39        66.09295
557.83        66.27168
558.27        66.29681
558.70        66.16688
559.14         66.1608
559.57        66.26021
560.01        66.31378
560.45        66.29867
560.88        66.27821
561.32         66.3029
561.75        66.27045
562.19         66.2133
562.63        66.27112
563.06        66.38644
563.50        66.21462
563.93        65.83511
564.37        65.83772
564.80        66.14069
565.24        66.20369
565.68        66.02857
566.11        66.00113
566.55        66.15151
566.98         66.2482
567.42        66.26736
567.85        66.26971
568.29        66.29771
568.72        66.11012
569.16        65.76062
569.60        65.94671
570.03        66.18388
570.47        65.97613
570.90        65.90257
571.34        66.79486
571.77         66.2516
572.21         66.1084
572.64        66.20917
573.08        65.87923
573.51        65.99243
573.95        66.31419
574.38         66.3679
574.82        65.95372
