SpectraSmart Spectrum 2.9.0.0
--------- Device Information -----------
Spectrum Name :  反射率_0
Saving Time :  2024/04/27 23:49:52
Spectro-Module Model Name : SE2030-DUVN
Spectro-Module Serial Number : OS361AC55029948
Wavelength Start : 200
Wavelength End : 1025
Wavelength Unit : Wavelength(nm)
Spectrum Unit : Reflectance(%)
-----------Spectrum Setting ------------
Integration Time : 20ms
Average : 10
Boxcar : 0
Background removal :  enabled
linearity correction :  enabled
SC :  disabled
Intensity correction :  disabled
DWT denoise :  enabled
savitzky-golay :  disabled
FFT :  disabled
Running average :  disabled
Kalman :  disabled
High pass :  disabled
---------------BEGIN--------------------
Wavelength(nm)             Reflectance(%)
200.29               0
200.75         124.438
201.21        119.8353
201.67        106.4969
202.13        89.42068
202.58        69.96552
203.04        48.92783
203.50        32.74262
203.96        31.85517
204.42        44.62839
204.88        63.50362
205.34        81.85876
205.80        95.41867
206.26        105.0464
206.72        113.6009
207.18        120.4286
207.64        119.1378
208.10        109.0097
208.55        97.29188
209.01        88.01265
209.47        79.91426
209.93        69.15214
210.39        47.10176
210.85       -13.96358
211.31       -82.64417
211.77        8.057075
212.23        64.96987
212.69        84.69395
213.14         90.9959
213.60         91.0005
214.06          86.606
214.52        75.21215
214.98        59.81292
215.44        52.13324
215.90        51.01159
216.36        53.14314
216.81        56.54009
217.27        60.44265
217.73         65.7121
218.19        70.74049
218.65         72.1729
219.11        69.11469
219.57        62.02762
220.02        52.96719
220.48        48.86134
220.94        51.78662
221.40        58.72818
221.86        66.48599
222.32        72.05206
222.77         75.0024
223.23        76.36519
223.69        76.45049
224.15        75.35376
224.61        73.28403
225.06        70.10957
225.52        66.53773
225.98        63.98168
226.44        62.98096
226.90        62.85742
227.36        63.08843
227.81        63.12828
228.27        62.87821
228.73         62.4571
229.19        61.43499
229.65        59.12843
230.10        55.62764
230.56        51.66792
231.02        48.23745
231.48        46.72197
231.93        47.11337
232.39        48.84696
232.85        51.19225
233.31        53.18158
233.77        54.50837
234.22        55.56117
234.68         56.0978
235.14        55.85302
235.60         54.8949
236.05        53.11947
236.51        51.42617
236.97        51.80418
237.43        54.84804
237.88        60.04476
238.34        65.43152
238.80        69.27164
239.26        71.35002
239.71        72.00162
240.17        71.20901
240.63        70.63229
241.08        71.70823
241.54         73.1337
242.00        74.06078
242.46        74.04807
242.91        73.07383
243.37        70.51355
243.83        65.66826
244.28        61.46976
244.74        65.68796
245.20        75.83698
245.66        82.35328
246.11        82.65705
246.57        77.80799
247.03        66.50795
247.48        49.51736
247.94        41.47734
248.40        54.71766
248.85         79.7187
249.31        101.8145
249.77        109.6266
250.22         106.103
250.68        97.78738
251.14        89.78568
251.59        86.10173
252.05         86.8415
252.51         90.6337
252.96        95.68707
253.42         96.3457
253.88        90.21563
254.33        82.22527
254.79        76.30434
255.25        72.97284
255.70        71.36723
256.16        71.02059
256.62        71.78825
257.07        73.67929
257.53        76.34309
257.99        78.79171
258.44        80.04385
258.90        79.79236
259.35        77.95007
259.81        75.54633
260.27        72.94158
260.72        70.63717
261.18        69.12753
261.63        67.89504
262.09        66.99641
262.55        66.01218
263.00        64.81445
263.46        63.68924
263.91        62.64391
264.37        62.09929
264.83        61.93953
265.28        61.92455
265.74        61.89645
266.19        61.39729
266.65        60.47401
267.11        59.22524
267.56        57.78522
268.02        56.48629
268.47        55.37601
268.93        54.38039
269.38        53.47638
269.84        52.66628
270.30        51.90808
270.75        51.21182
271.21        50.45428
271.66        49.37332
272.12        47.97554
272.57        46.31635
273.03        44.66175
273.48        43.33413
273.94        42.47513
274.39        41.93802
274.85        41.59608
275.31        41.16423
275.76        40.54609
276.22        39.85102
276.67        39.12863
277.13        38.56922
277.58        38.13185
278.04        37.80093
278.49        37.39366
278.95        36.79005
279.40        35.92682
279.86         34.9456
280.31        33.96603
280.77        33.29151
281.22        32.91692
281.68        32.79301
282.13        32.72111
282.59        32.49084
283.04         32.0328
283.50        31.43837
283.95        30.82135
284.41        30.40416
284.86        30.21168
285.32        30.19621
285.77        30.20245
286.22        30.05454
286.68        29.74012
287.13        29.28904
287.59        28.87106
288.04        28.65747
288.50        28.70789
288.95        28.92021
289.41        29.16759
289.86        29.21085
290.32         29.0334
290.77        28.71276
291.22        28.39908
291.68        28.30531
292.13        28.47487
292.59        28.86082
293.04        29.37162
293.50        29.89144
293.95        30.37702
294.40        30.88377
294.86        31.46455
295.31        32.18821
295.77        33.07645
296.22        34.07434
296.68         35.1501
297.13        36.22949
297.58        37.28642
298.04        38.34046
298.49         39.3798
298.95        40.42222
299.40        41.48052
299.85        42.56097
300.31        43.72864
300.76        45.03103
301.21        46.47102
301.67        48.03519
302.12        49.60502
302.58        51.07496
303.03         52.4045
303.48        53.65619
303.94        54.96575
304.39        56.46221
304.84        58.19743
305.30        60.13237
305.75        62.12608
306.20        64.04225
306.66        65.86052
307.11        67.57466
307.57        69.28924
308.02        71.05605
308.47        72.89427
308.93         74.7636
309.38        76.54693
309.83         78.1652
310.29        79.63294
310.74        80.97626
311.19        82.27803
311.65        83.63924
312.10        85.04525
312.55        86.45027
313.00        87.83182
313.46        89.17202
313.91        90.44042
314.36        91.65977
314.82        92.76067
315.27        93.62393
315.72        94.24037
316.18        94.66247
316.63        95.01355
317.08        95.53159
317.53        96.26952
317.99        97.15299
318.44        98.06382
318.89        98.77702
319.35        99.22895
319.80        99.50031
320.25        99.66869
320.70        99.86716
321.16        100.1336
321.61        100.4436
322.06        100.7795
322.51        101.1269
322.97        101.4578
323.42        101.8202
323.87         102.177
324.32         102.479
324.78        102.7009
325.23        102.8855
325.68        103.0473
326.13        103.2465
326.59        103.4711
327.04         103.745
327.49        104.0295
327.94        104.2947
328.39        104.5316
328.85        104.7286
329.30        104.9375
329.75        105.0913
330.20        105.1929
330.66        105.2252
331.11         105.323
331.56        105.5874
332.01        106.0514
332.46        106.6872
332.92        107.3464
333.37        107.9168
333.82        108.2886
334.27        108.4907
334.72        108.6321
335.17        108.9037
335.63        109.3328
336.08        109.9287
336.53        110.5337
336.98        110.9303
337.43        111.0768
337.88        111.0501
338.34        111.0241
338.79        111.3311
339.24        112.0215
339.69        112.9898
340.14        114.0279
340.59        114.7979
341.05        115.2103
341.50        115.3844
341.95        115.4551
342.40        115.6539
342.85        116.0548
343.30        116.5688
343.75        117.1591
344.20        117.7733
344.66        118.3722
345.11        118.9665
345.56         119.481
346.01        119.7852
346.46        119.8652
346.91        119.7626
347.36        119.5979
347.81        119.5629
348.26        119.7092
348.72         119.996
349.17        120.3375
349.62        120.6101
350.07        120.7709
350.52        120.8548
350.97        120.9104
351.42        121.0087
351.87        121.1669
352.32        121.3584
352.77        121.5143
353.22        121.5448
353.67        121.4217
354.13        121.1559
354.58        120.8142
355.03        120.5706
355.48        120.4417
355.93         120.382
356.38        120.1985
356.83        119.5863
357.28        118.5268
357.73          117.17
358.18        115.7987
358.63          114.84
359.08        114.3961
359.53        114.3277
359.98        114.4438
360.43        114.4399
360.88        114.1977
361.33        113.7787
361.78        113.2231
362.23        112.5978
362.68         111.931
363.13        111.2032
363.58        110.3955
364.03        109.4487
364.48        108.4588
364.93        107.4165
365.38        106.4269
365.83        105.6023
366.28        104.9607
366.73        104.4563
367.18        104.0154
367.63        103.5175
368.08        102.9219
368.53        102.2652
368.98        101.5501
369.43        100.7859
369.88        99.99276
370.33         99.1656
370.78        98.37204
371.23        97.72723
371.68        97.24569
372.13        96.88956
372.58        96.56712
373.03         96.1216
373.48         95.5139
373.93         94.8002
374.38         94.0326
374.83         93.2934
375.28        92.61739
375.72        91.95978
376.17        91.37801
376.62         90.8954
377.07        90.49853
377.52        90.16026
377.97        89.81664
378.42        89.36466
378.87        88.78621
379.32        88.13037
379.77        87.42062
380.22        86.68832
380.67        85.95939
381.11        85.23241
381.56        84.58015
382.01        84.13337
382.46        83.91306
382.91        83.87992
383.36        83.90308
383.81        83.77175
384.26        83.43296
384.71        82.94114
385.15        82.38249
385.60        81.96001
386.05        81.70057
386.50        81.54273
386.95        81.41563
387.40        81.21695
387.85        80.92328
388.29          80.531
388.74        80.16841
389.19        79.82271
389.64        79.49233
390.09        79.14561
390.54        78.78644
390.98        78.41274
391.43        78.08487
391.88        77.80532
392.33        77.51731
392.78         77.2318
393.23        76.97728
393.67        76.50403
394.12        75.95805
394.57        76.26971
395.02        76.17933
395.47        75.97764
395.91        75.39632
396.36        75.09963
396.81        75.13227
397.26        75.16508
397.71        75.11712
398.15        74.99007
398.60        74.84388
399.05          74.504
399.50        74.11718
399.95        74.10928
400.39        74.38453
400.84        74.39286
401.29        74.06905
401.74        73.51855
402.18        72.91856
402.63         72.7131
403.08        72.88049
403.53        72.84284
403.97         72.5691
404.42         72.4715
404.87        72.50394
405.32         72.4142
405.76        72.17999
406.21        71.85867
406.66        71.51728
407.11        71.34269
407.55        71.34186
408.00        71.26991
408.45        71.13126
408.90        70.99671
409.34        70.88703
409.79        70.91284
410.24        71.01588
410.68        71.01566
411.13         70.8912
411.58        70.74089
412.03        70.61533
412.47        70.57169
412.92        70.60561
413.37        70.72266
413.81        70.84194
414.26        70.89703
414.71        70.85521
415.15        70.75609
415.60        70.64542
416.05        70.66306
416.49        70.84207
416.94        71.12189
417.39        71.40912
417.83         71.5639
418.28        71.53917
418.73        71.35078
419.17        71.09442
419.62        70.93225
420.07        70.92644
420.51        71.04868
420.96        71.17817
421.41        71.17099
421.85        70.99496
422.30        70.48429
422.74        69.90119
423.19        70.34214
423.64        71.57653
424.08        72.04608
424.53        71.59779
424.98        71.57339
425.42        72.01978
425.87          71.879
426.31        71.31065
426.76        71.44987
427.21        72.15297
427.65        72.16138
428.10        71.52761
428.54        71.33369
428.99        71.62863
429.44        71.83816
429.88         71.9022
430.33        71.90681
430.77        71.81383
431.22        71.98847
431.66        72.34362
432.11        72.28123
432.56        72.00381
433.00        72.13753
433.45        72.40386
433.89        72.83209
434.34        73.55806
434.78        71.41286
435.23        72.06791
435.67        72.83415
436.12        73.56576
436.57        73.79709
437.01        73.28783
437.46        72.95068
437.90        73.22775
438.35        74.35782
438.79        73.85886
439.24        73.99342
439.68        74.04716
440.13        73.98573
440.57        73.89716
441.02        74.24986
441.46        74.85646
441.91        74.91145
442.35        74.45096
442.80        74.37675
443.24        74.65887
443.69        74.83746
444.13        74.86132
444.58        74.94739
445.02        75.06803
445.47        75.17777
445.91         75.2579
446.36        75.31589
446.80        75.32926
447.24        75.33964
447.69        75.29017
448.13        75.32961
448.58        75.41931
449.02        75.41776
449.47        75.34722
449.91        75.31839
450.36        75.35992
450.80        75.37416
451.25        75.38852
451.69        75.46705
452.13        75.59454
452.58        75.68049
453.02        75.70869
453.47        75.69391
453.91        75.61835
454.36        75.59708
454.80        75.58205
455.24        75.19256
455.69        74.56464
456.13        74.29538
456.58        74.56592
457.02        74.07649
457.46        75.06222
457.91         74.7925
458.35        74.33688
458.79        74.10052
459.24        74.21101
459.68        74.22803
460.13         74.1285
460.57        73.86629
461.01        73.79376
461.46        73.53441
461.90        73.26378
462.34        73.32928
462.79        73.62904
463.23        73.72618
463.68        73.59018
464.12        73.41753
464.56         73.3015
465.01        73.48981
465.45         73.7186
465.89        73.60935
466.34        73.26488
466.78         72.7022
467.22         71.9638
467.67        72.80318
468.11         72.1442
468.55        72.20483
468.99        72.06762
469.44        72.04568
469.88        72.11285
470.32        72.10908
470.77        72.05123
471.21        71.99975
471.65        71.95979
472.10        71.92374
472.54         71.8545
472.98        71.77637
473.42        71.70071
473.87        71.53582
474.31        71.31882
474.75        71.45773
475.20        71.83028
475.64        71.78799
476.08        71.37753
476.52        71.20984
476.97        71.28453
477.41        71.12698
477.85        71.38577
478.29        70.77748
478.74        71.21358
479.18        70.99313
479.62        71.13219
480.06        71.10043
480.50        71.00932
480.95        71.48862
481.39        71.09438
481.83         71.3536
482.27         71.1431
482.72         70.7577
483.16        70.75022
483.60        70.59192
484.04        70.49847
484.48        70.51273
484.93        70.83473
485.37        70.80151
485.81        70.97966
486.25        71.56818
486.69        73.39146
487.14        71.79478
487.58        71.12969
488.02        70.77572
488.46        70.93676
488.90        71.26189
489.34        70.96143
489.79        70.23931
490.23          70.853
490.67        70.75632
491.11        70.55337
491.55        70.48058
491.99        70.54246
492.43         70.5282
492.88        70.41258
493.32         70.3418
493.76        70.32673
494.20        70.37875
494.64        70.51305
495.08        70.67165
495.52         70.8185
495.96        71.03324
496.41         71.2392
496.85        71.07732
497.29        70.64714
497.73        70.60603
498.17        70.92509
498.61        70.92018
499.05        70.58447
499.49        70.49923
499.93        70.67199
500.37        70.55297
500.82        70.17854
501.26        70.16791
501.70        70.92606
502.14        70.17651
502.58        70.56733
503.02         70.5491
503.46        70.57935
503.90        70.64437
504.34        70.63113
504.78        70.59286
505.22        70.45866
505.66        70.18073
506.10        69.90636
506.54        69.77589
506.98        69.73089
507.42        70.43772
507.86          70.408
508.30        70.29882
508.74        70.62354
509.18        70.56259
509.62        70.43029
510.06        70.32334
510.50        70.28662
510.94         70.2586
511.38        70.23011
511.82          70.214
512.26        70.20467
512.70        70.21221
513.14        70.22099
513.58        70.19868
514.02         70.1422
514.46        70.05849
514.90        69.97292
515.34        69.94622
515.78        69.96729
516.22        70.03731
516.66        70.12176
517.10        70.17481
517.54        70.18229
517.98        70.15495
518.42        70.11278
518.86        70.08853
519.30         70.0905
519.74         70.1076
520.18        70.12074
520.62        70.10021
521.06        70.04328
521.50        69.96638
521.93         69.8958
522.37        69.85574
522.81        69.85697
523.25        69.89284
523.69        69.97158
524.13        70.01043
524.57        69.98002
525.01        70.06682
525.45          70.305
525.89        69.81352
526.32        70.07755
526.76        69.92967
527.20        69.81756
527.64        69.72413
528.08        69.66779
528.52        69.62454
528.96         69.6021
529.40        69.65005
529.83        69.75464
530.27        69.91273
530.71        70.05178
531.15        70.06764
531.59        69.94344
532.03        69.71246
532.46        69.45001
532.90        69.30222
533.34        69.29887
533.78        69.39976
534.22        69.53907
534.66        69.61456
535.09        69.59132
535.53         69.5223
535.97        69.43751
536.41        69.39842
536.85        69.42099
537.28        69.48444
537.72        69.56013
538.16        69.59387
538.60        69.57445
539.04        69.54588
539.47        69.49163
539.91        69.47488
540.35        69.48059
540.79        69.51263
541.22        69.53918
541.66        69.52061
542.10        69.44791
542.54        69.33477
542.97        69.21877
543.41        69.19598
543.85        69.26762
544.29        69.41281
544.72        69.55447
545.16        69.60889
545.60        69.54315
546.04        69.38062
546.47        69.19911
546.91        69.13853
547.35        69.21509
547.79         69.3787
548.22        69.52669
548.66        69.54233
549.10        69.40824
549.53        69.25654
549.97        69.14244
550.41        69.07228
550.84        69.06717
551.28        69.14278
551.72        69.26973
552.15        69.37688
552.59        69.43139
553.03        69.49221
553.46        69.32664
553.90        69.31364
554.34         69.3761
554.77        69.44295
555.21         69.4891
555.65         69.5292
556.08        69.47225
556.52        69.47012
556.96        69.48473
557.39        69.47802
557.83        69.45689
558.27        69.39904
558.70        69.32124
559.14        69.25226
559.57         69.2041
560.01        69.27318
560.45        69.39679
560.88        69.39671
561.32        69.32579
561.75        69.24335
562.19        69.21524
562.63        69.29999
563.06        69.44662
563.50        69.45587
563.93        69.32198
564.37          69.281
564.80        69.32017
565.24        69.36263
565.68        69.38794
566.11         69.4015
566.55        69.42529
566.98        69.44173
567.42        69.47801
567.85        69.51285
568.29        69.58309
568.72        69.63378
569.16        69.70685
569.60        69.80489
570.03        69.90002
570.47         70.0191
570.90         69.8855
571.34        70.20948
571.77        70.19381
572.21        70.16421
572.64        70.27963
573.08        70.17384
573.51        69.61301
573.95        69.93027
574.38        70.83626
574.82         70.4387
