SpectraSmart Spectrum 2.9.0.0
--------- Device Information -----------
Spectrum Name :  反射率_0
Saving Time :  2024/04/27 23:47:50
Spectro-Module Model Name : SE2030-DUVN
Spectro-Module Serial Number : OS361AC55029948
Wavelength Start : 200
Wavelength End : 1025
Wavelength Unit : Wavelength(nm)
Spectrum Unit : Reflectance(%)
-----------Spectrum Setting ------------
Integration Time : 20ms
Average : 10
Boxcar : 0
Background removal :  enabled
linearity correction :  enabled
SC :  disabled
Intensity correction :  disabled
DWT denoise :  enabled
savitzky-golay :  disabled
FFT :  disabled
Running average :  disabled
Kalman :  disabled
High pass :  disabled
---------------BEGIN--------------------
Wavelength(nm)             Reflectance(%)
200.29               0
200.75        71.21017
201.21          78.313
201.67        79.67175
202.13        76.14284
202.58        69.40823
203.04        61.10526
203.50        53.88953
203.96        51.95966
204.42        55.11031
204.88         60.6142
205.34        66.03503
205.80        69.64498
206.26        71.34631
206.72        71.42214
207.18        69.37729
207.64        65.44096
208.10        62.14515
208.55        61.29827
209.01        59.87552
209.47        55.68097
209.93        46.33849
210.39        22.70378
210.85       -45.31769
211.31        -112.382
211.77       -2.261565
212.23         61.2787
212.69        81.78005
213.14        86.69016
213.60        83.55794
214.06        72.83945
214.52        52.43138
214.98        35.94546
215.44        39.98529
215.90        52.64735
216.36        63.13446
216.81        67.54038
217.27         67.3241
217.73        64.89775
218.19        61.15682
218.65        57.17446
219.11        53.44307
219.57        49.19255
220.02        44.37072
220.48        41.05257
220.94        39.71458
221.40        40.06824
221.86        41.48835
222.32         42.9834
222.77        44.34667
223.23        45.73024
223.69        46.51855
224.15        45.90232
224.61        43.99099
225.06        40.70611
225.52        37.96045
225.98        38.74755
226.44        42.60052
226.90        47.29204
227.36        50.69897
227.81        51.20579
228.27        49.06516
228.73        44.91982
229.19         39.6179
229.65        35.19357
230.10        32.64949
230.56        31.78897
231.02        31.94606
231.48        32.20361
231.93        32.22859
232.39        32.39997
232.85        32.91607
233.31        34.01833
233.77        35.65709
234.22         37.6784
234.68        39.53875
235.14        40.76623
235.60        41.32386
236.05        41.23804
236.51        41.25102
236.97         42.6676
237.43        45.78891
237.88        50.27924
238.34        54.53399
238.80        57.30194
239.26        58.46373
239.71        57.99004
240.17        56.48837
240.63         57.5548
241.08        62.88967
241.54         69.0363
242.00        73.22184
242.46        74.93234
242.91        74.85873
243.37        72.46843
243.83         67.0933
244.28        63.00108
244.74        69.26893
245.20         81.5969
245.66        88.80833
246.11        88.02523
246.57        80.28233
247.03        63.91849
247.48        38.02411
247.94        18.15378
248.40        22.65778
248.85         43.0209
249.31         66.4027
249.77        82.11973
250.22        89.60212
250.68        92.90695
251.14         93.8369
251.59        93.82721
252.05        93.44827
252.51        91.65862
252.96         88.1747
253.42        85.17368
253.88        84.04732
254.33        84.54818
254.79        85.10476
255.25        83.50346
255.70         80.0165
256.16        76.23608
256.62        73.40333
257.07        72.93287
257.53        74.52649
257.99        76.50001
258.44        77.46568
258.90        76.75266
259.35        74.31434
259.81        71.37934
260.27        68.38763
260.72        65.92686
261.18        64.43414
261.63        63.26694
262.09        62.49584
262.55         61.7724
263.00        60.92509
263.46        60.20386
263.91        59.40253
264.37        58.62614
264.83        57.81171
265.28          56.907
265.74        56.06738
266.19        55.26062
266.65        54.54924
267.11        53.86263
267.56        53.09418
268.02        52.19427
268.47        51.11369
268.93        49.91057
269.38        48.68113
269.84        47.60551
270.30        46.71662
270.75        45.96881
271.21        45.24151
271.66        44.29469
272.12        43.11176
272.57        41.72964
273.03        40.36531
273.48        39.26114
273.94        38.52313
274.39        38.02982
274.85        37.62815
275.31        37.00986
275.76        36.11608
276.22         35.0928
276.67        34.09895
277.13        33.46288
277.58        33.16533
278.04        33.12373
278.49        33.08355
278.95        32.80239
279.40        32.18415
279.86         31.3996
280.31        30.56648
280.77        29.97903
281.22        29.64738
281.68        29.51473
282.13        29.44534
282.59         29.3102
283.04        29.05617
283.50        28.75622
283.95        28.45018
284.41        28.23507
284.86        28.11747
285.32        28.08503
285.77         28.0836
286.22         28.0809
286.68         28.0814
287.13        28.06149
287.59        28.07367
288.04        28.11746
288.50        28.21852
288.95        28.33286
289.41        28.44849
289.86         28.4974
290.32        28.50104
290.77         28.4888
291.22        28.50854
291.68        28.62081
292.13        28.84423
292.59         29.1879
293.04        29.67609
293.50        30.36736
293.95        31.25176
294.40        32.32569
294.86        33.51856
295.31        34.70792
295.77        35.87706
296.22        37.03727
296.68         38.2688
297.13        39.67339
297.58        41.25864
298.04        42.96737
298.49        44.70461
298.95        46.37909
299.40        47.97492
299.85        49.55217
300.31        51.18312
300.76        52.91492
301.21        54.75985
301.67        56.69358
302.12        58.65154
302.58         60.6321
303.03        62.58949
303.48        64.55068
303.94        66.53921
304.39        68.50362
304.84        70.46297
305.30          72.423
305.75        74.34909
306.20        76.28735
306.66         78.2531
307.11        80.18197
307.57        82.05905
308.02        83.73472
308.47        85.21241
308.93        86.54948
309.38        87.77873
309.83          89.052
310.29        90.43074
310.74        91.85509
311.19        93.30244
311.65         94.7026
312.10        95.98521
312.55        97.16422
313.00        98.25079
313.46        99.27576
313.91        100.2332
314.36         101.129
314.82        101.9259
315.27        102.5645
315.72         103.044
316.18        103.4044
316.63        103.7235
317.08        104.1586
317.53        104.7446
317.99        105.4374
318.44        106.1441
318.89        106.6809
319.35        107.0057
319.80        107.1871
320.25        107.3219
320.70        107.5765
321.16        107.9803
321.61        108.4866
322.06        109.0256
322.51        109.4988
322.97        109.8485
323.42         110.143
323.87         110.359
324.32        110.4794
324.78        110.5025
325.23        110.4786
325.68        110.4568
326.13        110.5496
326.59        110.7653
327.04        111.1364
327.49        111.5955
327.94        112.0595
328.39        112.4957
328.85        112.8795
329.30        113.2951
329.75        113.7222
330.20        114.1564
330.66        114.5505
331.11        114.9398
331.56        115.2675
332.01        115.5412
332.46        115.7789
332.92        115.9823
333.37        116.3135
333.82        116.7425
334.27        117.2412
334.72        117.7697
335.17        118.2611
335.63        118.6633
336.08        119.0546
336.53        119.4023
336.98         119.702
337.43        119.9662
337.88        120.1989
338.34        120.4356
338.79         120.795
339.24        121.2777
339.69          121.86
340.14        122.4793
340.59        123.0269
341.05        123.4756
341.50        123.8686
341.95         124.231
342.40        124.6245
342.85        125.0666
343.30        125.5163
343.75          125.99
344.20        126.5151
344.66        127.0868
345.11        127.7019
345.56        128.2507
346.01        128.5542
346.46        128.5928
346.91        128.4197
347.36        128.2357
347.81        128.3512
348.26        128.8193
348.72        129.5463
349.17        130.2908
349.62        130.6887
350.07        130.6472
350.52        130.2747
350.97        129.7798
351.42        129.4974
351.87        129.5129
352.32        129.7189
352.77        129.9354
353.22        129.8915
353.67        129.5183
354.13        128.9123
354.58        128.2013
355.03        127.6486
355.48        127.3129
355.93        127.1142
356.38        126.8821
356.83        126.3536
357.28        125.4885
357.73        124.3993
358.18        123.2784
358.63        122.4123
359.08        121.8674
359.53        121.5449
359.98        121.3003
360.43        120.9101
360.88        120.3006
361.33        119.5304
361.78        118.6741
362.23        117.8447
362.68        117.0796
363.13        116.3572
363.58        115.6269
364.03        114.7456
364.48        113.8193
364.93        112.8062
365.38         111.814
365.83        110.9469
366.28        110.2257
366.73        109.6076
367.18        109.0263
367.63        108.3805
368.08        107.6393
368.53        106.8345
368.98        105.9963
369.43        105.1722
369.88        104.3854
370.33        103.6276
370.78        102.9013
371.23        102.2129
371.68        101.5592
372.13        100.9338
372.58        100.3434
373.03        99.79587
373.48        99.28385
373.93        98.80163
374.38        98.29366
374.83        97.67426
375.28        96.93178
375.72        96.07374
376.17        95.22102
376.62        94.49495
377.07        93.92045
377.52        93.44696
377.97        92.99956
378.42        92.45872
378.87        91.80299
379.32        91.09647
379.77        90.37096
380.22        89.66289
380.67        88.99486
381.11        88.35513
381.56        87.79746
382.01        87.42628
382.46        87.25195
382.91        87.23715
383.36        87.26167
383.81        87.13433
384.26        86.80804
384.71         86.3328
385.15        85.78531
385.60        85.35541
386.05        85.06797
386.50        84.86757
386.95        84.69822
387.40        84.48027
387.85        84.19257
388.29        83.81894
388.74        83.47263
389.19        83.11456
389.64        82.73859
390.09         82.3174
390.54        81.87069
390.98        81.43786
391.43        81.09574
391.88        80.79601
392.33        80.46699
392.78        80.21225
393.23        80.00579
393.67        79.34801
394.12        78.49601
394.57        78.78752
395.02        78.92552
395.47        78.94814
395.91         78.4905
396.36        78.26935
396.81        78.29195
397.26        78.16007
397.71        77.90322
398.15        77.68233
398.60        77.58241
399.05        77.48837
399.50        77.38338
399.95        77.25031
400.39         77.0718
400.84        76.82846
401.29        76.56734
401.74         76.2109
402.18        75.88605
402.63        75.97849
403.08         76.3641
403.53        76.42374
403.97        76.09093
404.42        75.70353
404.87        75.37526
405.32        75.17155
405.76        75.11376
406.21        75.19434
406.66        75.30852
407.11        75.25272
407.55        75.01558
408.00        74.75594
408.45        74.53981
408.90         74.1515
409.34        73.71796
409.79        73.75949
410.24        74.14493
410.68        74.26541
411.13        74.06134
411.58        73.84605
412.03        73.70995
412.47        73.69352
412.92         73.7953
413.37        73.99726
413.81        74.18706
414.26         74.2646
414.71        74.18694
415.15        74.01392
415.60        73.77926
416.05        73.60997
416.49        73.55674
416.94        73.57282
417.39        73.64511
417.83        73.74995
418.28        73.85976
418.73        73.96196
419.17        74.04122
419.62        74.07512
420.07         74.0699
420.51        74.03485
420.96        73.95916
421.41        73.84302
421.85        73.68076
422.30        73.34249
422.74        72.95448
423.19        73.23619
423.64        74.00139
424.08         74.1993
424.53        73.74456
424.98        73.61536
425.42        73.86725
425.87        73.78246
426.31        73.43745
426.76        73.54005
427.21         74.0098
427.65        74.04507
428.10        73.64698
428.54        73.81415
428.99        73.84924
429.44        74.13506
429.88        74.31671
430.33        74.17096
430.77        73.76215
431.22        73.65986
431.66        73.89127
432.11        74.18887
432.56        74.54251
433.00        74.88367
433.45        74.94186
433.89        74.98975
434.34        75.09056
434.78          73.978
435.23        73.55562
435.67         73.9492
436.12        74.73194
436.57        75.01983
437.01        74.65248
437.46        74.64301
437.90        74.76129
438.35        75.65958
438.79        75.16244
439.24        75.24934
439.68        75.33926
440.13        75.53127
440.57        75.75638
441.02        75.90662
441.46        75.93733
441.91        75.77918
442.35        75.48365
442.80        75.64497
443.24        76.16183
443.69        76.32727
444.13        76.06829
444.58        76.32281
445.02         76.2755
445.47        76.25527
445.91        76.07293
446.36        76.01105
446.80        76.06778
447.24        76.15602
447.69        76.29052
448.13        76.31616
448.58        76.66325
449.02        76.48192
449.47        76.06025
449.91        75.92963
450.36        76.15453
450.80        76.40531
451.25        76.61786
451.69        76.80817
452.13        76.93108
452.58        76.92747
453.02        76.81842
453.47        76.67731
453.91        76.51295
454.36        76.40988
454.80        76.31939
455.24        75.97606
455.69        75.53075
456.13        75.37366
456.58        75.54762
457.02        75.66849
457.46        75.95837
457.91        75.73021
458.35        75.42936
458.79        75.20705
459.24        75.17413
459.68        75.08272
460.13        74.99239
460.57        74.75024
461.01        74.69385
461.46        74.76711
461.90        74.75428
462.34        74.51762
462.79        74.32971
463.23         74.2029
463.68        74.22845
464.12        74.13358
464.56        73.99046
465.01        74.11497
465.45        74.31639
465.89        74.48058
466.34        74.56197
466.78        74.09051
467.22        73.21252
467.67        73.59878
468.11        73.53777
468.55        73.64223
468.99        73.39122
469.44        73.35924
469.88        73.53497
470.32        73.61859
470.77        73.60287
471.21        73.59061
471.65        73.57877
472.10        73.55425
472.54        73.47767
472.98        73.37114
473.42        73.25186
473.87        73.02531
474.31        72.73788
474.75        72.84522
475.20        73.20982
475.64        73.10863
476.08          72.613
476.52        72.47071
476.97        72.69321
477.41         72.7962
477.85        72.84974
478.29        72.80014
478.74        73.02203
479.18        72.50898
479.62         72.3541
480.06        72.19918
480.50        72.36969
480.95        72.48631
481.39        72.36896
481.83        73.00787
482.27          72.686
482.72        72.38058
483.16        72.49689
483.60        72.32567
484.04        72.35876
484.48        72.43755
484.93        72.74889
485.37        72.73999
485.81        72.50773
486.25        72.89039
486.69        73.47211
487.14        72.34765
487.58         71.9666
488.02         72.5976
488.46        72.74677
488.90        72.80781
489.34        72.38029
489.79        71.45341
490.23        72.18029
490.67        72.12746
491.11        71.92254
491.55        71.83894
491.99         71.8823
492.43        71.89114
492.88        71.83214
493.32        71.77081
493.76        71.71145
494.20        71.75269
494.64         71.9222
495.08        72.03477
495.52        72.07986
495.96        72.41982
496.41        72.87797
496.85        72.55832
497.29        71.66561
497.73        71.48124
498.17        71.89093
498.61        72.10238
499.05        71.96655
499.49        71.90832
499.93        71.97127
500.37        71.86543
500.82         71.6181
501.26         71.8057
501.70        72.46229
502.14        71.70333
502.58        72.10712
503.02        72.01673
503.46        71.90038
503.90        71.76725
504.34        71.58451
504.78        71.52869
505.22        71.55196
505.66        71.57478
506.10         71.6328
506.54        71.65518
506.98        71.58427
507.42        72.12412
507.86        72.17474
508.30        71.90902
508.74        72.13309
509.18         71.9701
509.62        71.79332
510.06        71.65511
510.50        71.59774
510.94        71.58076
511.38        71.58437
511.82        71.60196
512.26        71.61883
512.70        71.64342
513.14        71.66823
513.58         71.6507
514.02        71.58455
514.46        71.52926
514.90        71.51326
515.34        71.33216
515.78         71.4062
516.22        71.39311
516.66        71.41555
517.10        71.46143
517.54        71.52531
517.98        71.60171
518.42         71.6593
518.86         71.6583
519.30        71.59399
519.74        71.48344
520.18        71.36462
520.62         71.2978
521.06        71.29931
521.50        71.35106
521.93        71.43674
522.37        71.51334
522.81        71.56918
523.25        71.61014
523.69        71.63046
524.13        71.62204
524.57        71.58616
525.01        71.52472
525.45        71.44968
525.89        71.38268
526.32        71.32835
526.76        71.29872
527.20        71.28825
527.64        71.30693
528.08        71.35273
528.52        71.38046
528.96        71.39132
529.40        71.47659
529.83        71.58202
530.27        71.52065
530.71        71.31824
531.15        71.20164
531.59        71.18918
532.03        71.15811
532.46        71.10184
532.90        71.08514
533.34        71.10081
533.78        71.13488
534.22        71.16577
534.66        71.15934
535.09        71.10027
535.53        71.01884
535.97        70.92876
536.41        70.86827
536.85         70.8484
537.28        70.86403
537.72        70.89496
538.16        70.89756
538.60        70.86651
539.04        70.82996
539.47        70.79425
539.91        70.80891
540.35         70.8615
540.79        70.94934
541.22        71.03317
541.66        71.06015
542.10        71.01703
542.54        70.92393
542.97        70.81105
543.41        70.76563
543.85        70.78809
544.29        70.85754
544.72        70.92859
545.16        70.95253
545.60        70.90092
546.04        70.83416
546.47        70.77335
546.91        70.66531
547.35        70.57096
547.79        70.68468
548.22        70.90521
548.66        70.99211
549.10        70.88412
549.53        70.64612
549.97        70.38611
550.41        70.29288
550.84        70.38937
551.28        70.62472
551.72        70.91817
552.15         71.0145
552.59        70.86386
553.03        71.07226
553.46        70.69283
553.90        70.62643
554.34        70.58847
554.77        70.59631
555.21        70.60554
555.65         70.5928
556.08        70.47808
556.52        70.51082
556.96        70.62216
557.39        70.59663
557.83        70.46299
558.27        70.40061
558.70        70.42747
559.14        70.33452
559.57        70.38776
560.01        70.38268
560.45        70.39896
560.88        70.52567
561.32         70.7512
561.75        70.76386
562.19          70.617
562.63        70.62804
563.06        70.75777
563.50        70.66367
563.93        70.39257
564.37        70.32965
564.80        70.46059
565.24        70.64651
565.68        70.81241
566.11        70.84595
566.55        70.82072
566.98        70.76175
567.42        70.86209
567.85         70.7756
568.29        70.63968
568.72        70.49638
569.16        70.38835
569.60        70.50011
570.03        70.77245
570.47        70.52431
570.90        70.56057
571.34        71.15044
571.77        70.99853
572.21        70.75214
572.64         70.7751
573.08        70.80419
573.51         70.2652
573.95        70.75002
574.38        70.59052
574.82        70.90902
