SpectraSmart Spectrum 2.9.0.0
--------- Device Information -----------
Spectrum Name :  反射率_0
Saving Time :  2024/04/27 23:45:33
Spectro-Module Model Name : SE2030-DUVN
Spectro-Module Serial Number : OS361AC55029948
Wavelength Start : 200
Wavelength End : 1025
Wavelength Unit : Wavelength(nm)
Spectrum Unit : Reflectance(%)
-----------Spectrum Setting ------------
Integration Time : 20ms
Average : 10
Boxcar : 0
Background removal :  enabled
linearity correction :  enabled
SC :  disabled
Intensity correction :  disabled
DWT denoise :  enabled
savitzky-golay :  disabled
FFT :  disabled
Running average :  disabled
Kalman :  disabled
High pass :  disabled
---------------BEGIN--------------------
Wavelength(nm)             Reflectance(%)
200.29               0
200.75        156.8272
201.21        151.0553
201.67        138.5379
202.13        127.1479
202.58        116.7662
203.04        106.5345
203.50         98.4578
203.96        96.73471
204.42        100.6407
204.88        107.0991
205.34        113.5198
205.80         117.972
206.26        120.5215
206.72        122.2236
207.18        121.4839
207.64         114.677
208.10        104.8372
208.55        97.30585
209.01        92.71133
209.47         89.4528
209.93        85.70647
210.39        78.71898
210.85         62.3692
211.31        57.69117
211.77        91.90249
212.23        105.3978
212.69        108.3373
213.14        108.3257
213.60        106.0439
214.06        101.2858
214.52        92.26913
214.98        82.61974
215.44        80.39259
215.90        82.66658
216.36        86.58908
216.81        91.15965
217.27        96.30506
217.73          102.46
218.19        107.9053
218.65        109.2015
219.11        105.3244
219.57        96.73276
220.02        85.55602
220.48        79.00389
220.94        79.76427
221.40        85.08337
221.86        91.75565
222.32         96.5172
222.77        98.77692
223.23        99.74244
223.69        99.51845
224.15        98.01334
224.61        95.41874
225.06        91.61044
225.52        87.62038
225.98        85.45271
226.44        85.55679
226.90          86.846
227.36        88.37806
227.81        89.35422
228.27         89.9176
228.73        90.28053
229.19        90.29408
229.65        89.66192
230.10        88.32543
230.56        86.62659
231.02        85.08121
231.48        84.51544
231.93        84.91508
232.39        86.18283
232.85        87.68288
233.31        88.63341
233.77        88.91552
234.22        88.81712
234.68        88.72948
235.14        89.19363
235.60        90.37304
236.05        92.20776
236.51        94.45322
236.97        96.45761
237.43        97.75505
237.88        98.49453
238.34        98.83685
238.80        99.77656
239.26        101.8226
239.71        105.7888
240.17        111.3871
240.63        115.0251
241.08        113.1115
241.54        107.7025
242.00        103.3299
242.46        102.2185
242.91        104.4756
243.37        110.9687
243.83        125.2564
244.28        144.2847
244.74        146.2348
245.20        130.5926
245.66         115.489
246.11        108.1017
246.57        106.0418
247.03        107.2416
247.48        112.0276
247.94        118.0684
248.40         121.643
248.85        123.6123
249.31        124.9829
249.77        126.3843
250.22        127.8176
250.68         128.819
251.14        129.9242
251.59        132.2548
252.05        136.4998
252.51        143.4631
252.96        152.2019
253.42        156.5749
253.88        152.8844
254.33        144.2859
254.79        137.5198
255.25        135.0015
255.70        135.1505
256.16        137.2775
256.62        138.9453
257.07        137.8938
257.53        135.5853
257.99        132.7277
258.44        130.1479
258.90         129.482
259.35        129.6582
259.81         130.653
260.27        131.3181
260.72        130.5305
261.18        129.0135
261.63        126.6814
262.09        124.5688
262.55        122.8771
263.00        121.4216
263.46        120.3283
263.91        119.0558
264.37        117.6631
264.83         116.019
265.28         114.173
265.74        112.4736
266.19        110.7877
266.65        109.2852
267.11          107.83
267.56        106.3687
268.02        105.0173
268.47        103.7023
268.93        102.4418
269.38        101.1841
269.84        99.93164
270.30        98.64769
270.75        97.32273
271.21        95.91872
271.66        94.27553
272.12        92.43834
272.57        90.40698
273.03        88.40989
273.48        86.65009
273.94        85.27805
274.39        84.13299
274.85        83.16407
275.31        82.08485
275.76        80.79311
276.22        79.46421
276.67        78.08367
277.13        76.88168
277.58        75.76838
278.04        74.76654
278.49        73.71709
278.95        72.63964
279.40        71.42778
279.86         70.2332
280.31        68.99009
280.77        67.83752
281.22        66.71912
281.68        65.72003
282.13        64.79519
282.59        64.04601
283.04        63.39881
283.50        62.89499
283.95         62.4258
284.41        61.94476
284.86        61.40232
285.32        60.87761
285.77         60.3938
286.22        60.09522
286.68         60.0085
287.13        60.00675
287.59        60.05087
288.04        59.95362
288.50        59.72871
288.95        59.37571
289.41        58.98208
289.86        58.57228
290.32         58.2309
290.77        57.94423
291.22         57.7594
291.68        57.72026
292.13        57.82728
292.59        58.12355
293.04        58.62045
293.50        59.38096
293.95        60.36852
294.40        61.54193
294.86        62.83922
295.31        64.15183
295.77        65.45073
296.22        66.73688
296.68        67.98508
297.13        69.12533
297.58        70.16827
298.04          71.151
298.49        72.16403
298.95        73.42737
299.40        74.95587
299.85        76.69833
300.31        78.56346
300.76        80.32629
301.21        81.91729
301.67        83.41359
302.12        84.76807
302.58        86.05212
303.03        87.24792
303.48        88.38426
303.94        89.59076
304.39        90.94782
304.84        92.50565
305.30        94.24766
305.75        96.00353
306.20        97.63154
306.66        99.11491
307.11        100.4358
307.57        101.7046
308.02        102.9497
308.47        104.2076
308.93        105.4573
309.38        106.6097
309.83        107.6597
310.29        108.6299
310.74         109.519
311.19        110.3591
311.65        111.1641
312.10        111.9094
312.55        112.5961
313.00         113.265
313.46        113.9901
313.91         114.755
314.36        115.5474
314.82          116.28
315.27        116.8076
315.72        117.1028
316.18        117.2323
316.63        117.2709
317.08        117.3826
317.53        117.6179
317.99        117.9278
318.44        118.2891
318.89        118.6302
319.35        118.9236
319.80        119.2065
320.25        119.4678
320.70        119.6947
321.16        119.8755
321.61        120.0202
322.06        120.1568
322.51        120.3516
322.97        120.5931
323.42        120.9004
323.87        121.1939
324.32        121.3647
324.78        121.3758
325.23        121.3171
325.68        121.2387
326.13        121.2571
326.59        121.3823
327.04        121.6293
327.49        121.9633
327.94        122.3661
328.39        122.8147
328.85        123.2763
329.30        123.7605
329.75        124.0951
330.20        124.2499
330.66        124.2219
331.11        124.1958
331.56        124.3459
332.01        124.7381
332.46        125.3316
332.92        125.9718
333.37        126.5585
333.82        126.9716
334.27         127.249
334.72        127.4866
335.17        127.8498
335.63        128.3447
336.08         128.973
336.53        129.5777
336.98        129.9577
337.43        130.0718
337.88        129.9987
338.34        129.8685
338.79        129.9525
339.24        130.3035
339.69        130.8553
340.14        131.5094
340.59        132.0968
341.05         132.567
341.50        132.9874
341.95        133.3823
342.40        133.8094
342.85        134.2806
343.30        134.7337
343.75        135.1891
344.20         135.693
344.66        136.2363
345.11        136.8093
345.56        137.2685
346.01        137.3787
346.46        137.1262
346.91        136.6055
347.36        136.0733
347.81        135.9238
348.26        136.2275
348.72        136.8512
349.17         137.551
349.62        137.9548
350.07         137.955
350.52        137.6787
350.97        137.2429
351.42        136.8354
351.87        136.5359
352.32        136.2826
352.77        136.0893
353.22        135.9882
353.67        135.9544
354.13         135.977
354.58        135.9435
355.03        135.7325
355.48         135.298
355.93         134.666
356.38         133.858
356.83        132.9163
357.28        131.8868
357.73        130.8008
358.18         129.715
358.63        128.7057
359.08        127.8043
359.53        127.0034
359.98        126.3127
360.43        125.7371
360.88        125.2457
361.33        124.8042
361.78        124.3339
362.23        123.7064
362.68        122.8901
363.13         121.944
363.58        120.9103
364.03        119.7723
364.48        118.7244
364.93        117.6464
365.38         116.634
365.83        115.7574
366.28        115.0221
366.73        114.4059
367.18        113.8325
367.63        113.1754
368.08        112.4005
368.53        111.5402
368.98        110.6405
369.43        109.7823
369.88        108.9926
370.33        108.2452
370.78        107.5291
371.23        106.8284
371.68        106.1317
372.13        105.4458
372.58        104.7653
373.03        104.0785
373.48        103.3866
373.93        102.6981
374.38        102.0119
374.83        101.3248
375.28        100.6396
375.72         99.9388
376.17        99.28292
376.62         98.6941
377.07        98.17008
377.52        97.68399
377.97        97.20007
378.42        96.66536
378.87        96.06921
379.32        95.44234
379.77        94.78644
380.22        94.09618
380.67        93.38412
381.11        92.66215
381.56        91.98987
382.01        91.47897
382.46        91.15584
382.91        90.98835
383.36        90.88988
383.81        90.72012
384.26        90.43462
384.71        90.06139
385.15        89.63449
385.60        89.27569
386.05        88.99011
386.50        88.74522
386.95        88.49535
387.40        88.18098
387.85        87.79714
388.29         87.3209
388.74        86.90003
389.19        86.53684
389.64        86.22565
390.09        85.92645
390.54        85.61073
390.98        85.23436
391.43        84.86174
391.88        84.47552
392.33        84.05179
392.78        83.76555
393.23        83.60789
393.67        83.04716
394.12         82.3154
394.57         82.7484
395.02        82.97626
395.47        83.07586
395.91        82.67061
396.36        82.50224
396.81        82.57768
397.26        82.48484
397.71        82.22429
398.15        81.92651
398.60        81.69219
399.05        81.40806
399.50          81.117
399.95        80.94151
400.39        80.86395
400.84        80.68304
401.29        80.41872
401.74        80.18512
402.18        80.01999
402.63        79.92374
403.08        79.86528
403.53        79.70717
403.97         79.4446
404.42        79.19717
404.87        78.95499
405.32        78.74019
405.76        78.56397
406.21          78.261
406.66        77.93127
407.11        78.12907
407.55        78.70115
408.00        78.67902
408.45        78.09098
408.90        77.65324
409.34         77.4884
409.79        77.50742
410.24        77.61453
410.68         77.5703
411.13        77.34771
411.58        77.14546
412.03        77.02284
412.47        76.98334
412.92        77.01283
413.37        77.12451
413.81        77.24091
414.26        77.30258
414.71        77.27209
415.15        77.19387
415.60        77.06363
416.05        76.94686
416.49        76.87534
416.94        76.81895
417.39         76.7925
417.83        76.81895
418.28        76.88201
418.73        76.95073
419.17        77.00372
419.62        77.00904
420.07        76.97942
420.51        76.94197
420.96        76.87009
421.41        76.77351
421.85        76.64806
422.30        76.24374
422.74        75.75708
423.19        76.26136
423.64        77.47451
424.08        77.74475
424.53        76.97203
424.98        76.69527
425.42        77.00137
425.87        76.76153
426.31         76.1332
426.76        76.25404
427.21        76.97084
427.65        77.04562
428.10        76.52245
428.54        76.41397
428.99        76.76266
429.44        77.10503
429.88          77.304
430.33        77.15521
430.77        76.72243
431.22        76.74166
431.66        77.17072
432.11         77.2392
432.56        77.04832
433.00        77.40696
433.45        78.01979
433.89        78.03745
434.34        77.63926
434.78        76.21551
435.23        77.29172
435.67        76.66706
436.12        77.34053
436.57        77.37611
437.01        77.49154
437.46        77.52666
437.90        77.98438
438.35        78.61503
438.79        78.65461
439.24        78.74461
439.68        78.68371
440.13        78.51804
440.57        78.30782
441.02        78.40682
441.46         78.6899
441.91        78.45422
442.35        77.83105
442.80        77.99444
443.24        78.76512
443.69        78.97174
444.13        78.58472
444.58        78.50724
445.02        78.72112
445.47        78.76464
445.91        78.65011
446.36        78.65235
446.80        78.76649
447.24        78.92033
447.69        79.09486
448.13        79.25257
448.58        79.37077
449.02        79.38827
449.47        79.35287
449.91        79.35351
450.36        79.42415
450.80        79.48961
451.25        79.53551
451.69        79.54166
452.13          79.493
452.58        79.34381
453.02         79.1449
453.47        79.01461
453.91        78.95802
454.36        79.04139
454.80        79.16049
455.24        78.92905
455.69        78.45361
456.13        78.25458
456.58        78.41939
457.02        78.34833
457.46        78.28879
457.91        78.47547
458.35        77.88802
458.79        77.71936
459.24         77.6878
459.68        77.55067
460.13        77.31254
460.57        77.17667
461.01        77.42361
461.46        76.73072
461.90        76.99113
462.34        76.98331
462.79        77.00735
463.23        76.95906
463.68        76.78484
464.12        76.57346
464.56        76.39993
465.01        76.44379
465.45         76.5252
465.89        76.60892
466.34        76.66227
466.78        76.20161
467.22        75.34025
467.67        75.88576
468.11        75.62206
468.55        75.92913
468.99         76.0392
469.44         76.1339
469.88        76.17043
470.32        76.06789
470.77        75.87981
471.21        75.70763
471.65        75.57541
472.10        75.46794
472.54        75.36462
472.98        75.27773
473.42        75.20654
473.87        75.16029
474.31        75.09936
474.75        75.09415
475.20        75.09532
475.64        75.02732
476.08        74.90556
476.52        74.80654
476.97        74.71452
477.41         74.9759
477.85        74.68516
478.29        74.82679
478.74         75.1608
479.18        74.57427
479.62        74.96045
480.06        74.80666
480.50         74.6692
480.95        74.53555
481.39        74.42139
481.83        74.31058
482.27        74.10477
482.72        74.43989
483.16        74.33133
483.60        74.40382
484.04        74.33247
484.48        74.38626
484.93        74.20319
485.37        74.40446
485.81        74.55863
486.25        74.94328
486.69        74.78261
487.14         73.8328
487.58        73.98777
488.02        74.14944
488.46        74.47668
488.90        74.65828
489.34        74.01268
489.79        73.31442
490.23        73.86868
490.67        73.81715
491.11        73.59209
491.55        73.50637
491.99        73.57028
492.43        73.60384
492.88        73.57555
493.32        73.55459
493.76        73.52676
494.20        73.55725
494.64        73.68151
495.08        73.72394
495.52        73.68679
495.96        74.02802
496.41        74.56011
496.85        74.16583
497.29        73.13869
497.73         73.1595
498.17        74.01431
498.61          74.441
499.05         74.2233
499.49        73.84832
499.93         73.4874
500.37         73.3992
500.82        73.52251
501.26        73.42328
501.70        73.48206
502.14        72.68122
502.58        73.63754
503.02        73.78499
503.46        73.55387
503.90        73.34366
504.34        73.27419
504.78        73.24919
505.22        73.26151
505.66         73.3135
506.10        73.40693
506.54        73.37688
506.98        73.15854
507.42        73.67411
507.86        73.31462
508.30        73.29021
508.74        73.30585
509.18        73.24715
509.62        73.17184
510.06        73.11727
510.50        73.10785
510.94        73.12261
511.38        73.14251
511.82        73.13634
512.26        73.09455
512.70        73.02601
513.14        72.96698
513.58        72.94862
514.02        72.97596
514.46        73.08881
514.90        73.25058
515.34        73.14292
515.78        73.17224
516.22         73.0219
516.66        72.88304
517.10        72.84766
517.54         72.9388
517.98         73.1208
518.42        73.31429
518.86        73.39991
519.30        73.34898
519.74        73.20964
520.18        73.05677
520.62        72.98452
521.06        73.03245
521.50        73.21284
521.93        73.45383
522.37        73.58283
522.81        73.57087
523.25        73.47884
523.69        73.37156
524.13        73.33735
524.57        73.39656
525.01        73.51512
525.45         73.6291
525.89        73.64044
526.32        73.52405
526.76        73.33347
527.20        73.12378
527.64        72.98854
528.08        72.95352
528.52        72.98586
528.96        73.05465
529.40        73.11166
529.83         73.1315
530.27        73.14448
530.71        73.13867
531.15        73.10418
531.59        73.04436
532.03        72.95902
532.46         72.8681
532.90         72.8302
533.34         72.8493
533.78        72.91185
534.22        72.98555
534.66        73.01971
535.09        72.99272
535.53        72.93887
535.97        72.87072
536.41        72.82587
536.85        72.81429
537.28        72.82729
537.72        72.84604
538.16        72.83097
538.60        72.77879
539.04        72.72025
539.47          72.659
539.91        72.63994
540.35        72.65199
540.79        72.69677
541.22         72.7455
541.66        72.76235
542.10        72.73556
542.54        72.67644
542.97        72.60433
543.41        72.59116
543.85         72.6338
544.29        72.71637
544.72        72.78899
545.16        72.81293
545.60        72.76212
546.04        72.64705
546.47        72.51093
546.91        72.43707
547.35        72.43437
547.79        72.47992
548.22        72.50777
548.66        72.45821
549.10        72.32532
549.53        72.21988
549.97        72.18971
550.41        72.20234
550.84        72.26279
551.28        72.44138
551.72        72.68563
552.15        72.68064
552.59         72.7385
553.03        72.62256
553.46         72.4725
553.90        72.42364
554.34          72.488
554.77        72.58899
555.21        72.65562
555.65        72.73025
556.08        72.65835
556.52        72.34108
556.96        71.88882
557.39        71.82287
557.83        72.12803
558.27        72.27167
558.70        72.20705
559.14        72.23547
559.57        72.32589
560.01        72.32246
560.45        72.23607
560.88        72.18553
561.32        72.22897
561.75        72.24993
562.19        72.27779
562.63        72.37151
563.06        72.48288
563.50        72.46636
563.93        72.32436
564.37        72.25443
564.80        72.24956
565.24        72.27516
565.68        72.31082
566.11        72.33018
566.55        72.36475
566.98        72.41741
567.42        72.49229
567.85         72.5624
568.29         72.6428
568.72        72.51503
569.16        72.26849
569.60        72.25506
570.03        72.51569
570.47        72.26503
570.90        72.39172
571.34        72.63564
571.77        72.77881
572.21        72.29488
572.64         72.6479
573.08        72.29527
573.51        72.15392
573.95        72.36698
574.38        72.79937
574.82        71.92815
