SpectraSmart Spectrum 2.9.0.0
--------- Device Information -----------
Spectrum Name :  反射率_0
Saving Time :  2024/04/27 23:52:18
Spectro-Module Model Name : SE2030-DUVN
Spectro-Module Serial Number : OS361AC55029948
Wavelength Start : 200
Wavelength End : 1025
Wavelength Unit : Wavelength(nm)
Spectrum Unit : Reflectance(%)
-----------Spectrum Setting ------------
Integration Time : 20ms
Average : 10
Boxcar : 0
Background removal :  enabled
linearity correction :  enabled
SC :  disabled
Intensity correction :  disabled
DWT denoise :  enabled
savitzky-golay :  disabled
FFT :  disabled
Running average :  disabled
Kalman :  disabled
High pass :  disabled
---------------BEGIN--------------------
Wavelength(nm)             Reflectance(%)
200.29               0
200.75        127.0713
201.21        139.3931
201.67        139.3055
202.13        128.5528
202.58        110.9883
203.04        90.05577
203.50         72.3517
203.96        68.53777
204.42        77.73141
204.88        92.64742
205.34        107.4243
205.80        118.1009
206.26        125.1621
206.72        131.2561
207.18        135.1907
207.64        130.9093
208.10        119.6057
208.55        108.4359
209.01        100.8169
209.47        95.77776
209.93        90.84119
210.39        82.37066
210.85          63.519
211.31        59.53305
211.77        99.69322
212.23        115.3414
212.69        118.2156
213.14        116.7703
213.60        111.4721
214.06        100.4349
214.52        80.48952
214.98        61.95148
215.44        61.37475
215.90        70.32743
216.36        79.23872
216.81        84.10285
217.27        85.94068
217.73        86.85466
218.19        87.02671
218.65        86.26891
219.11        84.77736
219.57         82.2279
220.02        79.61984
220.48        80.50576
220.94        85.04637
221.40        91.32178
221.86        97.01674
222.32        100.0759
222.77        100.5932
223.23        99.68829
223.69         98.0602
224.15        96.35337
224.61        94.68662
225.06        92.68121
225.52        90.88871
225.98         90.0075
226.44        90.22517
226.90        91.24256
227.36        92.33012
227.81        92.82518
228.27        92.95319
228.73         92.6871
229.19        92.55929
229.65        93.54678
230.10        95.56826
230.56        98.29237
231.02        100.4292
231.48        100.4321
231.93        98.22417
232.39        94.83782
232.85        91.34196
233.31        89.33026
233.77        89.09214
234.22        90.02111
234.68        91.56055
235.14        92.99932
235.60        94.12829
236.05         95.2194
236.51        96.22507
236.97         97.0107
237.43        97.45405
237.88        97.60639
238.34        97.29581
238.80        96.91129
239.26        96.51187
239.71        96.18468
240.17        95.71843
240.63        95.92135
241.08        97.14429
241.54        98.45212
242.00        99.41272
242.46        99.93542
242.91        100.3415
243.37        100.6227
243.83        100.6425
244.28        99.42907
244.74        96.00741
245.20        92.80057
245.66        91.89093
246.11        93.13918
246.57        96.47166
247.03        103.2709
247.48        114.0578
247.94         122.384
248.40        121.1844
248.85        113.8848
249.31        106.7455
249.77        104.8279
250.22         107.277
250.68        111.3209
251.14         115.944
251.59        121.2295
252.05        127.9324
252.51        137.3277
252.96        148.4429
253.42        153.8902
253.88        149.1409
254.33        138.4545
254.79        128.8335
255.25        122.6365
255.70        118.7229
256.16        116.6121
256.62        115.4676
257.07        114.6948
257.53        114.6442
257.99         114.671
258.44         114.094
258.90        113.1104
259.35        111.2325
259.81        109.3507
260.27        107.3714
260.72        105.3464
261.18        103.8751
261.63        102.3732
262.09        101.2527
262.55        100.2542
263.00        99.14964
263.46        98.18443
263.91        97.02811
264.37        95.86012
264.83        94.58401
265.28        93.17954
265.74        91.81297
266.19         90.2474
266.65        88.62463
267.11        86.89861
267.56        85.19048
268.02        83.84933
268.47        82.85973
268.93         82.1556
269.38        81.51208
269.84        80.63839
270.30        79.44165
270.75        78.00546
271.21        76.45992
271.66        74.92652
272.12         73.4922
272.57        72.05521
273.03        70.67364
273.48         69.3157
273.94        68.06612
274.39        66.88912
274.85        65.81741
275.31        64.71889
275.76        63.54564
276.22        62.39465
276.67          61.273
277.13        60.39031
277.58        59.66125
278.04          59.092
278.49        58.47428
278.95        57.70536
279.40        56.68438
279.86        55.57325
280.31        54.41151
280.77        53.45243
281.22        52.67273
281.68        52.08731
282.13        51.57138
282.59        51.07782
283.04        50.52628
283.50          49.978
283.95        49.42947
284.41        48.96363
284.86        48.56297
285.32        48.25308
285.77        47.94607
286.22        47.60088
286.68        47.22885
287.13        46.79014
287.59        46.40773
288.04        46.15483
288.50        46.08361
288.95        46.12209
289.41        46.17793
289.86         46.0287
290.32        45.69228
290.77        45.23381
291.22        44.84243
291.68        44.78358
292.13        45.09725
292.59        45.73041
293.04         46.5407
293.50        47.34624
293.95         48.0738
294.40        48.78729
294.86        49.57442
295.31        50.55649
295.77        51.77281
296.22        53.15953
296.68        54.63446
297.13        56.03488
297.58        57.32891
298.04        58.57981
298.49        59.86854
298.95        61.38128
299.40        63.14378
299.85        65.10465
300.31        67.20886
300.76        69.29927
301.21        71.31492
301.67         73.3035
302.12        75.19704
302.58        77.01764
303.03        78.74325
303.48        80.41556
303.94        82.15681
304.39        84.04615
304.84        86.13415
305.30        88.39882
305.75        90.70577
306.20        92.96143
306.66        95.15013
307.11        97.23714
307.57        99.26884
308.02        101.1759
308.47        102.9697
308.93        104.6508
309.38        106.1951
309.83        107.7029
310.29        109.2195
310.74        110.7097
311.19        112.1371
311.65        113.4026
312.10        114.4521
312.55        115.3238
313.00        116.1261
313.46        117.0376
313.91        118.0733
314.36        119.1999
314.82        120.2767
315.27        121.0707
315.72         121.534
316.18        121.7581
316.63        121.8877
317.08        122.1981
317.53        122.7535
317.99        123.4597
318.44        124.1949
318.89        124.7293
319.35        125.0063
319.80        125.1312
320.25        125.1858
320.70        125.3051
321.16        125.5264
321.61        125.8124
322.06        126.1749
322.51         126.653
322.97         127.203
323.42        127.8491
323.87        128.4406
324.32        128.7511
324.78        128.7183
325.23        128.4603
325.68        128.1139
326.13        127.9509
326.59        128.0332
327.04        128.3522
327.49        128.8172
327.94        129.3104
328.39        129.7771
328.85        130.2058
329.30        130.6609
329.75        131.0484
330.20        131.3491
330.66        131.5186
331.11        131.6577
331.56        131.8071
332.01        132.0032
332.46        132.2477
332.92        132.4765
333.37         132.759
333.82        133.0328
334.27        133.3029
334.72        133.6115
335.17        134.0234
335.63        134.5121
336.08        135.1201
336.53        135.7173
336.98        136.1437
337.43        136.3708
337.88         136.451
338.34        136.4939
338.79        136.7549
339.24        137.2632
339.69        137.9347
340.14         138.667
340.59        139.2884
341.05        139.7456
341.50        140.1204
341.95        140.3948
342.40        140.5591
342.85         140.638
343.30        140.6081
343.75        140.6287
344.20        140.9618
344.66        141.6386
345.11        142.5808
345.56        143.4829
346.01        143.8471
346.46        143.5868
346.91        142.8676
347.36        142.0601
347.81        141.7389
348.26        142.0265
348.72        142.7374
349.17        143.5519
349.62        143.9863
350.07        143.9027
350.52        143.4606
350.97        142.8592
351.42          142.41
351.87         142.209
352.32        142.1477
352.77        142.1169
353.22        141.9613
353.67         141.632
354.13         141.198
354.58        140.6918
355.03        140.2233
355.48        139.8082
355.93        139.3962
356.38        138.9173
356.83        138.2676
357.28        137.4381
357.73        136.4987
358.18        135.5085
358.63        134.5494
359.08        133.6581
359.53        132.8065
359.98         132.034
360.43        131.4032
360.88        130.8949
361.33        130.4729
361.78          130.01
362.23        129.2896
362.68        128.2705
363.13        127.0511
363.58        125.7561
364.03        124.4762
364.48        123.4644
364.93        122.5252
365.38        121.6807
365.83        120.8682
366.28        120.0584
366.73        119.2703
367.18        118.4796
367.63        117.6444
368.08         116.762
368.53        115.8431
368.98        114.9181
369.43        114.0438
369.88        113.2382
370.33        112.4847
370.78        111.7823
371.23        111.1261
371.68        110.5019
372.13        109.9046
372.58        109.2975
373.03        108.6249
373.48        107.8755
373.93        107.0631
374.38        106.2248
374.83        105.4185
375.28        104.6625
375.72        103.9301
376.17        103.2362
376.62        102.5264
377.07        101.7934
377.52        101.0451
377.97        100.3223
378.42         99.6887
378.87        99.15168
379.32         98.6938
379.77        98.24056
380.22        97.67242
380.67        96.97141
381.11        96.18532
381.56        95.40598
382.01        94.80107
382.46        94.41982
382.91        94.20998
383.36        94.08982
383.81        93.92869
384.26        93.67848
384.71        93.36748
385.15        93.00013
385.60        92.65122
386.05        92.31121
386.50        91.95087
386.95        91.55992
387.40        91.13537
387.85        90.68962
388.29        90.19742
388.74        89.75617
389.19        89.28525
389.64        88.77128
390.09        88.19765
390.54        87.64146
390.98        87.21207
391.43        86.98845
391.88         86.9273
392.33        86.84451
392.78        86.59039
393.23        86.18224
393.67        85.38099
394.12        84.48108
394.57        84.76094
395.02        84.82988
395.47        84.81694
395.91        84.34653
396.36        84.16039
396.81        84.26493
397.26        84.24483
397.71         84.0466
398.15        83.76858
398.60        83.51093
399.05        83.04637
399.50        82.51463
399.95        82.44148
400.39         82.7021
400.84        82.45781
401.29        81.75924
401.74        81.31094
402.18        81.20607
402.63        81.16349
403.08         81.1198
403.53        80.99534
403.97        80.76733
404.42        80.54263
404.87        80.34039
405.32        80.18966
405.76        80.09138
406.21        79.94799
406.66        79.76546
407.11        79.78403
407.55        79.90687
408.00        79.59891
408.45         78.9544
408.90        78.43918
409.34        78.18884
409.79        78.27399
410.24        78.56467
410.68        78.68602
411.13        78.57738
411.58        78.46054
412.03        78.38866
412.47        78.36013
412.92        78.36334
413.37        78.40948
413.81        78.43194
414.26        78.39684
414.71        78.27335
415.15         78.0973
415.60        77.88622
416.05        77.74034
416.49        77.69473
416.94        77.71621
417.39        77.75964
417.83        77.74824
418.28        77.65633
418.73        77.49155
419.17        77.32001
419.62        77.25307
420.07        77.32517
420.51        77.49857
420.96        77.67837
421.41        77.74271
421.85        77.64599
422.30          77.258
422.74        76.75693
423.19        77.01524
423.64        77.83549
424.08        77.98301
424.53        77.36598
424.98        77.13796
425.42        77.37168
425.87        77.18921
426.31        76.72206
426.76        76.93509
427.21        77.65398
427.65        77.68964
428.10        77.10969
428.54        76.90759
428.99        77.12977
429.44         77.4333
429.88        77.62376
430.33        77.18516
430.77        76.33573
431.22         76.2767
431.66        76.91544
432.11        77.18684
432.56         77.1607
433.00        77.42493
433.45        77.66178
433.89        78.03235
434.34        78.64887
434.78        76.29764
435.23        76.60349
435.67         76.9116
436.12         77.8533
436.57        78.22266
437.01        77.89732
437.46        77.58402
437.90        77.71949
438.35        78.59267
438.79        77.78134
439.24        77.73817
439.68        77.76956
440.13        77.83717
440.57        77.93058
441.02        78.28445
441.46         78.7188
441.91          78.641
442.35        78.12123
442.80        78.02816
443.24        78.30325
443.69        78.40192
444.13        78.29195
444.58        78.30476
445.02        78.41354
445.47        78.50343
445.91        78.54767
446.36        78.58571
446.80        78.59785
447.24        78.57263
447.69        78.55234
448.13        78.61361
448.58        78.74706
449.02         78.8113
449.47        78.82375
449.91        78.86835
450.36        78.96438
450.80        79.02843
451.25        79.05143
451.69        79.03504
452.13        78.96719
452.58        78.78607
453.02        78.55859
453.47        78.43182
453.91         78.4219
454.36        78.59809
454.80        78.81388
455.24        78.64125
455.69        78.19576
456.13        77.87057
456.58        77.84538
457.02        77.88834
457.46        78.55935
457.91        78.31955
458.35        77.57255
458.79        77.18291
459.24        77.25098
459.68        77.13304
460.13        76.82733
460.57        76.76192
461.01        76.89297
461.46        76.41016
461.90        76.69653
462.34        76.68015
462.79         77.2734
463.23        77.27729
463.68        76.89722
464.12        76.60377
464.56        76.48301
465.01        76.44493
465.45        76.33941
465.89        76.31316
466.34        76.37662
466.78        76.03464
467.22        75.34637
467.67        76.10399
468.11        75.90685
468.55        76.05044
468.99         75.8303
469.44        75.77946
469.88        75.89343
470.32        75.90347
470.77        75.82904
471.21        75.79033
471.65        75.79272
472.10        75.82123
472.54        75.81511
472.98        75.75836
473.42        75.65923
473.87        75.43938
474.31        75.15609
474.75        75.26962
475.20        75.63139
475.64        75.57485
476.08        75.17737
476.52        75.02764
476.97        75.10787
477.41        75.63974
477.85        75.42907
478.29        75.52222
478.74        75.68134
479.18        75.07991
479.62        75.33552
480.06        75.25666
480.50         75.3422
480.95        75.39558
481.39        75.28974
481.83        75.75898
482.27        75.41531
482.72        75.24457
483.16         75.2165
483.60        75.09637
484.04        75.00948
484.48        74.85382
484.93        74.86994
485.37        75.20136
485.81        75.81544
486.25         76.0346
486.69        75.59238
487.14        74.45834
487.58        75.05071
488.02        75.38753
488.46         75.7018
488.90        76.23852
489.34        75.64709
489.79        74.66549
490.23        75.11535
490.67        75.03323
491.11        75.01092
491.55        74.97379
491.99        74.94942
492.43         75.0294
492.88         75.1763
493.32        75.29984
493.76        75.36494
494.20        75.46452
494.64        75.61234
495.08        75.68877
495.52        75.70541
495.96        75.90559
496.41        76.19182
496.85        76.06957
497.29        75.48402
497.73        75.52678
498.17        75.96346
498.61        76.00996
499.05         75.6137
499.49        75.43959
499.93        75.52141
500.37        75.41264
500.82        75.17701
501.26        74.99443
501.70        75.99151
502.14        75.20855
502.58        75.66516
503.02         75.6314
503.46        75.59814
503.90         75.5452
504.34        75.41367
504.78        75.39907
505.22        75.47176
505.66        75.47226
506.10        75.40636
506.54        75.47472
506.98        75.69294
507.42        75.63843
507.86        75.88293
508.30        75.91947
508.74        75.91722
509.18        75.86678
509.62        75.79359
510.06        75.73009
510.50        75.68491
510.94        75.65726
511.38        75.64615
511.82        75.64769
512.26        75.65726
512.70         75.6804
513.14         75.7132
513.58         75.7176
514.02        75.68686
514.46        75.68327
514.90        75.72677
515.34        75.58266
515.78        75.69073
516.22        75.69113
516.66        75.72074
517.10        75.78014
517.54        75.86578
517.98        75.96548
518.42         76.0401
518.86        76.03852
519.30        75.95396
519.74         75.8106
520.18        75.64981
520.62        75.53638
521.06        75.49014
521.50        75.49165
521.93        75.53532
522.37         75.5937
522.81        75.65824
523.25        75.73392
523.69        75.79446
524.13        75.79794
524.57        75.74027
525.01        75.63207
525.45         75.5145
525.89        75.45594
526.32        75.46524
526.76          75.536
527.20         75.6261
527.64        75.67586
528.08        75.66795
528.52        75.61872
528.96        75.55379
529.40        75.51295
529.83        75.49929
530.27        75.51346
530.71        75.52414
531.15        75.49508
531.59        75.41878
532.03        75.31021
532.46        75.19858
532.90        75.12814
533.34        75.09929
533.78        75.14231
534.22        75.23326
534.66        75.10468
535.09         75.1078
535.53        74.99271
535.97        74.88512
536.41        74.81998
536.85        74.81161
537.28        74.83936
537.72        74.89529
538.16        74.96619
538.60        75.04205
539.04        75.14106
539.47        75.21316
539.91        75.22596
540.35        75.15656
540.79        75.03084
541.22        74.88838
541.66        74.80257
542.10        74.79186
542.54        74.84502
542.97        74.91508
543.41        74.96746
543.85        74.97407
544.29        74.95195
544.72        74.92587
545.16        74.95183
545.60        75.01503
546.04        75.14788
546.47        75.29802
546.91        75.23447
547.35         75.0074
547.79        75.02508
548.22        75.20762
548.66        75.09792
549.10        74.73737
549.53        74.61124
549.97        74.74576
550.41        74.82728
550.84        74.83302
551.28        74.98162
551.72        75.22659
552.15        75.26021
552.59        75.04672
553.03        75.21082
553.46        74.77164
553.90         74.7482
554.34         74.8473
554.77        75.02262
555.21        75.18723
555.65        75.32142
556.08        75.29031
556.52        75.10578
556.96        74.84093
557.39        74.85284
557.83        75.12167
558.27        75.22501
558.70        75.13668
559.14        75.11464
559.57         75.1498
560.01        75.16251
560.45        75.14165
560.88         75.1017
561.32        75.10104
561.75        75.09777
562.19        75.12472
562.63        75.19775
563.06         75.2803
563.50        75.26385
563.93        75.15532
564.37        75.14822
564.80        75.21612
565.24        75.29053
565.68        75.34318
566.11         75.3503
566.55        75.35054
566.98        75.39018
567.42        75.47201
567.85        75.48259
568.29        75.47437
568.72        75.39135
569.16        75.28081
569.60        75.34921
570.03        75.62265
570.47        75.42143
570.90        75.30935
571.34        76.01532
571.77         75.7224
572.21        75.57385
572.64        75.59669
573.08        75.53478
573.51        75.58778
573.95        75.59896
574.38        75.58258
574.82        75.43489
