SpectraSmart Spectrum 2.9.0.0
--------- Device Information -----------
Spectrum Name :  反射率_0
Saving Time :  2024/04/28 00:09:29
Spectro-Module Model Name : SE2030-DUVN
Spectro-Module Serial Number : OS361AC55029948
Wavelength Start : 200
Wavelength End : 1025
Wavelength Unit : Wavelength(nm)
Spectrum Unit : Reflectance(%)
-----------Spectrum Setting ------------
Integration Time : 20ms
Average : 10
Boxcar : 0
Background removal :  enabled
linearity correction :  enabled
SC :  disabled
Intensity correction :  disabled
DWT denoise :  enabled
savitzky-golay :  disabled
FFT :  disabled
Running average :  disabled
Kalman :  disabled
High pass :  disabled
---------------BEGIN--------------------
Wavelength(nm)             Reflectance(%)
200.29               0
200.75       -23.49623
201.21        19.09141
201.67        51.29202
202.13        62.63738
202.58        60.51119
203.04        51.41011
203.50        41.74076
203.96        40.23589
204.42        46.77318
204.88        56.48661
205.34          64.822
205.80        67.96841
206.26        65.41232
206.72        56.83718
207.18        41.89104
207.64        31.01499
208.10        33.70111
208.55        43.62615
209.01        50.49331
209.47        51.02572
209.93        44.59081
210.39         24.7069
210.85       -37.21093
211.31       -111.0819
211.77       -19.68907
212.23        38.78981
212.69        59.44361
213.14        66.67802
213.60        68.06668
214.06        66.81794
214.52        62.38313
214.98        56.98821
215.44         55.3634
215.90        55.45967
216.36        56.99995
216.81        60.31709
217.27        64.82001
217.73        70.65625
218.19          75.577
218.65         75.2568
219.11        68.38444
219.57        55.49881
220.02        39.43024
220.48        29.76832
220.94        30.18255
221.40        37.14238
221.86        46.16404
222.32         52.5439
222.77        55.71592
223.23        57.32233
223.69        57.66155
224.15        56.78448
224.61        55.00272
225.06        51.97277
225.52        49.20291
225.98        49.20438
226.44        51.77308
226.90        55.18879
227.36        57.84768
227.81        58.49292
228.27        57.29484
228.73        54.71664
229.19        51.14756
229.65        47.61956
230.10        44.78141
230.56        42.77839
231.02        41.50118
231.48        40.82536
231.93        40.53598
232.39        40.68102
232.85        41.26411
233.31        42.27075
233.77        43.59252
234.22        45.27486
234.68        46.63473
235.14        46.90499
235.60         46.0132
236.05        43.91321
236.51        41.85982
236.97         42.5152
237.43        46.63688
237.88        53.46359
238.34        60.20135
238.80        64.01142
239.26        64.25577
239.71        60.61795
240.17        53.08282
240.63        48.19423
241.08        52.16725
241.54        60.56746
242.00        67.64468
242.46        71.00887
242.91        71.41548
243.37        69.02623
243.83        62.64416
244.28        54.91135
244.74        55.92131
245.20        64.23953
245.66        70.22599
246.11        69.98174
246.57        63.93636
247.03        51.76241
247.48        32.74023
247.94        17.96324
248.40        21.01703
248.85        35.58611
249.31        53.59406
249.77        68.60873
250.22        79.08836
250.68        86.48353
251.14        91.24828
251.59        94.11092
252.05        95.79843
252.51        95.77341
252.96        93.35399
253.42        89.20246
253.88        84.55524
254.33          80.773
254.79        77.52173
255.25         72.7151
255.70         66.6489
256.16        61.05602
256.62        57.43327
257.07         57.4263
257.53        60.31075
257.99        63.92233
258.44        66.67651
258.90        67.74325
259.35        66.99297
259.81        65.50167
260.27        63.57749
260.72        61.60643
261.18        60.09063
261.63        58.64952
262.09        57.42005
262.55        56.14482
263.00        54.72783
263.46        53.37813
263.91        52.14104
264.37        51.42255
264.83        51.12587
265.28        51.05539
265.74        50.95955
266.19        50.30332
266.65        49.12198
267.11        47.55117
267.56        45.87658
268.02        44.65391
268.47        43.95983
268.93        43.62774
269.38        43.42399
269.84        43.01162
270.30        42.28225
270.75        41.35665
271.21        40.30312
271.66        39.17069
272.12        38.03121
272.57        36.82852
273.03        35.68772
273.48        34.73218
273.94        34.02961
274.39        33.50963
274.85        33.08838
275.31        32.55348
275.76        31.84967
276.22        31.06928
276.67        30.26893
277.13         29.6258
277.58        29.11846
278.04        28.72795
278.49        28.33193
278.95         27.8629
279.40         27.2639
279.86        26.63984
280.31        26.02197
280.77        25.56106
281.22        25.24774
281.68        25.07473
282.13        24.96774
282.59        24.86777
283.04        24.73699
283.50        24.59694
283.95        24.46431
284.41         24.3989
284.86        24.38692
285.32        24.41854
285.77        24.41918
286.22        24.31786
286.68         24.1249
287.13        23.84418
287.59        23.57448
288.04        23.39249
288.50        23.34458
288.95        23.37499
289.41        23.44867
289.86        23.46803
290.32        23.43202
290.77        23.36984
291.22        23.32324
291.68        23.34624
292.13         23.4514
292.59        23.63842
293.04        23.90681
293.50        24.27891
293.95        24.74674
294.40        25.32035
294.86        25.97819
295.31        26.67583
295.77        27.41028
296.22        28.17228
296.68          28.998
297.13        29.91953
297.58        30.93629
298.04         32.0248
298.49        33.12347
298.95        34.16892
299.40        35.15514
299.85        36.11339
300.31        37.13003
300.76        38.28939
301.21        39.60709
301.67        41.05153
302.12        42.51165
302.58        43.88108
303.03        45.12417
303.48        46.30769
303.94        47.54279
304.39        48.93008
304.84        50.51356
305.30        52.25282
305.75         54.0548
306.20        55.84718
306.66        57.61097
307.11        59.32089
307.57        61.00752
308.02        62.61649
308.47         64.1599
308.93        65.65286
309.38        67.06733
309.83        68.44405
310.29        69.82338
310.74        71.18414
311.19        72.58054
311.65        74.06763
312.10        75.60253
312.55        77.15419
313.00        78.64147
313.46        79.95676
313.91         81.0663
314.36        82.01183
314.82        82.83654
315.27        83.60894
315.72        84.35691
316.18        85.07703
316.63        85.76511
317.08        86.44929
317.53        87.13538
317.99        87.81934
318.44        88.49022
318.89         89.0976
319.35        89.62679
319.80        90.09585
320.25        90.51466
320.70        90.91257
321.16        91.28696
321.61        91.63809
322.06        91.96667
322.51        92.28397
322.97        92.57574
323.42        92.87939
323.87        93.14625
324.32         93.3121
324.78        93.36072
325.23        93.34997
325.68        93.34792
326.13        93.49062
326.59        93.78604
327.04        94.23653
327.49        94.74204
327.94        95.16709
328.39         95.4679
328.85        95.65061
329.30        95.81262
329.75        95.98863
330.20        96.20537
330.66        96.41647
331.11        96.67265
331.56        96.95285
332.01        97.25884
332.46        97.59349
332.92          97.918
333.37        98.29144
333.82        98.66418
334.27        99.03432
334.72        99.37753
335.17        99.66085
335.63        99.86143
336.08        100.0406
336.53        100.2264
336.98        100.5059
337.43        100.9034
337.88        101.4031
338.34        101.9433
338.79        102.4629
339.24        102.9271
339.69        103.3638
340.14        103.8061
340.59        104.3113
341.05        104.8882
341.50        105.5023
341.95        106.1255
342.40        106.7374
342.85        107.3176
343.30        107.8625
343.75        108.3331
344.20        108.6673
344.66         108.868
345.11        108.9635
345.56        109.0095
346.01        109.0907
346.46        109.2409
346.91        109.4445
347.36          109.71
347.81         110.044
348.26        110.4301
348.72        110.8583
349.17        111.2672
349.62        111.5753
350.07        111.7596
350.52        111.8441
350.97        111.8569
351.42         111.852
351.87        111.8509
352.32        111.8319
352.77        111.8141
353.22        111.8311
353.67        111.8703
354.13        111.9235
354.58        111.8945
355.03        111.6891
355.48        111.2913
355.93        110.7509
356.38        110.1193
356.83        109.4768
357.28        108.8642
357.73        108.2711
358.18        107.7394
358.63        107.3238
359.08        107.0254
359.53        106.8348
359.98        106.6617
360.43        106.3618
360.88        105.8951
361.33        105.2756
361.78        104.6047
362.23        104.0571
362.68        103.6634
363.13        103.3733
363.58        103.0395
364.03        102.4151
364.48        101.4904
364.93        100.3555
365.38        99.19727
365.83        98.29404
366.28        97.71302
366.73        97.35731
367.18        97.11085
367.63        96.78643
368.08        96.31581
368.53        95.75658
368.98        95.12161
369.43        94.42858
369.88         93.7032
370.33        92.94073
370.78        92.19209
371.23        91.54968
371.68        91.03436
372.13        90.62272
372.58        90.28055
373.03        89.94237
373.48        89.57632
373.93        89.19292
374.38        88.76598
374.83        88.25671
375.28        87.66547
375.72        86.98839
376.17        86.31193
376.62        85.70741
377.07        85.19886
377.52        84.76426
377.97         84.3779
378.42        83.99561
378.87        83.60101
379.32        83.21018
379.77        82.81602
380.22        82.40215
380.67        81.96674
381.11        81.51482
381.56        81.06289
382.01          80.655
382.46        80.30972
382.91        80.02142
383.36        79.77432
383.81        79.53719
384.26        79.29842
384.71        79.06552
385.15        78.82698
385.60        78.62357
386.05        78.43575
386.50        78.24514
386.95        78.04473
387.40        77.83183
387.85        77.60552
388.29         77.3272
388.74        77.06699
389.19        76.74107
389.64        76.34236
390.09        75.87572
390.54        75.40473
390.98        75.01791
391.43        74.78583
391.88        74.67091
392.33        74.56673
392.78        74.39252
393.23        74.15602
393.67        73.70097
394.12        73.17866
394.57         73.3777
395.02        73.15352
395.47        73.05911
395.91        72.78388
396.36        72.62707
396.81        72.60398
397.26        72.57658
397.71        72.49707
398.15        72.35888
398.60        72.23878
399.05        71.91282
399.50        71.50909
399.95        71.58395
400.39        71.98521
400.84         71.7777
401.29          71.008
401.74         70.4793
402.18        70.30479
402.63        70.16586
403.08        70.04149
403.53        69.93933
403.97        69.84423
404.42        69.83722
404.87        69.88679
405.32        69.89211
405.76        69.81559
406.21        69.70522
406.66        69.58805
407.11        69.41933
407.55        69.23443
408.00        69.26568
408.45        69.43321
408.90         69.0315
409.34        68.24716
409.79        68.18537
410.24        68.74292
410.68        68.91438
411.13        68.64163
411.58        68.49461
412.03        68.50672
412.47        68.48148
412.92        68.40154
413.37        68.33825
413.81        68.27706
414.26        68.25182
414.71        68.24842
415.15        68.26922
415.60        68.29209
416.05        68.34229
416.49        68.42194
416.94         68.5109
417.39        68.58966
417.83        68.62571
418.28        68.60928
418.73        68.54071
419.17        68.45636
419.62        68.42064
420.07        68.45373
420.51        68.53414
420.96        68.62632
421.41        68.65469
421.85        68.58131
422.30        68.38671
422.74        68.14128
423.19        68.24986
423.64        68.62635
424.08        68.78337
424.53        68.60997
424.98        68.52062
425.42        68.54297
425.87        68.30125
426.31        67.92715
426.76        67.99861
427.21        68.43555
427.65        68.55943
428.10        68.36261
428.54        68.38312
428.99         68.6532
429.44        68.90972
429.88        69.05324
430.33        68.97711
430.77        68.70534
431.22        68.64172
431.66        68.79374
432.11        68.92126
432.56         69.0529
433.00        69.28426
433.45        69.38505
433.89        69.43523
434.34         69.4736
434.78        68.66621
435.23        68.12915
435.67        68.79906
436.12         69.7485
436.57        69.92213
437.01        69.23038
437.46        68.80814
437.90        69.12029
438.35        70.21114
438.79        69.71233
439.24        69.79724
439.68        69.79376
440.13        69.63479
440.57        69.43696
441.02        69.80762
441.46        70.54005
441.91        70.58012
442.35        70.01595
442.80        70.06678
443.24        70.63399
443.69         70.8046
444.13        70.54544
444.58        70.45806
445.02        70.53199
445.47        70.52967
445.91         70.4381
446.36        70.38702
446.80        70.37202
447.24        70.30921
447.69        70.26431
448.13        70.46605
448.58        70.83975
449.02        70.97096
449.47        70.86933
449.91        70.84389
450.36         70.9187
450.80        70.87304
451.25        70.73917
451.69        70.65705
452.13        70.62949
452.58        70.55959
453.02         70.4603
453.47        70.38827
453.91        70.33886
454.36        70.39731
454.80        70.44855
455.24        70.19039
455.69        69.75684
456.13        69.38063
456.58        69.19337
457.02        69.46411
457.46        69.88627
457.91        69.66343
458.35        69.10293
458.79        68.77962
459.24        68.80289
459.68        68.71571
460.13        68.56805
460.57        68.30757
461.01        68.24654
461.46        68.18026
461.90         68.3297
462.34        67.93642
462.79         68.3539
463.23        68.32468
463.68         68.2341
464.12         68.0039
464.56        67.73309
465.01        67.78963
465.45        67.97782
465.89        67.86628
466.34        67.53777
466.78        67.27179
467.22        67.08128
467.67        67.43604
468.11        67.04375
468.55        66.97853
468.99        66.86872
469.44        66.77744
469.88        66.69941
470.32        66.59603
470.77         66.4772
471.21        66.37003
471.65        66.27508
472.10        66.19662
472.54        66.11453
472.98        66.04311
473.42        65.98413
473.87         65.9181
474.31        65.82569
474.75        65.84908
475.20        65.95187
475.64         65.9062
476.08        65.69628
476.52        65.64248
476.97        65.78771
477.41          65.468
477.85        65.40292
478.29        65.46394
478.74        65.83208
479.18        65.02096
479.62        65.41659
480.06         65.2808
480.50        65.35056
480.95        65.32805
481.39        65.13258
481.83         65.4795
482.27        65.60241
482.72        65.01285
483.16        65.55015
483.60        65.43143
484.04        65.19482
484.48        65.14941
484.93        65.56791
485.37        64.92256
485.81        65.11298
486.25        66.10123
486.69        66.69067
487.14        65.83968
487.58        65.30798
488.02        65.01343
488.46        65.44767
488.90        65.41512
489.34        64.74229
489.79        64.25362
490.23         64.6178
490.67        64.56586
491.11        64.30929
491.55        64.19044
491.99        64.22744
492.43        64.25382
492.88        64.25865
493.32        64.33948
493.76         64.4385
494.20        64.50361
494.64        64.53617
495.08        64.42939
495.52        64.27008
495.96        64.45911
496.41        64.89311
496.85        64.89993
497.29        64.50414
497.73        64.38395
498.17        64.46716
498.61        64.54315
499.05        64.52798
499.49        64.46942
499.93        64.41222
500.37        64.33672
500.82        64.21877
501.26        64.30425
501.70        64.65582
502.14        63.86215
502.58        64.25291
503.02        64.20822
503.46          64.145
503.90         64.1639
504.34        64.17643
504.78        64.18723
505.22         64.1286
505.66        63.97592
506.10        63.80543
506.54        63.67477
506.98        63.57229
507.42        64.02488
507.86        63.94024
508.30        64.03955
508.74        64.08006
509.18        64.03091
509.62         63.9399
510.06        63.85955
510.50        63.81841
510.94        63.79272
511.38        63.77496
511.82        63.75473
512.26        63.72725
512.70        63.70045
513.14        63.69117
513.58        63.69878
514.02        63.71989
514.46        63.79369
514.90        63.90431
515.34        63.80085
515.78        63.84402
516.22        63.75094
516.66         63.6655
517.10         63.6329
517.54        63.66689
517.98        63.74525
518.42        63.83237
518.86        63.88047
519.30        63.87424
519.74        63.82982
520.18        63.76702
520.62        63.71555
521.06        63.68699
521.50        63.67416
521.93        63.67322
522.37         63.6657
522.81        63.65173
523.25        63.63232
523.69        63.61683
524.13        63.61739
524.57        63.63489
525.01        63.66701
525.45        63.68814
525.89         63.6593
526.32        63.57018
526.76        63.44376
527.20        63.32144
527.64        63.27712
528.08        63.32266
528.52        63.43275
528.96        63.55096
529.40        63.58769
529.83        63.51949
530.27        63.39085
530.71        63.24346
531.15        63.15103
531.59        63.13511
532.03        63.17043
532.46        63.23141
532.90        63.29902
533.34         63.3524
533.78        63.39725
534.22         63.4253
534.66        63.42304
535.09        63.38213
535.53        63.32336
535.97        63.24635
536.41        63.16835
536.85        63.09755
537.28        63.03525
537.72        62.98977
538.16        62.96275
538.60        62.95662
539.04        62.98547
539.47        63.01792
539.91         63.0405
540.35        63.03324
540.79        63.01318
541.22        62.98745
541.66        62.97766
542.10        62.98496
542.54         62.9984
542.97        63.00692
543.41        63.03197
543.85        63.05841
544.29        63.08547
544.72        63.08521
545.16         63.0468
545.60        62.96008
546.04        62.83518
546.47        62.70202
546.91         62.6293
547.35         62.6272
547.79        62.64566
548.22        62.65227
548.66        62.70982
549.10        62.77074
549.53        62.73607
549.97        62.63566
550.41        62.60098
550.84        62.64526
551.28        62.70505
551.72        62.75519
552.15         62.7686
552.59        62.73964
553.03        62.70354
553.46        62.69187
553.90        62.66369
554.34        62.58276
554.77        62.98938
555.21        62.88815
555.65        62.93412
556.08        62.77361
556.52         62.6586
556.96        62.58169
557.39        62.53209
557.83        62.52914
558.27        62.51181
558.70        62.49123
559.14        62.51263
559.57        62.55261
560.01        62.66211
560.45        62.77801
560.88        62.68155
561.32        62.48182
561.75         62.4656
562.19        62.63721
562.63        62.72741
563.06        62.69453
563.50        62.61601
563.93        62.51065
564.37        62.45813
564.80          62.444
565.24        62.50816
565.68        62.61723
566.11        62.58027
566.55        62.46399
566.98        62.60463
567.42        62.94479
567.85        62.90624
568.29        62.74299
568.72        62.61904
569.16        62.62986
569.60        62.75518
570.03        63.01293
570.47        62.80856
570.90        62.90115
571.34        63.45463
571.77        63.12822
572.21        63.12223
572.64        63.32783
573.08         62.7925
573.51        62.67639
573.95        62.78027
574.38        63.26537
574.82         63.4404
