SpectraSmart Spectrum 2.9.0.0
--------- Device Information -----------
Spectrum Name :  反射率_0
Saving Time :  2024/04/28 00:08:06
Spectro-Module Model Name : SE2030-DUVN
Spectro-Module Serial Number : OS361AC55029948
Wavelength Start : 200
Wavelength End : 1025
Wavelength Unit : Wavelength(nm)
Spectrum Unit : Reflectance(%)
-----------Spectrum Setting ------------
Integration Time : 20ms
Average : 10
Boxcar : 0
Background removal :  enabled
linearity correction :  enabled
SC :  disabled
Intensity correction :  disabled
DWT denoise :  enabled
savitzky-golay :  disabled
FFT :  disabled
Running average :  disabled
Kalman :  disabled
High pass :  disabled
---------------BEGIN--------------------
Wavelength(nm)             Reflectance(%)
200.29               0
200.75        67.18716
201.21         54.2844
201.67        48.56047
202.13        47.88943
202.58         49.8881
203.04        54.24924
203.50         61.5112
203.96        71.33668
204.42         81.3923
204.88        90.11151
205.34        96.28446
205.80        99.28903
206.26        99.27686
206.72        95.89317
207.18        86.40666
207.64         70.9996
208.10        58.59434
208.55        53.82882
209.01        51.63808
209.47        47.19612
209.93         37.4127
210.39         13.8295
210.85       -52.98365
211.31       -117.8393
211.77       -8.922255
212.23        52.84771
212.69         73.2657
213.14        80.06807
213.60        81.06662
214.06        78.45287
214.52        71.44601
214.98        64.31632
215.44        63.73455
215.90        66.32467
216.36        69.32938
216.81        71.77972
217.27        73.62347
217.73         75.3875
218.19        76.23799
218.65        74.34477
219.11         69.2001
219.57        61.06388
220.02        50.72401
220.48        42.70134
220.94        39.32966
221.40        39.56758
221.86        42.76702
222.32        47.93547
222.77        53.87126
223.23        59.91795
223.69        64.35785
224.15        65.24075
224.61        62.71897
225.06         57.3885
225.52        51.17688
225.98        47.84714
226.44        48.23618
226.90        50.33669
227.36        52.52305
227.81        53.53692
228.27        53.31644
228.73        52.27633
229.19        50.38286
229.65        47.67401
230.10        44.45071
230.56        41.21521
231.02        38.28701
231.48        36.14653
231.93        34.83225
232.39        34.26128
232.85        34.58218
233.31        35.98724
233.77        38.24314
234.22        41.19035
234.68        43.83879
235.14        45.02539
235.60        44.60104
236.05        42.67818
236.51        40.39658
236.97        40.25317
237.43        43.12658
237.88        48.39902
238.34        53.89813
238.80        57.56669
239.26        59.09754
239.71        58.75295
240.17        57.08685
240.63        57.72997
241.08        62.64083
241.54        68.20323
242.00         72.1572
242.46        74.44138
242.91        75.94054
243.37        77.14899
243.83        78.70094
244.28        80.97691
244.74        82.15679
245.20        81.63099
245.66        79.85675
246.11        76.71491
246.57        71.53875
247.03        63.08516
247.48        51.48683
247.94        45.61608
248.40        53.32179
248.85        68.36755
249.31         82.9435
249.77        91.09516
250.22        93.53394
250.68         93.2902
251.14        91.80271
251.59        90.12487
252.05        88.45054
252.51        85.64726
252.96        82.18449
253.42        81.79077
253.88        85.25631
254.33        90.30639
254.79          93.541
255.25        92.24048
255.70         87.4877
256.16        81.69272
256.62        77.12309
257.07        76.25911
257.53        78.57387
257.99         81.6848
258.44        83.60256
258.90        83.21471
259.35        80.52827
259.81        77.08978
260.27          73.576
260.72        70.83256
261.18        69.31831
261.63        68.23084
262.09        67.51234
262.55        66.65146
263.00        65.46146
263.46        64.26364
263.91        62.96474
264.37        61.84254
264.83        60.85009
265.28        59.88705
265.74        58.96629
266.19        57.84837
266.65        56.59703
267.11        55.21918
267.56        53.81329
268.02          52.649
268.47        51.72732
268.93         50.9867
269.38        50.28883
269.84         49.4537
270.30        48.42351
270.75        47.26129
271.21        46.03095
271.66        44.77054
272.12        43.54631
272.57         42.3263
273.03        41.19174
273.48        40.18225
273.94        39.36102
274.39        38.66203
274.85        38.10144
275.31        37.60314
275.76        37.10906
276.22        36.65814
276.67        36.15825
277.13        35.59378
277.58        34.91849
278.04        34.20553
278.49        33.46965
278.95        32.85663
279.40        32.33812
279.86        31.94076
280.31         31.5855
280.77        31.28197
281.22        30.97313
281.68        30.70775
282.13        30.45121
282.59        30.21274
283.04         29.9693
283.50        29.73875
283.95        29.51532
284.41         29.3377
284.86        29.19986
285.32         29.1239
285.77        29.08106
286.22        29.07224
286.68        29.10651
287.13        29.13676
287.59         29.2089
288.04        29.31273
288.50        29.46939
288.95        29.64573
289.41        29.80768
289.86        29.84938
290.32        29.79982
290.77        29.70583
291.22        29.67969
291.68        29.87905
292.13        30.33383
292.59        31.01817
293.04        31.88578
293.50        32.88305
293.95        33.97247
294.40        35.18922
294.86        36.50523
295.31        37.86749
295.77        39.28012
296.22        40.72231
296.68        42.27086
297.13        44.01996
297.58        45.96361
298.04        48.05183
298.49        50.14266
298.95        52.08414
299.40        53.85229
299.85        55.51902
300.31        57.23544
300.76        59.17032
301.21        61.35436
301.67        63.73122
302.12        66.11382
302.58        68.33192
303.03         70.3112
303.48        72.13869
303.94        73.98669
304.39        76.01622
304.84        78.28139
305.30        80.71344
305.75        83.11604
306.20        85.30231
306.66         87.2517
307.11        88.98872
307.57         90.6429
308.02        92.27446
308.47         93.9351
308.93        95.59602
309.38        97.19581
309.83        98.76411
310.29         100.316
310.74        101.8226
311.19        103.2648
311.65        104.5724
312.10          105.69
312.55        106.6409
313.00         107.466
313.46        108.2466
313.91         108.994
314.36        109.7092
314.82        110.3747
315.27        110.9531
315.72        111.4397
316.18        111.8722
316.63        112.2622
317.08        112.6641
317.53        113.0944
317.99        113.5329
318.44         113.977
318.89         114.394
319.35        114.7727
319.80         115.134
320.25        115.4748
320.70           115.8
321.16        116.0995
321.61        116.3828
322.06        116.6621
322.51        116.9724
322.97         117.296
323.42        117.6615
323.87        117.9989
324.32        118.2179
324.78        118.2856
325.23        118.2752
325.68         118.247
326.13        118.3325
326.59        118.5434
327.04         118.903
327.49        119.3314
327.94        119.7316
328.39        120.0741
328.85        120.3484
329.30        120.6675
329.75        121.0432
330.20        121.4826
330.66        121.9219
331.11        122.4012
331.56         122.862
332.01         123.303
332.46        123.7445
332.92        124.1313
333.37        124.5412
333.82        124.9245
334.27        125.2751
334.72        125.6478
335.17         126.137
335.63        126.7254
336.08        127.4453
336.53        128.1651
336.98        128.7122
337.43        129.0506
337.88        129.2412
338.34        129.3731
338.79         129.663
339.24        130.1439
339.69        130.7497
340.14        131.4328
340.59        132.1098
341.05        132.7463
341.50        133.3949
341.95        133.9902
342.40         134.445
342.85        134.7582
343.30        134.9261
343.75        135.1151
344.20        135.6033
344.66        136.4263
345.11        137.4882
345.56        138.5006
346.01        138.9964
346.46        138.8948
346.91        138.3678
347.36        137.7413
347.81        137.5164
348.26        137.8135
348.72        138.4712
349.17        139.2599
349.62        139.8403
350.07         140.089
350.52        140.1011
350.97          139.96
351.42        139.7912
351.87        139.6484
352.32        139.4993
352.77        139.2977
353.22         138.989
353.67        138.5679
354.13        138.0642
354.58        137.5673
355.03        137.2752
355.48        137.1971
355.93        137.2579
356.38        137.2281
356.83        136.7503
357.28        135.7749
357.73        134.4496
358.18        133.0284
358.63        131.9005
359.08        131.1777
359.53        130.7487
359.98        130.4838
360.43        130.1769
360.88        129.7382
361.33        129.2031
361.78        128.5981
362.23        127.9512
362.68        127.2676
363.13        126.5534
363.58        125.7463
364.03        124.6486
364.48        123.4629
364.93        122.1065
365.38        120.8016
365.83        119.7929
366.28        119.1275
366.73        118.7222
367.18        118.4123
367.63         117.932
368.08        117.2009
368.53        116.2905
368.98        115.2866
369.43        114.3342
369.88        113.4829
370.33        112.6844
370.78        111.9114
371.23        111.1261
371.68        110.3161
372.13        109.5084
372.58        108.7221
373.03        107.9763
373.48        107.2809
373.93        106.6317
374.38        106.0077
374.83        105.3778
375.28        104.7285
375.72        104.0374
376.17        103.3702
376.62        102.7566
377.07        102.1995
377.52        101.6818
377.97         101.148
378.42        100.5138
378.87        99.77766
379.32        98.98735
379.77        98.21529
380.22        97.56259
380.67         97.0482
381.11        96.63661
381.56        96.28887
382.01        95.95473
382.46        95.61536
382.91        95.29078
383.36         94.9558
383.81        94.56783
384.26        94.12486
384.71        93.63531
385.15        93.14147
385.60        92.77962
386.05        92.54536
386.50        92.39552
386.95        92.26199
387.40        92.04101
387.85         91.7121
388.29        91.26514
388.74        90.82757
389.19        90.36852
389.64        89.88494
390.09        89.34019
390.54        88.79434
390.98        88.33166
391.43        88.03645
391.88         87.8913
392.33        87.72708
392.78        87.42388
393.23        87.00521
393.67        86.17824
394.12        85.25561
394.57        85.62847
395.02        85.85066
395.47        85.86923
395.91        85.28806
396.36        84.99113
396.81        84.99969
397.26        84.82497
397.71        84.45485
398.15        84.10126
398.60        83.87237
399.05        83.46494
399.50        83.02045
399.95        83.11812
400.39        83.58356
400.84        83.49032
401.29        82.84685
401.74        82.26142
402.18        81.91766
402.63        81.88223
403.08        82.07787
403.53        82.05494
403.97        81.77641
404.42        81.59833
404.87        81.51357
405.32        81.38612
405.76        81.20276
406.21        80.91647
406.66        80.60349
407.11        80.55807
407.55         80.7065
408.00        80.63615
408.45        80.31286
408.90        79.70291
409.34        79.01717
409.79        78.94197
410.24        79.35855
410.68        79.45033
411.13        79.16048
411.58        78.99518
412.03        78.98139
412.47        78.93002
412.92        78.81877
413.37        78.71982
413.81        78.63293
414.26         78.6192
414.71        78.66151
415.15        78.75684
415.60        78.84147
416.05        78.87922
416.49        78.86044
416.94        78.78562
417.39        78.68096
417.83        78.58495
418.28        78.50433
418.73        78.41412
419.17        78.32841
419.62        78.27589
420.07        78.26756
420.51        78.29753
420.96        78.32928
421.41        78.29865
421.85        78.18085
422.30        77.89845
422.74        77.55052
423.19        77.77487
423.64        78.40993
424.08          78.517
424.53        78.05561
424.98        77.99056
425.42         78.3412
425.87        78.36473
426.31        78.07087
426.76        77.98075
427.21        78.06109
427.65        77.90336
428.10         77.5642
428.54        77.53658
428.99        77.60899
429.44        77.88645
429.88        78.14985
430.33        78.11443
430.77        77.76241
431.22         77.6352
431.66        77.74146
432.11        77.65805
432.56         77.5419
433.00         77.9218
433.45        78.45322
433.89        78.75312
434.34        78.86268
434.78        77.52066
435.23        77.15993
435.67        78.00035
436.12        77.95582
436.57        78.27833
437.01        78.22248
437.46        78.32246
437.90        78.23585
438.35        79.31551
438.79        78.76693
439.24        78.86308
439.68         78.8524
440.13        78.81982
440.57        78.80811
441.02        79.00155
441.46        79.25227
441.91        79.14649
442.35        78.84721
442.80        78.41998
443.24        79.59012
443.69        79.65167
444.13        79.17152
444.58        79.09869
445.02        79.39049
445.47        79.43083
445.91         79.2289
446.36        79.17809
446.80        79.25826
447.24        79.60812
447.69        79.57778
448.13        79.86343
448.58        80.18356
449.02        80.16202
449.47        79.87399
449.91        79.73785
450.36        79.81318
450.80        79.83605
451.25        79.80674
451.69        79.81049
452.13        79.82841
452.58        79.77361
453.02        79.65695
453.47        79.54266
453.91        79.42898
454.36        79.38644
454.80        79.32333
455.24        78.97309
455.69        78.45753
456.13        78.01279
456.58        77.81518
457.02        77.83765
457.46         78.4164
457.91        78.28997
458.35        77.91435
458.79        77.67738
459.24        77.68978
459.68        77.52875
460.13        77.26983
460.57        76.98765
461.01         76.8512
461.46        76.72581
461.90         76.9065
462.34        76.41791
462.79        76.83708
463.23        76.78412
463.68        76.68137
464.12        76.49682
464.56        76.29558
465.01        76.18275
465.45        76.05579
465.89        76.07306
466.34        76.23217
466.78        76.02863
467.22        75.47117
467.67        76.08789
468.11        75.78318
468.55        75.69275
468.99        75.27299
469.44        75.07726
469.88        75.12589
470.32         75.1793
470.77        75.18881
471.21         75.1395
471.65        75.00938
472.10        74.82803
472.54        74.61911
472.98        74.47637
473.42        74.42527
473.87        74.38768
474.31        74.31966
474.75        74.43573
475.20        74.63793
475.64        74.47408
476.08        74.00568
476.52        73.86526
476.97         74.1071
477.41        73.91634
477.85        74.04767
478.29        74.11884
478.74        74.09069
479.18        73.47826
479.62        73.92173
480.06        73.87523
480.50        73.86433
480.95        73.87094
481.39        73.80056
481.83        73.95165
482.27        74.05486
482.72        73.25813
483.16        73.70946
483.60        73.38924
484.04        73.35593
484.48        73.38905
484.93        73.85947
485.37        73.55464
485.81        73.79173
486.25         74.6944
486.69        75.03941
487.14        73.90394
487.58        73.50842
488.02        73.46744
488.46        73.59049
488.90         73.5596
489.34        73.08026
489.79        72.43961
490.23        73.27996
490.67        73.24447
491.11         72.8727
491.55        72.73483
491.99        72.84193
492.43        72.80999
492.88        72.61863
493.32        72.49522
493.76         72.4398
494.20        72.45347
494.64        72.55396
495.08        72.59995
495.52        72.62701
495.96        72.99284
496.41        73.51229
496.85        73.51202
497.29        72.81733
497.73         72.6096
498.17        72.73521
498.61        72.88317
499.05        72.92594
499.49        72.78819
499.93        72.52944
500.37        72.51372
500.82        72.69573
501.26        72.59535
501.70        72.51147
502.14        72.19648
502.58        72.86556
503.02        73.07777
503.46        72.85912
503.90        72.72089
504.34        72.63165
504.78        72.59299
505.22        72.57368
505.66        72.51263
506.10        72.44713
506.54        72.41018
506.98        72.37404
507.42        72.78362
507.86        72.67921
508.30        72.73784
508.74        72.67394
509.18        72.52596
509.62        72.33733
510.06        72.20059
510.50         72.1523
510.94        72.16262
511.38        72.20912
511.82        72.25161
512.26        72.27202
512.70        72.28094
513.14        72.29269
513.58        72.30111
514.02        72.30343
514.46        72.34702
514.90        72.41901
515.34        72.24589
515.78        72.24256
516.22        72.08776
516.66        71.95683
517.10        71.91814
517.54        71.98727
517.98        72.13414
518.42         72.2916
518.86        72.36138
519.30        72.31808
519.74        72.19431
520.18        72.04333
520.62        71.94828
521.06        71.93462
521.50         71.9791
521.93        72.05554
522.37        72.10773
522.81        72.12383
523.25        72.11562
523.69        72.10249
524.13        72.11305
524.57        72.15041
525.01        72.20064
525.45        72.23232
525.89         72.1989
526.32        72.08928
526.76        71.93821
527.20         71.7819
527.64         71.6853
528.08        71.66422
528.52        71.69573
528.96        71.75508
529.40        71.80206
529.83        71.81477
530.27        71.81933
530.71        71.80278
531.15        71.75478
531.59        71.67928
532.03        71.57848
532.46        71.47476
532.90        71.42953
533.34        71.44691
533.78        71.51121
534.22        71.58949
534.66        71.62935
535.09        71.60981
535.53        71.56883
535.97        71.51465
536.41        71.47758
536.85        71.46777
537.28        71.47624
537.72        71.50114
538.16        71.53064
538.60         71.5613
539.04        71.61006
539.47        71.64703
539.91        71.66733
540.35         71.6501
540.79        71.61203
541.22        71.55621
541.66        71.49721
542.10        71.44105
542.54        71.39141
542.97        71.34389
543.41        71.33106
543.85         71.3398
544.29        71.36444
544.72        71.39066
545.16        71.41978
545.60        71.43024
546.04        71.45499
546.47         71.4753
546.91        71.38793
547.35        71.22897
547.79        71.20201
548.22        71.26236
548.66        71.21674
549.10        71.06147
549.53        70.98728
549.97        71.00838
550.41        71.00893
550.84         70.9718
551.28        71.00684
551.72        71.10905
552.15         71.0723
552.59        70.87206
553.03         71.1765
553.46        70.84434
553.90        70.87418
554.34        70.91837
554.77         71.0058
555.21        71.07762
555.65        71.06994
556.08        70.91674
556.52        70.79749
556.96        70.71899
557.39        70.78868
557.83        70.96082
558.27        70.91376
558.70        70.69082
559.14        70.64976
559.57        70.79057
560.01        70.94088
560.45        71.03172
560.88        71.06083
561.32        71.07934
561.75         70.9921
562.19        70.87618
562.63        70.99886
563.06        71.25827
563.50        71.09938
563.93        70.61218
564.37        70.53493
564.80        70.82732
565.24        70.98525
565.68        70.96251
566.11        70.99544
566.55        71.09519
566.98        71.10543
567.42        71.04892
567.85        71.01062
568.29        71.06249
568.72        70.99207
569.16        70.80287
569.60        71.04556
570.03        71.24452
570.47        70.91725
570.90        70.79524
571.34        71.55096
571.77         71.4487
572.21          71.272
572.64        71.75147
573.08        71.60061
573.51        71.30434
573.95        71.32947
574.38        71.67609
574.82        71.64603
