SpectraSmart Spectrum 2.9.0.0
--------- Device Information -----------
Spectrum Name :  反射率_0
Saving Time :  2024/04/27 23:43:34
Spectro-Module Model Name : SE2030-DUVN
Spectro-Module Serial Number : OS361AC55029948
Wavelength Start : 200
Wavelength End : 1025
Wavelength Unit : Wavelength(nm)
Spectrum Unit : Reflectance(%)
-----------Spectrum Setting ------------
Integration Time : 20ms
Average : 10
Boxcar : 0
Background removal :  enabled
linearity correction :  enabled
SC :  disabled
Intensity correction :  disabled
DWT denoise :  enabled
savitzky-golay :  disabled
FFT :  disabled
Running average :  disabled
Kalman :  disabled
High pass :  disabled
---------------BEGIN--------------------
Wavelength(nm)             Reflectance(%)
200.29               0
200.75        108.8403
201.21         95.0036
201.67        86.15358
202.13        82.76966
202.58        82.38589
203.04        83.89788
203.50        87.18279
203.96        92.07911
204.42        97.26373
204.88        101.8407
205.34        105.1831
205.80        106.9781
206.26        107.3022
206.72        106.0603
207.18        101.5325
207.64        92.65782
208.10        84.27865
208.55        80.22078
209.01        78.06077
209.47        75.07085
209.93        69.31709
210.39        55.80778
210.85        18.56386
211.31       -12.56902
211.77        51.27199
212.23        84.45622
212.69        94.42833
213.14        96.69132
213.60        94.63689
214.06        88.80576
214.52        76.46205
214.98         61.4093
215.44        55.25293
215.90        55.43732
216.36        58.61565
216.81        63.08109
217.27        68.16379
217.73        74.81622
218.19         80.2895
218.65        79.26904
219.11        70.26968
219.57        53.61354
220.02        33.91606
220.48        25.01042
220.94         31.1553
221.40        46.33213
221.86        62.19354
222.32         70.4983
222.77        71.22353
223.23        68.05808
223.69        63.47404
224.15        59.67799
224.61        57.06479
225.06        54.44375
225.52        52.42338
225.98         52.0145
226.44        52.99865
226.90        54.66854
227.36        55.91913
227.81        55.72546
228.27        54.10394
228.73        51.21253
229.19        47.39716
229.65         43.7068
230.10         40.7619
230.56        38.79044
231.02        37.38544
231.48        35.96394
231.93        34.41127
232.39        33.04292
232.85        32.47395
233.31        33.53205
233.77        36.10135
234.22        39.75468
234.68        43.26545
235.14        45.22076
235.60        45.40264
236.05         44.0037
236.51        42.24627
236.97        42.69031
237.43         46.1852
237.88        52.05653
238.34        57.93079
238.80        61.55347
239.26         62.5066
239.71        60.71183
240.17        56.79261
240.63        56.36866
241.08        62.96911
241.54        71.78457
242.00         78.0894
242.46        80.51517
242.91         79.9005
243.37        75.53785
243.83        65.89357
244.28        56.91169
244.74        64.47623
245.20        83.39719
245.66        96.54317
246.11        99.89417
246.57        96.00057
247.03        84.06864
247.48        64.20199
247.94        50.44285
248.40        57.53386
248.85        77.84698
249.31        97.63833
249.77        105.4763
250.22        103.3686
250.68        97.25991
251.14         91.6665
251.59        90.37031
252.05        93.67362
252.51        100.4664
252.96         108.748
253.42        110.7897
253.88        103.0724
254.33        92.06542
254.79        82.97278
255.25        76.68652
255.70        72.40003
256.16        69.54392
256.62         68.7653
257.07        70.92181
257.53        75.00442
257.99         79.1978
258.44        81.54436
258.90        80.89429
259.35        77.49168
259.81        73.03477
260.27         68.5262
260.72         65.2117
261.18        63.54893
261.63        62.61911
262.09        62.17225
262.55         61.5209
263.00        60.47021
263.46        59.39208
263.91         58.2834
264.37        57.50619
264.83        56.99155
265.28        56.55266
265.74        56.10373
266.19        55.31442
266.65        54.23468
267.11        52.91977
267.56        51.50271
268.02        50.29894
268.47         49.3409
268.93        48.56788
269.38        47.86847
269.84        47.09795
270.30         46.2075
270.75        45.25301
271.21        44.27564
271.66        43.27968
272.12        42.30289
272.57        41.29416
273.03        40.32361
273.48          39.419
273.94         38.6429
274.39          37.953
274.85        37.33623
275.31        36.67745
275.76        35.94178
276.22        35.19363
276.67        34.46256
277.13        33.89964
277.58        33.45996
278.04        33.13461
278.49        32.77696
278.95        32.29639
279.40        31.62841
279.86        30.89094
280.31        30.13416
280.77        29.55149
281.22        29.14283
281.68         28.9059
282.13        28.75161
282.59         28.6088
283.04        28.43627
283.50        28.27085
283.95        28.14768
284.41        28.15863
284.86        28.28802
285.32         28.5142
285.77        28.73029
286.22        28.83019
286.68        28.81691
287.13        28.69704
287.59        28.58714
288.04        28.58562
288.50        28.74071
288.95        28.97343
289.41        29.23496
289.86         29.4004
290.32        29.46896
290.77         29.4836
291.22        29.49587
291.68         29.5674
292.13        29.72861
292.59        30.00447
293.04        30.42428
293.50        31.05642
293.95        31.90227
294.40        32.95444
294.86        34.18726
295.31        35.54696
295.77        37.00916
296.22        38.54636
296.68        40.13327
297.13        41.70319
297.58        43.23212
298.04        44.72789
298.49        46.18624
298.95        47.65767
299.40        49.16872
299.85        50.73452
300.31        52.41734
300.76        54.24625
301.21        56.20653
301.67        58.27205
302.12        60.31714
302.58          62.251
303.03        64.01382
303.48        65.65936
303.94         67.2797
304.39        68.92764
304.84        70.65792
305.30        72.46652
305.75        74.27617
306.20        76.06304
306.66        77.83253
307.11        79.54031
307.57        81.24039
308.02        82.88962
308.47        84.48866
308.93        86.03255
309.38        87.43665
309.83        88.68064
310.29        89.79346
310.74        90.77991
311.19        91.70467
311.65          92.642
312.10        93.57943
312.55          94.498
313.00        95.40158
313.46        96.30337
313.91        97.17959
314.36        98.04279
314.82        98.82201
315.27        99.39708
315.72        99.75304
316.18        99.94195
316.63        100.0663
317.08        100.3294
317.53        100.7828
317.99        101.3705
318.44         102.001
318.89        102.4932
319.35        102.7979
319.80        102.9773
320.25         103.112
320.70        103.3406
321.16        103.6847
321.61         104.107
322.06        104.5349
322.51        104.8679
322.97        105.0656
323.42        105.1961
323.87        105.2733
324.32        105.3759
324.78        105.5234
325.23        105.5853
325.68        105.8376
326.13        106.1163
326.59        106.4733
327.04        106.9309
327.49        107.4095
327.94        107.8066
328.39        108.0904
328.85        108.2553
329.30           108.4
329.75        108.5428
330.20        108.7119
330.66        108.8708
331.11        109.1027
331.56        109.4204
332.01        109.8341
332.46        110.3364
332.92        110.8452
333.37        111.3647
333.82        111.8153
334.27        112.2016
334.72        112.5353
335.17        112.8478
335.63        113.1293
336.08        113.4309
336.53        113.7306
336.98        114.0361
337.43        114.3598
337.88        114.7175
338.34        115.1117
338.79        115.5943
339.24        116.1482
339.69        116.7531
340.14        117.3905
340.59        118.0294
341.05        118.6571
341.50        119.2961
341.95        119.8996
342.40        120.4184
342.85        120.8496
343.30        121.1816
343.75        121.5281
344.20        122.0747
344.66        122.8412
345.11        123.7646
345.56        124.6134
346.01        125.0144
346.46        124.9118
346.91        124.4431
347.36        123.9116
347.81        123.7822
348.26        124.1602
348.72        124.9045
349.17        125.7636
349.62        126.3549
350.07        126.5603
350.52        126.4908
350.97        126.2952
351.42        126.2088
351.87        126.2959
352.32        126.4702
352.77        126.6162
353.22        126.5729
353.67        126.3028
354.13         125.877
354.58        125.3824
355.03        125.0122
355.48        124.8046
355.93           124.7
356.38        124.5589
356.83        124.1664
357.28        123.4857
357.73        122.6026
358.18        121.6711
358.63        120.9217
359.08        120.4152
359.53        120.0886
359.98        119.8261
360.43        119.4464
360.88        118.8968
361.33        118.2215
361.78        117.5189
362.23        116.9411
362.68        116.5109
363.13        116.1757
363.58        115.8071
364.03        115.1393
364.48        114.2535
364.93        113.1467
365.38        111.9821
365.83        110.9543
366.28        110.1241
366.73        109.4329
367.18         108.831
367.63        108.2378
368.08         107.619
368.53        107.0045
368.98        106.3802
369.43        105.7173
369.88        105.0134
370.33        104.2637
370.78        103.5033
371.23        102.8002
371.68         102.168
372.13        101.5884
372.58        101.0264
373.03        100.4216
373.48        99.76305
373.93        99.08045
374.38        98.39838
374.83         97.7495
375.28        97.14536
375.72        96.55367
376.17        96.01388
376.62        95.51875
377.07        95.05731
377.52         94.6124
377.97        94.15946
378.42        93.66245
378.87        93.11547
379.32        92.54248
379.77        91.94189
380.22        91.30344
380.67        90.64082
381.11        89.97332
381.56        89.35879
382.01        88.90475
382.46        88.63456
382.91        88.50822
383.36        88.45502
383.81        88.36039
384.26         88.1811
384.71         87.9408
385.15        87.62611
385.60        87.28442
386.05        86.91296
386.50        86.50333
386.95        86.09292
387.40        85.74841
387.85        85.48672
388.29         85.2472
388.74        85.07571
389.19        84.83522
389.64        84.49625
390.09         84.0609
390.54         83.5994
390.98        83.21039
391.43        82.97693
391.88        82.86362
392.33        82.72583
392.78        82.46368
393.23        82.09561
393.67        81.38979
394.12        80.60559
394.57        80.88963
395.02        80.92827
395.47        80.95834
395.91        80.58145
396.36        80.36257
396.81        80.30051
397.26        80.06421
397.71        79.72826
398.15        79.49569
398.60        79.45739
399.05        79.48277
399.50        79.51142
399.95         79.4425
400.39        79.26595
400.84        79.03001
401.29        78.76271
401.74        78.36794
402.18        77.93039
402.63        77.68502
403.08        77.61894
403.53        77.47509
403.97        77.24054
404.42        77.07772
404.87        76.99554
405.32        76.99522
405.76        77.06364
406.21        77.08283
406.66        77.01742
407.11        77.10181
407.55        77.21663
408.00         76.7166
408.45        75.78969
408.90        75.22849
409.34        75.16789
409.79        75.40662
410.24         75.7701
410.68         75.9656
411.13         75.9107
411.58        75.77176
412.03        75.60154
412.47        75.44173
412.92        75.30503
413.37        75.19434
413.81        75.10586
414.26         75.0963
414.71        75.14648
415.15        75.27155
415.60        75.40477
416.05        75.48681
416.49        75.50238
416.94        75.45356
417.39        75.37725
417.83        75.33263
418.28         75.3278
418.73        75.32828
419.17        75.32646
419.62         75.3164
420.07        75.30487
420.51        75.30279
420.96        75.29195
421.41        75.24456
421.85         75.1429
422.30        74.87573
422.74        74.54845
423.19        74.82726
423.64        75.53651
424.08        75.69827
424.53        75.24812
424.98        75.12392
425.42        75.38047
425.87        75.36251
426.31        75.11497
426.76        75.16707
427.21        75.44173
427.65        75.40903
428.10        75.10569
428.54        74.97463
428.99        75.06419
429.44         75.2401
429.88        75.38818
430.33        75.21418
430.77        74.79846
431.22        74.82695
431.66        75.23202
432.11        75.44519
432.56         75.4949
433.00        75.55746
433.45        75.46108
433.89        75.63257
434.34        76.11767
434.78        74.77377
435.23        74.97166
435.67        75.06696
436.12        76.27837
436.57        76.44958
437.01        75.89881
437.46         75.4916
437.90        75.72015
438.35        76.63988
438.79        76.07089
439.24        76.13152
439.68        76.20016
440.13        76.23753
440.57        76.26794
441.02        76.64874
441.46        77.16748
441.91        77.00962
442.35        76.36003
442.80        76.21316
443.24        76.99347
443.69        77.20782
444.13        76.95928
444.58        76.93134
445.02        77.09052
445.47        77.14294
445.91        77.10626
446.36         77.0933
446.80        77.07243
447.24        77.47211
447.69        77.33056
448.13        77.58221
448.58        77.84567
449.02        77.70502
449.47        77.27792
449.91        77.10892
450.36         77.2704
450.80        77.43776
451.25        77.56355
451.69        77.67352
452.13        77.73093
452.58        77.67129
453.02        77.52991
453.47        77.40605
453.91        77.30149
454.36        77.28117
454.80        77.27897
455.24        76.93258
455.69        76.34967
456.13        76.06661
456.58        76.22202
457.02        75.70147
457.46        76.24628
457.91        75.93367
458.35        75.63168
458.79        75.41633
459.24        75.40467
459.68        75.33974
460.13        75.24259
460.57        75.01643
461.01        75.01933
461.46        74.84612
461.90        74.83828
462.34        74.68163
462.79        74.84401
463.23        74.70463
463.68        74.43221
464.12        74.33226
464.56         74.3888
465.01        74.39239
465.45        74.22086
465.89        74.05914
466.34         73.9696
466.78        73.71985
467.22        73.36161
467.67        73.76092
468.11         73.7015
468.55        73.70412
468.99        73.44483
469.44        73.33014
469.88        73.36592
470.32        73.32823
470.77        73.19889
471.21        73.04941
471.65        72.87786
472.10        72.68679
472.54        72.48885
472.98        72.34492
473.42        72.27099
473.87        72.25016
474.31        72.22644
474.75        72.28523
475.20        72.37968
475.64        72.29353
476.08        72.04213
476.52        72.02804
476.97        72.30885
477.41        72.10698
477.85        72.13264
478.29        72.34926
478.74        72.31322
479.18        71.28715
479.62        71.74302
480.06        71.51249
480.50        71.37318
480.95         71.4459
481.39        71.68191
481.83        71.37713
482.27        71.81412
482.72        71.24677
483.16        71.54672
483.60        71.36826
484.04        71.16689
484.48         71.2157
484.93        71.66381
485.37        71.51276
485.81        71.66504
486.25        72.21362
486.69        73.04192
487.14        72.02784
487.58        71.59744
488.02        71.41192
488.46        71.79321
488.90         71.5742
489.34        71.14693
489.79        70.12704
490.23        70.88946
490.67        70.82477
491.11        70.57983
491.55        70.43359
491.99        70.41415
492.43        70.40656
492.88         70.3868
493.32        70.41731
493.76        70.45305
494.20        70.50303
494.64        70.57829
495.08         70.5361
495.52        70.42988
495.96        70.67371
496.41         71.1265
496.85        70.97929
497.29        70.34338
497.73        70.20866
498.17        70.48104
498.61        70.67515
499.05        70.65551
499.49        70.60671
499.93        70.56469
500.37        70.42156
500.82         70.1907
501.26        70.22924
501.70        70.63789
502.14        69.91228
502.58         70.5289
503.02        70.53636
503.46        70.36863
503.90         70.2188
504.34        70.05814
504.78        69.99163
505.22        69.99342
505.66        69.94156
506.10         69.8755
506.54        69.89601
506.98        69.98827
507.42        70.02863
507.86        70.59921
508.30        69.91087
508.74        70.33292
509.18        70.11308
509.62         69.9509
510.06        69.78371
510.50        69.67172
510.94        69.72413
511.38        69.87563
511.82        69.95239
512.26        69.92397
512.70        69.89326
513.14        69.87009
513.58        69.80028
514.02        69.68823
514.46         69.5975
514.90        69.56064
515.34        69.38673
515.78        69.48273
516.22        69.50903
516.66        69.57431
517.10        69.64989
517.54        69.72318
517.98        69.79171
518.42         69.8205
518.86        69.76627
519.30         69.6289
519.74        69.43047
520.18        69.22837
520.62         69.1114
521.06        69.10368
521.50        69.18253
521.93        69.31452
522.37        69.42773
522.81          69.499
523.25        69.53547
523.69        69.54678
524.13        69.54919
524.57        69.54855
525.01        69.54339
525.45        69.51235
525.89        69.42495
526.32         69.2802
526.76        69.10806
527.20        68.96668
527.64        68.95379
528.08        69.07948
528.52         69.3015
528.96        69.53979
529.40        69.66838
529.83        69.64944
530.27        69.53879
530.71        69.37098
531.15        69.21227
531.59        69.09291
532.03        68.99538
532.46        68.93355
532.90         68.9521
533.34        69.04249
533.78        69.19186
534.22        69.35027
534.66        69.43819
535.09        69.42815
535.53        69.35922
535.97        69.25226
536.41        69.16132
536.85        69.10509
537.28        69.07204
537.72        69.05481
538.16        69.03205
538.60        69.00079
539.04        68.98465
539.47        68.96823
539.91        68.96353
540.35        68.95339
540.79        68.94885
541.22        68.93407
541.66        68.89543
542.10         68.8294
542.54        68.74022
542.97        68.64923
543.41        68.62801
543.85        68.67387
544.29        68.77651
544.72         68.8752
545.16        68.91074
545.60         68.8557
546.04        68.72295
546.47        68.57956
546.91        68.54946
547.35        68.64295
547.79        68.81066
548.22        68.94695
548.66        68.94375
549.10        68.77626
549.53        68.54427
549.97        68.32664
550.41         68.1898
550.84        68.16865
551.28        68.27106
551.72        68.42186
552.15        68.47517
552.59        68.41783
553.03        68.27713
553.46        68.12357
553.90        68.11308
554.34        68.25052
554.77        68.50203
555.21         68.7515
555.65        68.82117
556.08        68.61349
556.52        68.35646
556.96        68.11336
557.39        68.06575
557.83        68.19089
558.27         68.1689
558.70        68.01566
559.14        67.98522
559.57         68.0694
560.01        68.23444
560.45        68.39677
560.88        68.33105
561.32        68.13526
561.75         68.0826
562.19        68.18439
562.63        68.20878
563.06        68.13741
563.50        67.99799
563.93        67.83757
564.37        67.92139
564.80        68.16539
565.24        68.23535
565.68        68.12585
566.11        68.10253
566.55        68.19969
566.98        68.24507
567.42        68.23132
567.85        68.24907
568.29        68.37415
568.72        68.32587
569.16        68.09167
569.60        68.65295
570.03        68.63535
570.47        68.41723
570.90        68.45677
571.34        68.92875
571.77        68.74002
572.21        68.72116
572.64        68.89489
573.08         68.6436
573.51        68.19638
573.95        68.28645
574.38        68.85091
574.82        68.66032
