SpectraSmart Spectrum 2.9.0.0
--------- Device Information -----------
Spectrum Name :  反射率_0
Saving Time :  2024/04/27 23:58:45
Spectro-Module Model Name : SE2030-DUVN
Spectro-Module Serial Number : OS361AC55029948
Wavelength Start : 200
Wavelength End : 1025
Wavelength Unit : Wavelength(nm)
Spectrum Unit : Reflectance(%)
-----------Spectrum Setting ------------
Integration Time : 20ms
Average : 10
Boxcar : 0
Background removal :  enabled
linearity correction :  enabled
SC :  disabled
Intensity correction :  disabled
DWT denoise :  enabled
savitzky-golay :  disabled
FFT :  disabled
Running average :  disabled
Kalman :  disabled
High pass :  disabled
---------------BEGIN--------------------
Wavelength(nm)             Reflectance(%)
200.29               0
200.75        93.33253
201.21        106.5194
201.67        112.0685
202.13        109.9249
202.58        102.8811
203.04        93.48988
203.50        84.96085
203.96         82.5177
204.42        86.04828
204.88        92.29127
205.34        98.72247
205.80        103.6748
206.26        107.4226
206.72        111.3216
207.18        114.9851
207.64        114.7013
208.10        109.5472
208.55        103.1734
209.01        98.07144
209.47         94.0427
209.93        89.14127
210.39         79.7021
210.85        51.35603
211.31        3.947073
211.77        34.01814
212.23        62.02934
212.69        73.67809
213.14        78.79599
213.60         81.0799
214.06        83.36827
214.52        86.15354
214.98         88.0256
215.44        87.22025
215.90        84.53836
216.36        82.76869
216.81        83.37857
217.27        85.74802
217.73        89.30923
218.19        92.23956
218.65        91.22728
219.11         85.2243
219.57        74.68658
220.02        61.78712
220.48        53.92265
220.94        54.00775
221.40        59.48911
221.86        66.57414
222.32        71.35142
222.77        73.25935
223.23        73.44169
223.69        72.71177
224.15        71.75275
224.61        70.73635
225.06        69.34948
225.52        67.47662
225.98        64.97525
226.44        62.49038
226.90        60.37989
227.36           59.14
227.81        59.03215
228.27        59.82203
228.73        61.24632
229.19        62.44749
229.65        61.76265
230.10        58.79753
230.56         54.6132
231.02        50.37159
231.48        47.70258
231.93        46.85094
232.39        47.30964
232.85        48.71555
233.31        50.61259
233.77        52.71613
234.22        55.20083
234.68        57.50974
235.14         59.0036
235.60        59.68114
236.05        59.57436
236.51        59.58202
236.97        61.52021
237.43        65.76003
237.88        71.64526
238.34        77.35527
238.80        81.54794
239.26        84.25591
239.71        86.13371
240.17         87.2608
240.63        88.47306
241.08        89.94699
241.54        90.63438
242.00        91.09891
242.46        92.11951
242.91        94.30228
243.37        98.57029
243.83        107.7098
244.28         121.987
244.74        128.6412
245.20        123.5886
245.66        115.5242
246.11         109.725
246.57        104.9733
247.03         98.1161
247.48        88.99003
247.94         83.4667
248.40        87.58888
248.85        98.91939
249.31        109.1324
249.77        110.7097
250.22        105.8262
250.68         98.6411
251.14        93.20132
251.59        93.23576
252.05        99.33142
252.51        111.5526
252.96        128.5087
253.42        139.3769
253.88        136.5975
254.33        126.1616
254.79        116.6991
255.25        112.0453
255.70        110.7687
256.16        111.0843
256.62        111.9911
257.07        112.7379
257.53        113.5141
257.99        113.9958
258.44         113.133
258.90        110.6842
259.35        106.5858
259.81        102.2077
260.27         98.2399
260.72        95.65652
261.18        94.85574
261.63         94.6895
262.09        94.94193
262.55        94.75345
263.00        93.85252
263.46        92.72626
263.91        91.23024
264.37        89.75111
264.83         88.2628
265.28        86.66299
265.74        85.09836
266.19        83.35128
266.65        81.54733
267.11        79.67436
267.56        77.82298
268.02        76.27175
268.47        75.01192
268.93        73.99678
269.38        73.08376
269.84        72.10429
270.30        70.98203
270.75        69.75155
271.21        68.44211
271.66        67.02868
272.12        65.55946
272.57        63.98631
273.03        62.42616
273.48        60.95086
273.94        59.67142
274.39        58.52927
274.85        57.53043
275.31        56.52758
275.76        55.46352
276.22        54.42606
276.67         53.4248
277.13        52.64412
277.58        52.00447
278.04        51.50609
278.49        50.94214
278.95        50.19283
279.40        49.17175
279.86        48.03838
280.31        46.87031
280.77        45.95571
281.22        45.28127
281.68        44.83151
282.13        44.46203
282.59        44.07115
283.04         43.5886
283.50        43.10317
283.95        42.63146
284.41        42.26789
284.86        42.01311
285.32        41.87529
285.77         41.8095
286.22        41.82932
286.68         41.9322
287.13        42.04236
287.59        42.18867
288.04        42.31235
288.50        42.43291
288.95        42.52434
289.41        42.55602
289.86        42.40862
290.32        42.13394
290.77        41.78001
291.22        41.52391
291.68        41.61122
292.13        42.08125
292.59        42.89795
293.04        43.93167
293.50         45.0067
293.95        46.05284
294.40        47.13034
294.86        48.30962
295.31        49.69081
295.77        51.30298
296.22         53.0717
296.68        54.93094
297.13        56.74722
297.58        58.47545
298.04        60.15231
298.49        61.80001
298.95        63.52617
299.40        65.35066
299.85        67.26085
300.31        69.26337
300.76        71.29637
301.21        73.33062
301.67        75.39062
302.12         77.3865
302.58        79.30746
303.03        81.11286
303.48        82.85215
303.94        84.63573
304.39         86.5218
304.84        88.55587
305.30        90.71388
305.75        92.87214
306.20        94.96056
306.66        96.97265
307.11        98.87674
307.57        100.7115
308.02        102.3905
308.47        103.9343
308.93        105.3625
309.38        106.6838
309.83        108.0442
310.29        109.4923
310.74        110.9701
311.19         112.411
311.65        113.6693
312.10        114.6724
312.55        115.4697
313.00         116.167
313.46        116.9396
313.91        117.8099
314.36        118.7479
314.82        119.6435
315.27        120.3127
315.72        120.7229
316.18        120.9602
316.63         121.141
317.08        121.4901
317.53        122.0577
317.99        122.7571
318.44        123.4943
318.89        124.0877
319.35        124.4817
319.80        124.7525
320.25        124.9331
320.70        125.0845
321.16        125.2296
321.61        125.3654
322.06        125.5404
322.51        125.8512
322.97        126.2842
323.42         126.854
323.87        127.4288
324.32        127.8103
324.78        127.9292
325.23        127.8852
325.68        127.7669
326.13        127.7637
326.59        127.9103
327.04        128.2183
327.49         128.608
327.94        128.9877
328.39         129.325
328.85        129.6066
329.30        129.9469
329.75        130.3356
330.20        130.7737
330.66        131.2037
331.11         131.654
331.56        132.0419
332.01         132.365
332.46        132.6405
332.92        132.8637
333.37         133.216
333.82        133.6612
334.27        134.1699
334.72        134.6996
335.17        135.1794
335.63        135.5591
336.08        135.9355
336.53         136.287
336.98         136.632
337.43        136.9857
337.88        137.3357
338.34        137.7115
338.79        138.2303
339.24         138.881
339.69        139.6463
340.14        140.4171
340.59        141.0129
341.05        141.3991
341.50        141.6341
341.95        141.8441
342.40         142.254
342.85         142.908
343.30        143.7163
343.75        144.5514
344.20        145.2088
344.66        145.6303
345.11        145.8811
345.56        146.0051
346.01        146.0669
346.46        146.1127
346.91        146.1331
347.36        146.1883
347.81        146.3742
348.26        146.6937
348.72        147.1116
349.17        147.5397
349.62        147.8566
350.07        148.0151
350.52        148.0491
350.97        147.9559
351.42        147.7404
351.87        147.4295
352.32        147.0305
352.77        146.6244
353.22        146.3389
353.67        146.1866
354.13        146.1328
354.58        146.0535
355.03        145.8125
355.48        145.3615
355.93        144.7408
356.38        143.9838
356.83        143.1431
357.28        142.2584
357.73        141.3423
358.18        140.4256
358.63        139.5499
359.08        138.7353
359.53        137.9825
359.98        137.3063
360.43        136.7229
360.88         136.209
361.33        135.7292
361.78        135.2211
362.23        134.5779
362.68        133.7692
363.13        132.8562
363.58        131.8613
364.03        130.6832
364.48        129.5892
364.93        128.4079
365.38        127.2717
365.83        126.2692
366.28        125.4164
366.73        124.6859
367.18        124.0112
367.63        123.2825
368.08        122.4686
368.53        121.6033
368.98        120.7125
369.43        119.8421
369.88        119.0112
370.33        118.1993
370.78         117.425
371.23        116.7214
371.68        116.0863
372.13        115.5104
372.58        114.9424
373.03        114.2977
373.48        113.5574
373.93        112.7433
374.38         111.908
374.83        111.1331
375.28        110.4398
375.72        109.7889
376.17        109.1724
376.62         108.501
377.07        107.7578
377.52        106.9574
377.97        106.1647
378.42        105.4806
378.87        104.9232
379.32        104.4707
379.77         104.019
380.22        103.4025
380.67        102.5977
381.11        101.6663
381.56        100.7534
382.01        100.1131
382.46        99.80967
382.91        99.76282
383.36        99.81426
383.81        99.71466
384.26         99.3938
384.71        98.91985
385.15        98.37563
385.60        97.96171
386.05        97.69667
386.50        97.50786
386.95        97.32043
387.40        97.03164
387.85        96.62576
388.29        96.10619
388.74        95.61687
389.19        95.12772
389.64        94.63857
390.09        94.11471
390.54        93.60745
390.98        93.18475
391.43        92.92262
391.88        92.79668
392.33        92.65112
392.78        92.37079
393.23        91.97511
393.67        91.21981
394.12        90.37945
394.57        90.67871
395.02        90.66518
395.47        90.70808
395.91        90.36108
396.36        90.16927
396.81        90.11917
397.26        89.88065
397.71        89.52915
398.15        89.24648
398.60        89.13785
399.05        89.11318
399.50        89.08581
399.95        88.86583
400.39        88.48497
400.84         88.0851
401.29        87.73898
401.74        87.45914
402.18        87.24049
402.63        86.93581
403.08        86.56991
403.53        86.32288
403.97        86.18917
404.42        86.04684
404.87        85.90735
405.32        85.84792
405.76        85.84394
406.21        85.93676
406.66        85.99944
407.11        85.73456
407.55        85.20218
408.00        84.67503
408.45        84.30132
408.90         84.0699
409.34          83.964
409.79        83.94345
410.24        83.93812
410.68        83.94128
411.13        83.91333
411.58        83.79374
412.03        83.60892
412.47        83.48343
412.92        83.41097
413.37        83.36561
413.81        83.30474
414.26        83.23746
414.71        83.13854
415.15        83.04233
415.60        82.93803
416.05        82.87607
416.49         82.8735
416.94        82.89983
417.39        82.94214
417.83        82.97561
418.28        82.98012
418.73        82.94447
419.17        82.86892
419.62        82.76067
420.07        82.63461
420.51        82.49591
420.96        82.34881
421.41          82.174
421.85        81.95623
422.30        81.66126
422.74        81.36021
423.19        81.52062
423.64        82.02155
424.08        82.25605
424.53        82.10525
424.98        82.07873
425.42        82.19275
425.87        82.04453
426.31        81.71353
426.76        81.59339
427.21        81.65769
427.65        81.59923
428.10        81.40269
428.54        81.27773
428.99        81.26417
429.44         81.2622
429.88        81.23566
430.33        81.13755
430.77        80.92897
431.22        80.95499
431.66        81.16408
432.11        81.09342
432.56        80.88642
433.00        81.18809
433.45        81.72504
433.89        81.91074
434.34        81.67438
434.78         80.4817
435.23         80.0182
435.67        79.71577
436.12        80.89999
436.57        81.20354
437.01         80.9612
437.46        80.78265
437.90        81.19357
438.35        81.69563
438.79        81.32013
439.24        81.30335
439.68        81.35617
440.13        81.55299
440.57        81.80033
441.02        81.85247
441.46        81.66866
441.91        81.46803
442.35        81.23474
442.80        81.13993
443.24        81.15034
443.69        81.19765
444.13        81.24205
444.58        81.38799
445.02        81.54061
445.47        81.46484
445.91        81.23423
446.36        81.16023
446.80        81.23643
447.24        81.40759
447.69        81.67489
448.13        81.44849
448.58        81.78758
449.02        81.67474
449.47        81.50909
449.91        81.45332
450.36        81.55518
450.80        81.67428
451.25        81.76579
451.69        81.81251
452.13        81.78325
452.58        81.61871
453.02        81.36992
453.47        81.18219
453.91        81.08235
454.36         81.0827
454.80        81.06733
455.24        80.84656
455.69        80.47964
456.13        79.92101
456.58        79.46957
457.02        79.50071
457.46        80.57493
457.91        80.52238
458.35        79.89204
458.79        79.57274
459.24        79.69859
459.68        79.45358
460.13        78.93253
460.57        78.79189
461.01        78.87127
461.46        78.54848
461.90        79.23865
462.34        78.72617
462.79        78.53011
463.23        78.38842
463.68        78.58379
464.12        78.44846
464.56        78.04282
465.01        78.02648
465.45         78.2067
465.89        78.18815
466.34        77.99413
466.78        77.82348
467.22        76.98534
467.67         77.8054
468.11        77.15678
468.55        77.20969
468.99        77.09405
469.44        77.06738
469.88        77.12132
470.32        77.16036
470.77        77.17804
471.21        77.15009
471.65        77.06254
472.10        76.93345
472.54        76.76579
472.98        76.61021
473.42        76.48274
473.87        76.38144
474.31         76.2691
474.75        76.22332
475.20        76.21467
475.64        76.14282
476.08        76.00019
476.52         75.9268
476.97        75.90369
477.41        75.73694
477.85        75.84801
478.29        75.62352
478.74        75.55497
479.18        75.64503
479.62        75.72538
480.06        75.75435
480.50        75.61157
480.95        75.60442
481.39         75.7389
481.83        75.28497
482.27        75.35114
482.72        75.47707
483.16        75.33429
483.60        75.35654
484.04        75.29522
484.48        75.51102
484.93        75.64885
485.37        75.51655
485.81        75.48066
486.25        75.86077
486.69        76.52538
487.14        75.60114
487.58         75.3055
488.02        74.91339
488.46        74.82932
488.90        75.47939
489.34        75.55557
489.79        74.66932
490.23        75.14677
490.67        74.85955
491.11        74.66142
491.55        74.56021
491.99         74.5714
492.43        74.54872
492.88        74.45461
493.32        74.42729
493.76        74.47379
494.20        74.56708
494.64        74.70437
495.08        74.91595
495.52        75.12421
495.96        75.14144
496.41        74.98032
496.85        74.79516
497.29        74.61626
497.73        74.63634
498.17         74.6982
498.61        74.57108
499.05        74.27145
499.49        74.28606
499.93        74.58077
500.37        74.59086
500.82        74.27587
501.26        74.18484
501.70        74.50261
502.14        73.80574
502.58         74.6682
503.02        74.74406
503.46        74.47708
503.90        74.26627
504.34        74.10564
504.78        74.03937
505.22        74.04934
505.66        74.02563
506.10        73.95203
506.54        73.98626
506.98        74.13837
507.42         73.9998
507.86        74.16316
508.30        74.19081
508.74        74.25539
509.18        74.32234
509.62        74.37068
510.06         74.3605
510.50        74.28208
510.94        74.15852
511.38        74.02225
511.82        73.92391
512.26         73.8775
512.70        73.87163
513.14         73.8951
513.58         73.9003
514.02        73.87554
514.46         73.8791
514.90         73.9167
515.34        73.76194
515.78        73.84682
516.22        73.71481
516.66        73.70605
517.10        73.69755
517.54        73.75096
517.98        73.84412
518.42        73.92874
518.86        73.93444
519.30        73.84541
519.74        73.68929
520.18        73.51804
520.62        73.41138
521.06        73.39362
521.50        73.44714
521.93        73.53994
522.37        73.60384
522.81        73.62512
523.25        73.61623
523.69        73.60949
524.13        73.65507
524.57        73.75843
525.01        73.89756
525.45        74.01892
525.89        74.04269
526.32        73.94877
526.76        73.77798
527.20         73.5894
527.64        73.48673
528.08        73.49438
528.52        73.57507
528.96        73.67373
529.40        73.71528
529.83        73.66444
530.27        73.53725
530.71        73.37266
531.15        73.26276
531.59        73.22961
532.03        73.24039
532.46        73.25775
532.90        73.25751
533.34        73.22034
533.78        73.14883
534.22         73.0813
534.66        73.07465
535.09         73.1294
535.53        73.25278
535.97        73.35631
536.41        73.34313
536.85        73.20383
537.28        72.90479
537.72        72.57759
538.16        72.59588
538.60        72.91433
539.04        73.09569
539.47        73.08025
539.91        73.14834
540.35        73.26463
540.79        73.25867
541.22        73.15404
541.66        73.09905
542.10         73.1084
542.54        73.13374
542.97        73.15419
543.41        73.18361
543.85        73.20312
544.29        73.22532
544.72        73.22512
545.16        73.19468
545.60        73.12014
546.04        73.00465
546.47        72.88138
546.91         72.8172
547.35        72.81837
547.79         72.8675
548.22        72.90363
548.66        72.88331
549.10        72.79082
549.53         72.6968
549.97        72.64108
550.41        72.62969
550.84        72.67255
551.28        72.78716
551.72        72.91431
552.15        72.93637
552.59        72.85178
553.03        72.68249
553.46        72.48719
553.90         72.4052
554.34          72.444
554.77        72.58855
555.21        72.75243
555.65        72.79207
556.08        72.60535
556.52        72.43755
556.96        72.32362
557.39        72.31323
557.83        72.40255
558.27        72.50445
558.70        72.56316
559.14        72.46426
559.57        72.26402
560.01        72.29601
560.45        72.50362
560.88        72.56499
561.32        72.51479
561.75        72.40415
562.19        72.31466
562.63        72.41541
563.06        72.62415
563.50         72.5517
563.93        72.22028
564.37        72.06807
564.80        72.09383
565.24        72.11771
565.68        72.11845
566.11         72.1375
566.55        72.19186
566.98        72.25881
567.42        72.33557
567.85        72.34925
568.29        72.36523
568.72        72.30544
569.16         72.1853
569.60        72.31258
570.03        72.74047
570.47        72.40762
570.90        72.09722
571.34        73.31807
571.77         72.7993
572.21        72.56866
572.64        73.08179
573.08        72.62497
573.51        72.27002
573.95        72.43617
574.38        72.44409
574.82        72.85069
