SpectraSmart Spectrum 2.9.0.0
--------- Device Information -----------
Spectrum Name :  反射率_0
Saving Time :  2024/04/27 23:58:18
Spectro-Module Model Name : SE2030-DUVN
Spectro-Module Serial Number : OS361AC55029948
Wavelength Start : 200
Wavelength End : 1025
Wavelength Unit : Wavelength(nm)
Spectrum Unit : Reflectance(%)
-----------Spectrum Setting ------------
Integration Time : 20ms
Average : 10
Boxcar : 0
Background removal :  enabled
linearity correction :  enabled
SC :  disabled
Intensity correction :  disabled
DWT denoise :  enabled
savitzky-golay :  disabled
FFT :  disabled
Running average :  disabled
Kalman :  disabled
High pass :  disabled
---------------BEGIN--------------------
Wavelength(nm)             Reflectance(%)
200.29               0
200.75        46.80004
201.21        60.78085
201.67        72.61996
202.13        76.19891
202.58        74.02075
203.04        69.22832
203.50        65.59936
203.96        68.19231
204.42        75.96385
204.88        85.28493
205.34        92.89617
205.80         96.2965
206.26        95.22305
206.72        89.35581
207.18        77.36725
207.64        64.82294
208.10        60.87726
208.55         64.5056
209.01        67.57081
209.47        65.87185
209.93        57.66287
210.39        34.52818
210.85       -32.32813
211.31         -89.991
211.77        24.57945
212.23        85.22184
212.69        103.0022
213.14        105.0885
213.60        97.97389
214.06        80.63438
214.52        48.47902
214.98        19.04273
215.44        19.43194
215.90        34.80926
216.36        50.20853
216.81        60.09383
217.27        65.81972
217.73        70.49266
218.19        73.75501
218.65        74.03276
219.11        70.97109
219.57        64.21395
220.02        55.07944
220.48        49.32483
220.94        49.05535
221.40        52.55572
221.86        57.40967
222.32        60.96012
222.77        62.72812
223.23        63.39071
223.69        63.10542
224.15        61.81428
224.61        59.58135
225.06        56.18583
225.52        52.26657
225.98        49.18192
226.44        47.62085
226.90        47.08989
227.36        46.95014
227.81        46.51134
228.27        45.59644
228.73        44.32915
229.19        42.65572
229.65        40.63017
230.10        38.47691
230.56         36.6304
231.02        35.24383
231.48        34.60671
231.93        34.63983
232.39        35.17197
232.85        36.26391
233.31        38.02957
233.77        40.28901
234.22        43.01424
234.68         45.3483
235.14        46.27239
235.60        45.72373
236.05        43.83701
236.51        41.89643
236.97        42.61501
237.43        46.83221
237.88        53.70189
238.34        60.85366
238.80         66.2439
239.26        69.76797
239.71        72.16879
240.17        73.74653
240.63        75.46672
241.08        77.36897
241.54        78.13668
242.00        78.26119
242.46        78.39986
242.91        78.87526
243.37        79.87307
243.83        82.88042
244.28        90.48072
244.74        99.46896
245.20        104.0162
245.66        103.9199
246.11        102.2476
246.57        99.64774
247.03        94.22765
247.48        85.96657
247.94        80.87107
248.40        84.86401
248.85         95.0359
249.31        104.8707
249.77        108.4655
250.22         107.012
250.68        103.6645
251.14        100.7667
251.59        100.4265
252.05        103.0248
252.51        108.1383
252.96        115.0667
253.42        119.6129
253.88        118.3607
254.33        113.6581
254.79        108.9966
255.25        105.1568
255.70         101.761
256.16         99.0902
256.62         97.2598
257.07         96.6427
257.53         97.3024
257.99        98.13198
258.44        98.13631
258.90        97.11271
259.35        94.77055
259.81        92.16974
260.27        89.43976
260.72        86.86376
261.18         84.9895
261.63        83.23429
262.09        81.89282
262.55        80.70422
263.00        79.46604
263.46         78.4082
263.91        77.22509
264.37        76.01385
264.83        74.69547
265.28         73.2467
265.74        71.87372
266.19        70.50297
266.65        69.23064
267.11        67.98514
267.56        66.69156
268.02        65.37498
268.47         63.9925
268.93        62.57669
269.38        61.20238
269.84        60.02566
270.30        59.05242
270.75        58.23713
271.21        57.40661
271.66           56.23
272.12        54.69024
272.57        52.84676
273.03        51.01735
273.48        49.59293
273.94         48.7148
274.39        48.19303
274.85        47.80095
275.31        47.09647
275.76        45.98943
276.22        44.69262
276.67        43.38506
277.13        42.45337
277.58        41.88383
278.04        41.58204
278.49        41.30741
278.95        40.86625
279.40         40.1501
279.86        39.33017
280.31        38.45527
280.77        37.73858
281.22        37.17677
281.68        36.76244
282.13        36.42506
282.59        36.14897
283.04        35.88596
283.50        35.67782
283.95        35.49778
284.41        35.35571
284.86        35.23216
285.32        35.15418
285.77        35.10077
286.22        35.10345
286.68        35.17681
287.13         35.2581
287.59        35.38176
288.04        35.51066
288.50        35.66535
288.95        35.81604
289.41        35.94759
289.86        35.97163
290.32        35.92594
290.77         35.8479
291.22        35.84139
291.68        36.04656
292.13        36.49384
292.59        37.17948
293.04        38.06748
293.50        39.12481
293.95        40.31576
294.40        41.65801
294.86        43.13942
295.31        44.73058
295.77        46.42795
296.22        48.19932
296.68        50.04394
297.13        51.93193
297.58        53.84081
298.04        55.76435
298.49        57.67085
298.95        59.58756
299.40        61.52003
299.85        63.48478
300.31        65.52761
300.76        67.64568
301.21        69.82353
301.67        72.06148
302.12        74.24589
302.58        76.32724
303.03        78.25928
303.48        80.10642
303.94        81.99155
304.39        83.99181
304.84        86.15739
305.30        88.45543
305.75        90.75672
306.20        92.98479
306.66         95.1216
307.11        97.12142
307.57        99.02066
308.02        100.7346
308.47        102.2772
308.93        103.6709
309.38        104.8956
309.83        106.0471
310.29        107.1874
310.74         108.302
311.19        109.4017
311.65        110.4616
312.10        111.4406
312.55         112.343
313.00        113.2363
313.46         114.235
313.91        115.3204
314.36        116.4618
314.82        117.4947
315.27        118.1537
315.72        118.3983
316.18        118.3441
316.63        118.1805
317.08        118.2519
317.53        118.6522
317.99        119.2775
318.44        120.0164
318.89        120.6503
319.35        121.1023
319.80        121.4513
320.25        121.7234
320.70        121.9666
321.16        122.1932
321.61        122.3938
322.06        122.5872
322.51        122.8315
322.97        123.1138
323.42        123.4634
323.87        123.8163
324.32         124.084
324.78         124.227
325.23        124.3212
325.68        124.3858
326.13         124.488
326.59        124.6277
327.04        124.8453
327.49        125.1251
327.94        125.4824
328.39         125.914
328.85        126.3776
329.30        126.9184
329.75         127.414
330.20        127.8345
330.66        128.1581
331.11        128.4889
331.56        128.8709
332.01        129.3309
332.46        129.8423
332.92        130.3262
333.37        130.8311
333.82        131.2801
334.27        131.6867
334.72        132.0526
335.17         132.381
335.63        132.6523
336.08         132.935
336.53        133.2211
336.98         133.551
337.43        133.9375
337.88        134.3738
338.34        134.8293
338.79        135.3167
339.24        135.8017
339.69        136.2827
340.14        136.7484
340.59        137.1805
341.05        137.5846
341.50        137.9888
341.95        138.3885
342.40        138.7964
342.85        139.2218
343.30        139.6435
343.75        140.1193
344.20        140.7405
344.66        141.5026
345.11         142.361
345.56        143.1409
346.01        143.5647
346.46        143.5892
346.91        143.3082
347.36        142.9534
347.81        142.8831
348.26        143.1797
348.72        143.7425
349.17        144.3716
349.62         144.771
350.07        144.8506
350.52        144.6955
350.97         144.438
351.42        144.2857
351.87        144.2912
352.32        144.3822
352.77        144.4337
353.22        144.2655
353.67        143.8372
354.13        143.2187
354.58         142.518
355.03        141.9697
355.48        141.6191
355.93        141.3952
356.38        141.1302
356.83        140.5622
357.28        139.6473
357.73        138.4913
358.18        137.2766
358.63        136.2761
359.08        135.5617
359.53        135.0534
359.98        134.6222
360.43        134.0664
360.88        133.3228
361.33        132.4416
361.78         131.518
362.23        130.6916
362.68        129.9885
363.13         129.377
363.58        128.7454
364.03        127.7942
364.48        126.7103
364.93        125.4143
365.38        124.0969
365.83        122.9491
366.28        122.0225
366.73        121.2433
367.18        120.5561
367.63        119.8734
368.08        119.1571
368.53        118.4487
368.98        117.7035
369.43        116.8428
369.88         115.873
370.33         114.817
370.78        113.8043
371.23         113.055
371.68        112.6042
372.13         112.366
372.58        112.1953
373.03        111.8527
373.48        111.2588
373.93        110.4824
374.38        109.5696
374.83        108.5939
375.28         107.608
375.72        106.5913
376.17        105.6385
376.62        104.8238
377.07        104.1622
377.52        103.6211
377.97        103.1735
378.42        102.7647
378.87         102.362
379.32        101.9816
379.77        101.5452
380.22        100.9338
380.67          100.14
381.11        99.19971
381.56        98.26769
382.01        97.62071
382.46          97.327
382.91        97.31237
383.36        97.39071
383.81        97.26286
384.26        96.85292
384.71        96.24432
385.15        95.57089
385.60        95.11087
386.05        94.89892
386.50        94.84071
386.95        94.79917
387.40        94.57468
387.85        94.13222
388.29        93.50755
388.74        92.91236
389.19         92.4137
389.64        92.02985
390.09         91.7048
390.54        91.41124
390.98        91.07252
391.43        90.72261
391.88        90.41628
392.33        90.14264
392.78        89.69706
393.23        89.30979
393.67        88.88212
394.12        88.62483
394.57        88.27592
395.02        88.06396
395.47        88.01991
395.91        88.12537
396.36        88.05186
396.81        87.77631
397.26        87.46176
397.71        87.15803
398.15        86.84335
398.60        86.62115
399.05        86.41939
399.50        86.25253
399.95        86.12019
400.39        86.01537
400.84        85.96963
401.29        85.93015
401.74        85.55358
402.18        84.96262
402.63        84.75471
403.08        84.90565
403.53        84.81121
403.97        84.45084
404.42        84.21844
404.87        84.09754
405.32        83.94456
405.76        83.74654
406.21        83.45226
406.66        83.14147
407.11        83.13666
407.55         83.3604
408.00        83.34293
408.45        83.05965
408.90        82.55144
409.34        82.01373
409.79        82.04631
410.24        82.50639
410.68        82.61773
411.13        82.32755
411.58        82.01484
412.03        81.93721
412.47        81.84415
412.92        81.78438
413.37        81.79229
413.81        81.81807
414.26        81.84683
414.71         81.8409
415.15        81.82806
415.60        81.76425
416.05        81.65154
416.49        81.50665
416.94        81.32568
417.39        81.14964
417.83        81.04152
418.28        81.00117
418.73        80.98158
419.17        80.97913
419.62        80.99123
420.07        81.01839
420.51         81.0709
420.96        81.06978
421.41        80.91654
421.85        80.60276
422.30        79.99369
422.74        79.31785
423.19        79.57677
423.64        80.54153
424.08        80.80399
424.53        80.28185
424.98        80.20837
425.42        80.62797
425.87        80.78395
426.31        80.64136
426.76        80.50392
427.21        80.37002
427.65        80.21048
428.10        80.11098
428.54        80.06139
428.99        80.10382
429.44        80.54724
429.88         81.1115
430.33        80.73285
430.77        79.68311
431.22        79.52293
431.66        80.19006
432.11         80.5613
432.56        80.58011
433.00        80.75542
433.45        80.85351
433.89        80.87585
434.34        80.85805
434.78        79.82174
435.23        79.05295
435.67        79.59358
436.12         80.6641
436.57        80.89511
437.01        80.07462
437.46        80.45992
437.90        80.21735
438.35        81.46768
438.79        80.81647
439.24        80.98467
439.68        80.94189
440.13        80.81375
440.57        80.65174
441.02        81.06027
441.46        81.78795
441.91        81.73423
442.35        80.98879
442.80        80.77491
443.24        81.03874
443.69        81.09332
444.13        80.92052
444.58        80.90255
445.02        81.00561
445.47        81.16405
445.91        81.36353
446.36        81.45609
446.80        81.37185
447.24        81.67786
447.69        81.69156
448.13        81.41091
448.58        82.01943
449.02         81.8539
449.47        81.45018
449.91         81.2939
450.36        81.45538
450.80        81.59885
451.25        81.67952
451.69        81.76941
452.13        81.83293
452.58         81.7878
453.02         81.6594
453.47        81.53024
453.91        81.40633
454.36        81.38308
454.80        81.38268
455.24        81.05156
455.69        80.53591
456.13        80.27999
456.58        80.41642
457.02        80.34674
457.46        81.07695
457.91        80.69437
458.35        79.96326
458.79        79.56893
459.24        79.66288
459.68        79.52425
460.13        79.11964
460.57        79.35556
461.01        78.84138
461.46        79.01669
461.90        78.75351
462.34        78.88641
462.79        78.79342
463.23        78.81497
463.68        78.83907
464.12        78.81229
464.56        78.74689
465.01        78.81934
465.45        78.82388
465.89        78.53449
466.34        78.08265
466.78        77.56319
467.22        77.07521
467.67        77.73712
468.11        77.46947
468.55        77.94956
468.99        77.73108
469.44        77.83527
469.88        77.99021
470.32        77.96034
470.77        77.76524
471.21        77.57719
471.65        77.43343
472.10        77.30064
472.54         77.1423
472.98        77.00324
473.42        76.90091
473.87        76.68382
474.31        76.39795
474.75        76.62448
475.20        77.15535
475.64        76.97421
476.08        76.19403
476.52        75.91815
476.97        76.19426
477.41        76.31103
477.85        76.13682
478.29        76.42097
478.74        76.36131
479.18        75.73742
479.62        76.29361
480.06        76.18703
480.50         75.9979
480.95        75.88018
481.39        75.84286
481.83        75.72051
482.27        75.75065
482.72        75.72234
483.16        75.80083
483.60        75.78766
484.04        75.66338
484.48        75.59917
484.93        75.81175
485.37        75.40837
485.81        75.73978
486.25        76.14372
486.69         75.6088
487.14        74.94862
487.58        75.21971
488.02        75.92495
488.46         75.5997
488.90        76.07146
489.34        75.46128
489.79        74.41245
490.23        75.34676
490.67         75.3729
491.11        75.27193
491.55        75.05407
491.99        74.83774
492.43        74.80872
492.88        74.95994
493.32        75.17326
493.76        75.32359
494.20        75.40993
494.64        75.43051
495.08        75.19765
495.52        74.87196
495.96        75.11378
496.41        75.73702
496.85        75.70786
497.29         75.1447
497.73        74.73772
498.17        75.26584
498.61        75.44874
499.05        75.39242
499.49        75.11234
499.93        74.73566
500.37        74.56216
500.82        74.61049
501.26        74.57567
501.70        75.22024
502.14        74.44852
502.58        74.95509
503.02         74.9858
503.46        74.95635
503.90        74.93942
504.34        74.85542
504.78        74.83121
505.22        74.83194
505.66        74.72075
506.10        74.55359
506.54        74.53333
506.98        74.67577
507.42        74.70092
507.86        75.19616
508.30        74.90392
508.74        75.23679
509.18        75.17863
509.62        75.12336
510.06        75.06287
510.50        75.01189
510.94        74.95601
511.38        74.88737
511.82        74.83025
512.26        74.78487
512.70        74.75219
513.14        74.72321
513.58        74.68861
514.02        74.65193
514.46        74.60195
514.90        74.53548
515.34        74.57928
515.78        74.53609
516.22        74.55012
516.66        74.58183
517.10        74.66685
517.54        74.79893
517.98        74.96912
518.42        75.10942
518.86        75.10635
519.30        74.94639
519.74        74.66958
520.18        74.37886
520.62        74.23471
521.06        74.27573
521.50         74.4577
521.93         74.6968
522.37        74.83807
522.81        74.84388
523.25        74.75513
523.69        74.63561
524.13        74.58557
524.57         74.6293
525.01        74.72968
525.45        74.83143
525.89        74.85367
526.32        74.77251
526.76        74.63038
527.20        74.47695
527.64        74.40301
528.08        74.42999
528.52        74.50854
528.96        74.58796
529.40        74.64214
529.83        74.62205
530.27        74.45264
530.71        74.20697
531.15        74.11141
531.59        74.19298
532.03        74.34317
532.46         74.4889
532.90        74.56986
533.34        74.55303
533.78        74.46408
534.22        74.33939
534.66        74.23332
535.09        74.15414
535.53        74.10696
535.97        74.07212
536.41        74.03574
536.85        73.99684
537.28        73.97301
537.72        73.96759
538.16        73.97163
538.60        73.98507
539.04        74.01345
539.47         74.0471
539.91        74.11722
540.35        74.20152
540.79        74.30622
541.22        74.37715
541.66        74.33873
542.10        74.18182
542.54        73.93736
542.97         73.6805
543.41        73.57029
543.85        73.62116
544.29        73.79083
544.72         73.9838
545.16        74.08717
545.60         74.0545
546.04        73.91933
546.47        73.74184
546.91        73.64336
547.35        73.64473
547.79         73.6788
548.22        73.68575
548.66        73.68349
549.10        73.63203
549.53        73.49936
549.97        73.34537
550.41        73.28554
550.84        73.31946
551.28        73.46488
551.72        73.67345
552.15        73.65569
552.59        73.35453
553.03         73.6615
553.46        73.19573
553.90         73.1754
554.34        73.15829
554.77        73.57487
555.21        73.60122
555.65        73.67888
556.08        73.51225
556.52        73.33065
556.96        73.16899
557.39        73.19125
557.83        73.36537
558.27         73.3317
558.70        73.12753
559.14        73.09034
559.57        73.20936
560.01        73.37826
560.45        73.50305
560.88        73.40779
561.32        73.20658
561.75        73.11433
562.19        73.18275
562.63        73.33409
563.06        73.47465
563.50        73.37521
563.93        73.06937
564.37        72.94097
564.80        72.98728
565.24        73.03164
565.68        73.06201
566.11         73.1347
566.55        73.26987
566.98         73.4308
567.42        73.54888
567.85        73.52199
568.29        73.46353
568.72         73.0466
569.16        72.90532
569.60        73.14323
570.03        73.07956
570.47        72.87418
570.90        72.90386
571.34        73.37115
571.77        73.37521
572.21        72.95364
572.64        73.33997
573.08        72.92046
573.51        72.91253
573.95        73.02493
574.38         72.9561
574.82        72.78535
