SpectraSmart Spectrum 2.9.0.0
--------- Device Information -----------
Spectrum Name :  反射率_0
Saving Time :  2024/04/28 00:00:19
Spectro-Module Model Name : SE2030-DUVN
Spectro-Module Serial Number : OS361AC55029948
Wavelength Start : 200
Wavelength End : 1025
Wavelength Unit : Wavelength(nm)
Spectrum Unit : Reflectance(%)
-----------Spectrum Setting ------------
Integration Time : 20ms
Average : 10
Boxcar : 0
Background removal :  enabled
linearity correction :  enabled
SC :  disabled
Intensity correction :  disabled
DWT denoise :  enabled
savitzky-golay :  disabled
FFT :  disabled
Running average :  disabled
Kalman :  disabled
High pass :  disabled
---------------BEGIN--------------------
Wavelength(nm)             Reflectance(%)
200.29               0
200.75        27.91918
201.21        45.06772
201.67        59.13152
202.13        66.36094
202.58        69.19337
203.04        70.35114
203.50        70.36687
203.96        69.69381
204.42        68.91238
204.88        68.06243
205.34        67.70502
205.80         68.7048
206.26        71.10133
206.72        74.83063
207.18        79.92937
207.64        82.29098
208.10        79.43433
208.55        75.91989
209.01        71.61908
209.47         64.8773
209.93        52.42788
210.39        21.74312
210.85       -66.44172
211.31        -154.694
211.77       -13.60349
212.23        68.56454
212.69        94.99203
213.14        100.4798
213.60        95.02824
214.06        78.85961
214.52        48.03031
214.98        20.85428
215.44        23.08978
215.90        38.81013
216.36        53.72871
216.81        62.76579
217.27        67.43929
217.73        71.10783
218.19        73.06898
218.65        71.19225
219.11        65.10799
219.57         54.3104
220.02        41.90903
220.48        37.63992
220.94         43.8683
221.40        56.30529
221.86        68.48107
222.32        74.04716
222.77        73.25671
223.23        69.07164
223.69        63.95304
224.15        60.15474
224.61        57.96058
225.06         56.3083
225.52        55.19675
225.98        54.47293
226.44        54.05174
226.90        53.92889
227.36        53.87294
227.81        53.55642
228.27        52.87551
228.73        51.74434
229.19        49.93406
229.65        47.26652
230.10        43.94791
230.56        40.63456
231.02        37.69735
231.48        35.62167
231.93        34.43952
232.39        34.01682
232.85        34.46571
233.31        35.95305
233.77        38.24317
234.22        41.19707
234.68        43.85673
235.14        45.09629
235.60        44.79907
236.05        43.11335
236.51        41.18235
236.97         41.4639
237.43        44.77766
237.88        50.42261
238.34        56.35006
238.80        60.80715
239.26         63.7137
239.71        65.78475
240.17        67.53158
240.63        70.08804
241.08        73.21323
241.54        75.02334
242.00        76.01966
242.46        77.42212
242.91        80.05189
243.37         84.9868
243.83        95.38017
244.28        111.6274
244.74        119.5006
245.20        113.8835
245.66        104.5032
246.11        97.11272
246.57        90.18797
247.03         80.3641
247.48        66.64951
247.94        55.93779
248.40        57.23664
248.85        67.67381
249.31        80.41841
249.77        89.11524
250.22        93.38046
250.68        95.27574
251.14        96.11281
251.59        97.28329
252.05        99.37205
252.51         102.039
252.96        104.7785
253.42        105.9718
253.88         104.359
254.33        101.3629
254.79        98.63656
255.25        95.86453
255.70        92.82348
256.16        90.19675
256.62        88.44955
257.07        88.23035
257.53         89.4618
257.99        90.88685
258.44         91.3326
258.90        90.40897
259.35        87.93769
259.81        85.05407
260.27        82.11339
260.72        79.63193
261.18        78.09475
261.63        76.84202
262.09        75.92991
262.55        74.88885
263.00        73.54325
263.46        72.19956
263.91        70.77908
264.37        69.64543
264.83        68.71644
265.28        67.82969
265.74        66.94262
266.19        65.69542
266.65        64.15691
267.11        62.38634
267.56        60.50345
268.02         58.8229
268.47        57.38483
268.93        56.13209
269.38        55.01786
269.84         54.0028
270.30         53.0394
270.75        52.14427
271.21        51.23161
271.66        50.10094
272.12        48.76018
272.57        47.22622
273.03        45.70865
273.48        44.44985
273.94        43.56277
274.39        42.91372
274.85        42.40588
275.31        41.79286
275.76        41.00132
276.22         40.1558
276.67        39.28733
277.13        38.55786
277.58        37.93717
278.04        37.42392
278.49        36.91465
278.95        36.40131
279.40        35.81236
279.86        35.22487
280.31        34.62608
280.77        34.13078
281.22         33.7049
281.68        33.37642
282.13        33.05391
282.59        32.67485
283.04        32.21304
283.50        31.72855
283.95        31.29451
284.41        31.06997
284.86        31.05892
285.32        31.22722
285.77        31.45866
286.22        31.63425
286.68        31.73818
287.13        31.76497
287.59        31.79435
288.04        31.86576
288.50        32.01887
288.95        32.18936
289.41        32.36311
289.86        32.46478
290.32        32.51743
290.77        32.55789
291.22        32.63353
291.68        32.79733
292.13        33.07293
292.59        33.48448
293.04        34.07267
293.50        34.92335
293.95        36.03197
294.40        37.38456
294.86        38.90723
295.31        40.47155
295.77        42.04935
296.22        43.64191
296.68        45.30016
297.13        47.07727
297.58        48.96842
298.04        50.93218
298.49         52.8938
298.95        54.81043
299.40        56.67841
299.85        58.54673
300.31        60.48812
300.76        62.54285
301.21         64.7089
301.67        66.95898
302.12        69.19118
302.58        71.37023
303.03        73.43645
303.48        75.43369
303.94        77.42537
304.39        79.40298
304.84        81.41353
305.30        83.47604
305.75        85.52408
306.20        87.56632
306.66         89.6189
307.11        91.61716
307.57        93.61465
308.02        95.55579
308.47        97.43079
308.93        99.22948
309.38        100.8485
309.83        102.2588
310.29        103.4885
310.74        104.5459
311.19         105.493
311.65        106.3974
312.10        107.2555
312.55        108.0647
313.00        108.8687
313.46        109.7375
313.91        110.6582
314.36        111.6333
314.82        112.5617
315.27        113.2703
315.72        113.7251
316.18        113.9869
316.63        114.1687
317.08        114.4993
317.53        115.0303
317.99        115.6845
318.44         116.356
318.89        116.8415
319.35        117.0908
319.80        117.1912
320.25        117.2246
320.70        117.3277
321.16        117.5353
321.61        117.8178
322.06        118.1592
322.51        118.5479
322.97        118.9439
323.42        119.3924
323.87        119.8138
324.32        120.0968
324.78        120.2041
325.23        120.2068
325.68        120.1739
326.13        120.2628
326.59        120.4882
327.04        120.8589
327.49        121.2951
327.94        121.6994
328.39          122.04
328.85        122.3181
329.30        122.6124
329.75        122.8705
330.20        123.0984
330.66         123.254
331.11        123.4714
331.56         123.846
332.01           124.4
332.46        125.0947
332.92        125.7607
333.37        126.2768
333.82        126.5278
334.27        126.5744
334.72        126.5228
335.17        126.5552
335.63        126.7136
336.08        127.0213
336.53        127.4202
336.98        127.8588
337.43        128.3102
337.88        128.7879
338.34        129.2749
338.79        129.7988
339.24         130.329
339.69        130.8512
340.14        131.3183
340.59        131.6677
341.05        131.8993
341.50        132.0502
341.95        132.1915
342.40        132.4527
342.85        132.8617
343.30        133.3687
343.75        133.9153
344.20        134.4021
344.66        134.7939
345.11        135.1154
345.56        135.3438
346.01         135.442
346.46        135.4225
346.91        135.2986
347.36        135.1688
347.81        135.1893
348.26        135.3805
348.72        135.6924
349.17        136.0058
349.62        136.1485
350.07        136.0735
350.52         135.844
350.97        135.5197
351.42        135.1975
351.87        134.9205
352.32        134.6581
352.77        134.4285
353.22        134.2621
353.67        134.1432
354.13        134.0639
354.58        133.9216
355.03        133.6169
355.48        133.1156
355.93        132.4379
356.38        131.6283
356.83        130.7614
357.28        129.8723
357.73        128.9668
358.18        128.0372
358.63        127.0617
359.08        126.0528
359.53        125.0388
359.98         124.079
360.43        123.2586
360.88        122.5806
361.33        121.9967
361.78        121.4343
362.23        120.7711
362.68        119.9695
363.13        119.0843
363.58        118.1303
364.03        117.0564
364.48        116.0192
364.93        114.9165
365.38        113.8468
365.83        112.9013
366.28        112.0936
366.73        111.3994
367.18        110.7397
367.63        109.9832
368.08        109.1002
368.53        108.1314
368.98        107.1427
369.43         106.242
369.88        105.4605
370.33        104.7623
370.78        104.1106
371.23        103.4466
371.68        102.7468
372.13        102.0269
372.58        101.2979
373.03        100.5778
373.48        99.87461
373.93        99.18153
374.38        98.48994
374.83        97.78548
375.28        97.06767
375.72        96.33042
376.17        95.62556
376.62        94.95987
377.07        94.33722
377.52        93.74133
377.97        93.17163
378.42        92.62951
378.87         92.1096
379.32        91.61697
379.77        91.11353
380.22        90.53456
380.67        89.87343
381.11        89.15553
381.56        88.44759
382.01        87.87659
382.46        87.47807
382.91        87.21502
383.36        87.01471
383.81        86.75864
384.26        86.40864
384.71        85.99557
385.15        85.53899
385.60        85.13114
386.05        84.77393
386.50        84.44411
386.95        84.12376
387.40         83.7942
387.85        83.45611
388.29        83.07565
388.74        82.75652
389.19        82.44696
389.64        82.13211
390.09        81.79101
390.54        81.43176
390.98        81.05234
391.43        80.71122
391.88        80.41339
392.33        80.09544
392.78        79.72359
393.23        79.32513
393.67        78.77248
394.12        78.22629
394.57        78.38949
395.02        78.09588
395.47        78.25836
395.91        78.41127
396.36        78.36272
396.81         78.0819
397.26        77.67554
397.71        77.24056
398.15        76.89017
398.60        76.73872
399.05        76.53188
399.50        76.31711
399.95         76.4464
400.39         76.7542
400.84        76.58277
401.29        75.95154
401.74         75.2217
402.18        74.62997
402.63        74.55412
403.08        74.89178
403.53        74.91564
403.97        74.57334
404.42        74.36223
404.87        74.29604
405.32        74.22997
405.76        74.15971
406.21        73.98065
406.66        73.74844
407.11        73.87037
407.55        74.20954
408.00        74.02239
408.45        73.36463
408.90        72.74062
409.34        72.35284
409.79        72.44825
410.24        72.86912
410.68        72.99673
411.13        72.76331
411.58        72.56127
412.03        72.45121
412.47        72.36054
412.92        72.28641
413.37        72.25996
413.81         72.2523
414.26        72.27673
414.71        72.30733
415.15        72.36415
415.60        72.39266
416.05        72.36284
416.49        72.27541
416.94        72.12984
417.39         71.9815
417.83        71.91084
418.28        71.93156
418.73        72.01624
419.17          72.119
419.62        72.16521
420.07        72.13583
420.51        72.05127
420.96        71.95934
421.41        71.87285
421.85        71.77477
422.30        71.72378
422.74        71.71073
423.19         71.7597
423.64        71.85121
424.08        72.16415
424.53         72.5811
424.98        72.44258
425.42        72.59852
425.87        72.35745
426.31        72.10124
426.76         72.0491
427.21        72.20607
427.65        72.36692
428.10        72.44556
428.54        72.48944
428.99        72.51913
429.44        72.55053
429.88        72.54268
430.33        72.35822
430.77        72.04298
431.22        72.02872
431.66        72.28935
432.11        72.46678
432.56        72.55521
433.00        72.80618
433.45        73.03632
433.89        72.92559
434.34        72.77102
434.78        72.30015
435.23        72.03816
435.67         72.3512
436.12        73.76432
436.57        74.00081
437.01         73.3724
437.46        72.99715
437.90        73.42449
438.35        73.75826
438.79        73.37522
439.24        73.28463
439.68        73.33009
440.13         73.3633
440.57        73.40933
441.02        73.87644
441.46        74.50214
441.91         74.3511
442.35        73.58904
442.80        73.47949
443.24        73.96651
443.69        74.22646
444.13        74.18005
444.58        74.28053
445.02        74.44832
445.47        74.50344
445.91        74.47552
446.36        74.35891
446.80        74.10641
447.24        74.64234
447.69        74.17034
448.13        74.43684
448.58        74.81339
449.02        74.88053
449.47        74.68391
449.91        74.66161
450.36        74.86739
450.80        75.01127
451.25        75.06903
451.69         75.1039
452.13        75.09419
452.58        74.95424
453.02        74.75573
453.47        74.65366
453.91        74.66443
454.36        74.85088
454.80        75.02213
455.24        74.75567
455.69         74.1795
456.13        73.56079
456.58        73.12744
457.02        73.34692
457.46        73.89494
457.91        73.76395
458.35        73.23431
458.79        72.95695
459.24        73.02865
459.68        72.92914
460.13        72.70662
460.57        72.43903
461.01        72.48367
461.46        72.56721
461.90         72.1808
462.34        72.76071
462.79         72.5564
463.23        72.53418
463.68        72.26927
464.12        71.97073
464.56        71.75966
465.01         71.9001
465.45        72.17652
465.89        72.22391
466.34        72.06513
466.78         71.6641
467.22        71.12045
467.67        71.57004
468.11        71.40544
468.55        71.49348
468.99        71.34368
469.44        71.30392
469.88        71.36339
470.32        71.33282
470.77        71.21811
471.21        71.10899
471.65        71.01173
472.10        70.91113
472.54          70.804
472.98        70.74688
473.42         70.7488
473.87        70.74697
474.31        70.68983
474.75          70.772
475.20        70.89865
475.64         70.6284
476.08        70.06215
476.52        69.87125
476.97        70.12672
477.41        70.01545
477.85        70.21542
478.29        70.32277
478.74          70.494
479.18        69.61221
479.62        70.22121
480.06        70.10558
480.50        70.02285
480.95        70.00449
481.39         69.9911
481.83        70.05946
482.27        69.97096
482.72        69.73864
483.16         69.7448
483.60        69.64203
484.04        69.51199
484.48        69.49805
484.93        69.80817
485.37        69.53471
485.81        69.59188
486.25        70.30811
486.69        70.06184
487.14        69.02205
487.58        69.43668
488.02        69.97613
488.46        69.70926
488.90        69.92491
489.34        69.72324
489.79        68.71957
490.23        69.65318
490.67        69.49489
491.11        69.15835
491.55        69.04765
491.99        69.18219
492.43        69.21735
492.88         69.1083
493.32        69.05034
493.76         69.0338
494.20        69.06682
494.64        69.15918
495.08         69.1852
495.52        69.18839
495.96        69.46786
496.41        69.84238
496.85        69.92301
497.29        69.14813
497.73        68.94196
498.17        69.05932
498.61        69.27904
499.05         69.4345
499.49        69.39661
499.93        69.22903
500.37        69.11219
500.82        69.04182
501.26        69.14439
501.70        69.51487
502.14        68.73499
502.58        69.26869
503.02        69.28349
503.46        69.22885
503.90        69.01234
504.34        69.02629
504.78        68.98458
505.22        68.98409
505.66        68.89684
506.10        68.76262
506.54        68.73931
506.98         68.8319
507.42        68.79669
507.86        69.17603
508.30        68.81648
508.74        69.02834
509.18        68.87321
509.62        68.74186
510.06        68.67001
510.50        68.67635
510.94        68.73631
511.38        68.79594
511.82        68.80093
512.26         68.7378
512.70        68.62946
513.14        68.50913
513.58        68.46933
514.02        68.53612
514.46          68.606
514.90        68.62915
515.34        68.94315
515.78        68.87688
516.22        68.96446
516.66        69.01733
517.10        69.06131
517.54        69.09258
517.98        69.10449
518.42        69.10423
518.86        69.08881
519.30        69.06117
519.74         69.0308
520.18          68.984
520.62        68.89476
521.06        68.76898
521.50        68.62326
521.93        68.50646
522.37        68.48239
522.81        68.56497
523.25        68.71945
523.69         68.8969
524.13        69.02115
524.57        69.06599
525.01        69.05389
525.45        68.98673
525.89        68.86919
526.32        68.71255
526.76        68.53634
527.20        68.38031
527.64        68.31731
528.08        68.35851
528.52        68.47649
528.96        68.63171
529.40        68.75862
529.83        68.82913
530.27        68.86666
530.71        68.85026
531.15        68.78709
531.59        68.69012
532.03        68.45494
532.46        68.31879
532.90        68.24315
533.34        68.29532
533.78        68.44392
534.22        68.61147
534.66        68.67276
535.09        68.59216
535.53        68.42766
535.97        68.24028
536.41        68.14444
536.85        68.16724
537.28        68.27305
537.72        68.40067
538.16        68.44355
538.60        68.38044
539.04        68.26537
539.47        68.13116
539.91        68.06348
540.35        68.06432
540.79        68.11894
541.22        68.18923
541.66        68.22558
542.10        68.20993
542.54        68.15939
542.97        68.09137
543.41        68.06984
543.85        68.09335
544.29         68.1489
544.72        68.19397
545.16        68.19983
545.60         68.1444
546.04        68.03719
546.47         67.9213
546.91        67.87103
547.35        67.89174
547.79        67.97894
548.22        68.06146
548.66        68.02557
549.10        67.88303
549.53        67.83984
549.97        67.92173
550.41        67.96503
550.84        67.95777
551.28        68.07591
551.72        68.29931
552.15        68.18726
552.59        68.16628
553.03         68.1992
553.46        67.94971
553.90        67.92742
554.34        67.98804
554.77         68.1285
555.21        68.26436
555.65        68.28959
556.08        68.12206
556.52        67.95081
556.96        67.81024
557.39        67.84421
557.83        68.01553
558.27        68.00601
558.70        67.81861
559.14         67.7257
559.57        67.71604
560.01         67.6802
560.45        67.61002
560.88        67.50681
561.32        67.46696
561.75        67.56346
562.19        67.76353
562.63        67.94168
563.06        68.01357
563.50        67.77332
563.93        67.33666
564.37        67.28505
564.80         67.5633
565.24        67.66843
565.68        67.58746
566.11        67.64107
566.55        67.83714
566.98        67.98711
567.42        68.06526
567.85        68.01361
568.29        67.91104
568.72        67.77209
569.16        67.63239
569.60        67.62411
570.03        67.77005
570.47        67.39169
570.90        67.34772
571.34        67.88461
571.77        67.44778
572.21        67.66571
572.64        67.87108
573.08        67.40208
573.51        67.43839
573.95        67.53835
574.38        67.99427
574.82        67.57407
