SpectraSmart Spectrum 2.9.0.0
--------- Device Information -----------
Spectrum Name :  反射率_0
Saving Time :  2024/04/27 23:44:28
Spectro-Module Model Name : SE2030-DUVN
Spectro-Module Serial Number : OS361AC55029948
Wavelength Start : 200
Wavelength End : 1025
Wavelength Unit : Wavelength(nm)
Spectrum Unit : Reflectance(%)
-----------Spectrum Setting ------------
Integration Time : 20ms
Average : 10
Boxcar : 0
Background removal :  enabled
linearity correction :  enabled
SC :  disabled
Intensity correction :  disabled
DWT denoise :  enabled
savitzky-golay :  disabled
FFT :  disabled
Running average :  disabled
Kalman :  disabled
High pass :  disabled
---------------BEGIN--------------------
Wavelength(nm)             Reflectance(%)
200.29               0
200.75       -43.57146
201.21        -10.2903
201.67        20.44406
202.13        33.49094
202.58        34.52854
203.04        30.97555
203.50        28.34711
203.96        32.80631
204.42        43.44229
204.88        55.80142
205.34        66.59486
205.80        74.12432
206.26        79.02573
206.72        82.50413
207.18        84.51192
207.64        83.57619
208.10        79.94903
208.55        76.20966
209.01        72.15604
209.47        66.27788
209.93        55.45853
210.39        29.80564
210.85       -47.75806
211.31       -153.8054
211.77       -51.27229
212.23        24.20564
212.69         52.1331
213.14        60.97783
213.60        60.82686
214.06        54.66935
214.52        42.56969
214.98        36.48297
215.44        45.28962
215.90        57.01861
216.36        65.04198
216.81           68.05
217.27        67.46392
217.73        65.12778
218.19        61.16199
218.65        55.39885
219.11        48.11129
219.57         38.9052
220.02        29.64959
220.48        26.65925
220.94         31.1473
221.40        40.16764
221.86        49.55239
222.32        55.21443
222.77         57.0817
223.23        56.74903
223.69        55.08055
224.15        52.74062
224.61        50.02192
225.06        46.44799
225.52        43.28556
225.98        42.67187
226.44        44.46183
226.90        47.14822
227.36        49.26033
227.81        49.59881
228.27        48.22196
228.73        45.55659
229.19        41.83953
229.65        37.85178
230.10        34.30785
230.56        31.60649
231.02        29.96897
231.48        29.66897
231.93        30.54141
232.39        32.39466
232.85        35.07953
233.31        38.37778
233.77        41.98321
234.22        45.83945
234.68        49.18106
235.14        51.21109
235.60         51.9137
236.05        51.37731
236.51        50.65591
236.97        51.88639
237.43        55.68815
237.88        61.49255
238.34        67.27484
238.80        71.31263
239.26        73.48479
239.71        74.16377
240.17        73.92433
240.63        75.87846
241.08        80.98994
241.54        85.94906
242.00        89.03773
242.46        90.31995
242.91        90.50892
243.37        89.45155
243.83        86.88604
244.28        84.70321
244.74        86.97379
245.20        92.34002
245.66        96.13519
246.11        97.33681
246.57        96.81522
247.03        94.64046
247.48        90.94958
247.94         88.5472
248.40        90.50957
248.85        95.25269
249.31        100.4959
249.77         104.185
250.22         106.273
250.68         107.588
251.14        108.9091
251.59        111.3489
252.05        115.5784
252.51        121.9305
252.96        129.7675
253.42        134.4529
253.88        132.4211
254.33        126.1082
254.79        120.1347
255.25        115.7784
255.70        112.4644
256.16        110.4638
256.62        109.1776
257.07        108.2551
257.53        108.1141
257.99        107.9893
258.44        107.5468
258.90        107.2721
259.35        106.4988
259.81        105.8342
260.27        104.6903
260.72        102.5332
261.18        100.1076
261.63        97.28272
262.09        94.92574
262.55        93.27314
263.00        92.13406
263.46        91.53226
263.91        90.92692
264.37        90.19349
264.83        89.15441
265.28        87.83671
265.74        86.53938
266.19         85.2255
266.65         84.0244
267.11        82.82706
267.56        81.48135
268.02        79.91981
268.47        78.10568
268.93        76.14914
269.38        74.26591
269.84        72.83801
270.30        71.90515
270.75        71.32452
271.21         70.8151
271.66        69.86219
272.12        68.39014
272.57        66.51198
273.03        64.52344
273.48        62.76905
273.94         61.4397
274.39        60.36231
274.85         59.4789
275.31         58.5632
275.76        57.52529
276.22        56.49313
276.67        55.46836
277.13        54.61637
277.58        53.86394
278.04        53.22671
278.49        52.52224
278.95        51.67496
279.40        50.60997
279.86        49.47791
280.31        48.35548
280.77        47.53148
281.22        46.97664
281.68        46.66525
282.13        46.42426
282.59        46.11969
283.04        45.67432
283.50        45.19178
283.95        44.69465
284.41        44.29583
284.86         44.0006
285.32        43.80967
285.77        43.69864
286.22         43.7115
286.68        43.85126
287.13        44.04663
287.59        44.27634
288.04        44.39924
288.50         44.4314
288.95        44.36775
289.41        44.27827
289.86        44.19397
290.32        44.17752
290.77         44.2109
291.22        44.33338
291.68        44.58378
292.13        44.96378
292.59        45.51508
293.04        46.22233
293.50        47.09292
293.95        48.10452
294.40        49.25253
294.86        50.55151
295.31        52.01493
295.77        53.63626
296.22        55.37005
296.68         57.1393
297.13        58.78878
297.58        60.28209
298.04        61.66488
298.49        63.00135
298.95        64.46692
299.40        66.09348
299.85        67.84971
300.31        69.71502
300.76        71.58206
301.21        73.40696
301.67        75.22685
302.12         76.9558
302.58        78.58784
303.03        80.08488
303.48        81.49142
303.94        82.92249
304.39        84.44831
304.84        86.11737
305.30        87.90629
305.75        89.68945
306.20        91.38672
306.66        92.99339
307.11        94.48935
307.57        95.92564
308.02        97.24016
308.47        98.46077
308.93        99.60106
309.38        100.6671
309.83        101.7894
310.29        103.0093
310.74        104.2738
311.19        105.5113
311.65         106.572
312.10        107.3843
312.55        107.9927
313.00        108.5126
313.46        109.1349
313.91        109.8821
314.36        110.7169
314.82        111.5013
315.27        112.0095
315.72        112.2009
316.18        112.1713
316.63        112.0794
317.08        112.2118
317.53        112.6368
317.99        113.2633
318.44        113.9459
318.89        114.4204
319.35        114.6165
319.80        114.6278
320.25        114.5765
320.70        114.6654
321.16        114.9385
321.61        115.3442
322.06         115.791
322.51          116.15
322.97        116.3583
323.42        116.4925
323.87        116.5773
324.32        116.6748
324.78        116.7887
325.23        116.9398
325.68        117.0844
326.13        117.1857
326.59        117.2156
327.04        117.2559
327.49        117.3266
327.94         117.494
328.39        117.7735
328.85        118.0985
329.30        118.5171
329.75         118.933
330.20        119.3113
330.66          119.63
331.11        119.9275
331.56        120.1409
332.01        120.2802
332.46        120.3552
332.92         120.382
333.37        120.5657
333.82        120.8861
334.27        121.3099
334.72        121.7858
335.17        122.2184
335.63        122.5525
336.08        122.8905
336.53        123.1994
336.98        123.4762
337.43        123.7325
337.88        123.9486
338.34        124.2005
338.79         124.679
339.24        125.3804
339.69        126.2579
340.14        127.1113
340.59        127.6117
341.05        127.6997
341.50        127.4936
341.95        127.2183
342.40        127.2531
342.85        127.6887
343.30          128.39
343.75        129.1937
344.20        129.8349
344.66        130.2224
345.11        130.4347
345.56        130.4926
346.01        130.4216
346.46        130.2666
346.91        130.0316
347.36        129.8092
347.81        129.7481
348.26        129.8748
348.72        130.1509
349.17        130.4915
349.62        130.7742
350.07        130.9392
350.52        131.0001
350.97        130.9476
351.42        130.7752
351.87        130.4955
352.32        130.1198
352.77        129.6687
353.22         129.181
353.67         128.673
354.13         128.148
354.58        127.6192
355.03        127.1681
355.48        126.7894
355.93        126.4538
356.38         126.048
356.83         125.391
357.28        124.4612
357.73        123.3397
358.18          122.15
358.63        121.0823
359.08        120.1966
359.53        119.4388
359.98        118.7785
360.43        118.1641
360.88        117.5577
361.33        116.9652
361.78        116.3392
362.23        115.5975
362.68        114.7226
363.13        113.7404
363.58           112.7
364.03        111.6335
364.48        110.6633
364.93        109.7149
365.38        108.7923
365.83        107.8524
366.28        106.8876
366.73        105.9114
367.18        104.9679
367.63        104.1246
368.08        103.3919
368.53        102.7499
368.98        102.1231
369.43        101.3893
369.88        100.5265
370.33        99.57379
370.78        98.62521
371.23        97.83716
371.68        97.24027
372.13        96.76991
372.58        96.34177
373.03        95.82236
373.48        95.16641
373.93        94.41993
374.38        93.60018
374.83        92.72874
375.28        91.83539
375.72        90.91202
376.17        90.04577
376.62        89.30494
377.07        88.70351
377.52        88.20725
377.97        87.78954
378.42         87.4024
378.87        87.01798
379.32        86.65086
379.77        86.23883
380.22        85.68702
380.67        84.98763
381.11        84.16599
381.56        83.34647
382.01        82.75188
382.46        82.43984
382.91        82.35718
383.36        82.34693
383.81        82.15672
384.26        81.72495
384.71        81.11872
385.15        80.47373
385.60        80.06229
386.05        79.91568
386.50        79.94673
386.95        79.98905
387.40        79.79481
387.85        79.32605
388.29        78.64066
388.74        77.98638
389.19        77.52036
389.64        77.26738
390.09        77.13606
390.54        77.03209
390.98        76.79016
391.43        76.41605
391.88         75.9845
392.33        75.51112
392.78        75.02354
393.23        74.56244
393.67        74.15017
394.12        73.61823
394.57        73.74068
395.02        73.32311
395.47        73.39619
395.91        73.36211
396.36        73.32856
396.81        73.21135
397.26        73.07423
397.71        72.90515
398.15        72.64306
398.60        72.37342
399.05        71.98473
399.50        71.59987
399.95        71.49616
400.39        71.62017
400.84        71.69571
401.29        71.60836
401.74        71.12502
402.18        70.39605
402.63        70.06189
403.08        70.13218
403.53        69.99014
403.97        69.63466
404.42        69.50417
404.87        69.55209
405.32        69.55038
405.76        69.46468
406.21        69.23344
406.66        68.94158
407.11        68.97887
407.55        69.23906
408.00        69.11441
408.45        68.60592
408.90        67.95353
409.34        67.38059
409.79        67.38371
410.24         67.8346
410.68        68.00008
411.13        67.81464
411.58         67.7356
412.03        67.79267
412.47        67.81335
412.92        67.77269
413.37        67.73481
413.81        67.67725
414.26        67.61889
414.71        67.54926
415.15        67.48602
415.60        67.42269
416.05        67.40898
416.49        67.45854
416.94        67.54284
417.39        67.64891
417.83        67.75385
418.28        67.83753
418.73        67.88806
419.17        67.89894
419.62        67.86716
420.07        67.80479
420.51        67.72023
420.96        67.62039
421.41        67.50336
421.85        67.35336
422.30        67.12049
422.74         66.8978
423.19        67.07111
423.64        67.51705
424.08        67.83572
424.53        67.93954
424.98        67.46237
425.42        67.90672
425.87        67.57937
426.31        67.09116
426.76        67.23409
427.21        67.87775
427.65        67.93255
428.10        67.42384
428.54        67.29211
428.99        67.58923
429.44        67.88184
429.88        68.02444
430.33        67.92347
430.77        67.62301
431.22          67.475
431.66        67.54814
432.11         67.9239
432.56        68.55904
433.00        68.86418
433.45        68.52739
433.89         68.4855
434.34         68.9465
434.78        67.39105
435.23        67.15477
435.67        68.26939
436.12        68.82999
436.57        69.15736
437.01        68.60735
437.46        68.37716
437.90        68.92904
438.35         69.3671
438.79        69.21637
439.24        69.22709
439.68         69.2679
440.13         69.3261
440.57        69.42424
441.02        69.63916
441.46        69.86038
441.91         69.9082
442.35        69.76013
442.80        69.63943
443.24        69.81957
443.69        69.91869
444.13        70.14187
444.58        70.18256
445.02        70.06025
445.47        69.91762
445.91        69.82613
446.36        69.73341
446.80        69.61244
447.24        70.01938
447.69        69.95282
448.13        70.14066
448.58        70.61373
449.02        70.64247
449.47        70.40572
449.91        70.31358
450.36        70.42262
450.80        70.44966
451.25        70.41107
451.69        70.44157
452.13        70.52555
452.58        70.56635
453.02        70.54187
453.47        70.44542
453.91        70.25354
454.36        70.10691
454.80        69.98444
455.24        69.49741
455.69        68.76633
456.13        68.62251
456.58        68.75176
457.02        68.28652
457.46         69.1371
457.91         68.9173
458.35        68.56851
458.79        68.33869
459.24        68.34872
459.68        68.25138
460.13        68.05511
460.57        67.77903
461.01        67.76521
461.46         67.5456
461.90        67.28272
462.34        67.54253
462.79        67.87969
463.23        67.80344
463.68        67.29601
464.12        66.94994
464.56        66.88041
465.01        67.19399
465.45        67.57169
465.89        67.42058
466.34        66.90796
466.78         66.4948
467.22        66.20076
467.67        67.06657
468.11        66.58945
468.55        66.53328
468.99        66.22369
469.44        66.07761
469.88         66.0965
470.32          66.038
470.77        65.90257
471.21        65.78438
471.65        65.68581
472.10        65.59155
472.54        65.48203
472.98        65.38572
473.42        65.30991
473.87        65.20644
474.31        65.07961
474.75        65.16536
475.20        65.39626
475.64        65.39641
476.08        65.16243
476.52         65.0832
476.97        65.17961
477.41        64.88068
477.85        64.97643
478.29        64.64566
478.74        65.11887
479.18        64.57961
479.62        64.93869
480.06        64.85349
480.50         64.8192
480.95        64.68821
481.39        64.42141
481.83        64.49321
482.27        64.47782
482.72        63.95131
483.16        64.42996
483.60        64.07409
484.04        64.08476
484.48        64.03058
484.93        64.36916
485.37        63.89838
485.81        64.72449
486.25        64.98064
486.69         65.3131
487.14        64.66038
487.58          64.564
488.02         64.2018
488.46        64.11588
488.90        64.32258
489.34        63.83967
489.79        63.44664
490.23        63.46648
490.67        63.29329
491.11        63.13525
491.55        63.14801
491.99        63.30519
492.43        63.38943
492.88        63.37098
493.32        63.38171
493.76        63.41228
494.20        63.46206
494.64        63.55044
495.08        63.56134
495.52        63.51271
495.96        63.72227
496.41        64.05676
496.85        63.79432
497.29        63.09428
497.73        62.90147
498.17        63.12355
498.61        63.37276
499.05        63.46579
499.49        63.25196
499.93        62.85472
500.37        62.76121
500.82        62.94445
501.26        62.99631
501.70        63.23003
502.14          62.605
502.58        63.37481
503.02         63.4534
503.46        63.21506
503.90         62.9704
504.34        62.73666
504.78        62.64119
505.22        62.68126
505.66        62.72228
506.10        62.71721
506.54        62.76803
506.98        62.86395
507.42        62.64454
507.86        62.64706
508.30        62.58239
508.74         62.6151
509.18        62.68851
509.62        62.75879
510.06        62.75772
510.50        62.66676
510.94        62.51452
511.38        62.36041
511.82        62.29632
512.26        62.34096
512.70        62.46698
513.14        62.61584
513.58        62.66883
514.02        62.59782
514.46         62.4833
514.90        62.38858
515.34        62.19403
515.78        62.28196
516.22        62.33252
516.66        62.42221
517.10        62.49528
517.54        62.53486
517.98        62.55151
518.42        62.54226
518.86        62.50989
519.30        62.45991
519.74        62.39454
520.18        62.32562
520.62        62.27314
521.06        62.24484
521.50        62.23801
521.93        62.25819
522.37        62.29807
522.81        62.35518
523.25        62.42221
523.69        62.48059
524.13        62.50244
524.57        62.48171
525.01        62.42782
525.45        62.35111
525.89        62.26942
526.32        62.18787
526.76        62.11797
527.20        62.06734
527.64        62.05403
528.08        62.07846
528.52        62.13248
528.96        62.19967
529.40        62.25283
529.83        62.27686
530.27        62.28855
530.71        62.28035
531.15        62.25158
531.59        62.20581
532.03        62.14221
532.46         62.0724
532.90        62.03742
533.34        62.03672
533.78           62.06
534.22        62.08333
534.66        62.06794
535.09        61.99973
535.53        61.91283
535.97        61.81449
536.41        61.73035
536.85        61.67116
537.28        61.63089
537.72        61.61744
538.16        61.63402
538.60        61.67898
539.04        61.76252
539.47        61.84128
539.91        61.88488
540.35        61.86932
540.79        61.81438
541.22        61.74183
541.66        61.69421
542.10        61.68336
542.54        61.70507
542.97        61.72813
543.41        61.73769
543.85        61.71065
544.29        61.65355
544.72         61.5908
545.16        61.55705
545.60        61.53743
546.04        61.62164
546.47        61.74294
546.91        61.54631
547.35        61.13794
547.79        61.13992
548.22        61.46099
548.66        61.46933
549.10        61.17147
549.53        61.06683
549.97        61.18816
550.41        61.27018
550.84        61.29494
551.28        61.42921
551.72        61.63621
552.15        61.63296
552.59        61.46819
553.03        61.57884
553.46        61.25186
553.90          61.166
554.34        61.08452
554.77        61.28875
555.21        61.25154
555.65        61.28225
556.08        61.16796
556.52        61.12745
556.96        61.14572
557.39        61.17264
557.83         61.2006
558.27        61.28379
558.70        61.18499
559.14        61.18489
559.57        61.20356
560.01        61.22956
560.45        61.22197
560.88        61.16653
561.32        61.11935
561.75        60.97965
562.19        60.83334
562.63        60.96915
563.06        61.27663
563.50        61.21703
563.93        60.83371
564.37        60.70708
564.80        60.83775
565.24        60.94796
565.68        61.01006
566.11        61.07442
566.55        61.14329
566.98        61.25439
567.42         61.3936
567.85        61.26923
568.29        61.13384
568.72        61.08525
569.16        61.19603
569.60        61.26656
570.03        61.28732
570.47        61.17179
570.90        61.27328
571.34        61.31419
571.77        61.42479
572.21         61.2795
572.64        61.55664
573.08        61.23027
573.51         60.8872
573.95        61.33613
574.38        61.72804
574.82         61.6194
