SpectraSmart Spectrum 2.9.0.0
--------- Device Information -----------
Spectrum Name :  反射率_0
Saving Time :  2024/04/28 00:07:52
Spectro-Module Model Name : SE2030-DUVN
Spectro-Module Serial Number : OS361AC55029948
Wavelength Start : 200
Wavelength End : 1025
Wavelength Unit : Wavelength(nm)
Spectrum Unit : Reflectance(%)
-----------Spectrum Setting ------------
Integration Time : 20ms
Average : 10
Boxcar : 0
Background removal :  enabled
linearity correction :  enabled
SC :  disabled
Intensity correction :  disabled
DWT denoise :  enabled
savitzky-golay :  disabled
FFT :  disabled
Running average :  disabled
Kalman :  disabled
High pass :  disabled
---------------BEGIN--------------------
Wavelength(nm)             Reflectance(%)
200.29               0
200.75        131.0193
201.21        119.9839
201.67        103.4644
202.13        93.02817
202.58         87.1623
203.04        82.99179
203.50        80.11727
203.96        79.00536
204.42        79.51807
204.88        81.40479
205.34        84.09035
205.80        87.36913
206.26        91.56891
206.72        97.42414
207.18        105.0809
207.64         109.331
208.10        106.1712
208.55        100.0813
209.01        94.26604
209.47         88.7265
209.93         81.1124
210.39        64.91623
210.85        18.45135
211.31       -38.51611
211.77        27.14401
212.23        70.89987
212.69        87.05561
213.14        93.64897
213.60        96.49192
214.06        98.61307
214.52        98.77944
214.98        92.62806
215.44        82.77995
215.90        74.46119
216.36        70.81316
216.81         72.3296
217.27        77.39111
217.73        85.36806
218.19        93.59876
218.65        97.14523
219.11        94.35673
219.57         85.9143
220.02        74.30647
220.48        67.56673
220.94        68.67786
221.40        74.70975
221.86        81.40848
222.32        84.52343
222.77        83.94284
223.23          81.497
223.69        78.86266
224.15        77.61346
224.61        77.88224
225.06        78.96985
225.52         80.0207
225.98        79.20492
226.44        76.73013
226.90        73.79068
227.36        71.56995
227.81        70.83429
228.27        71.40184
228.73        72.74194
229.19        74.02917
229.65        73.67263
230.10        71.25081
230.56         67.8684
231.02        64.36927
231.48        61.93484
231.93        60.77921
232.39        60.51459
232.85        61.22005
233.31        63.10467
233.77        65.86111
234.22        69.32275
234.68        72.39832
235.14        73.64467
235.60        72.88098
236.05        70.31445
236.51        67.08644
236.97         66.0246
237.43        68.17548
237.88        72.79103
238.34        77.72461
238.80        80.83012
239.26        81.61584
239.71         80.4376
240.17        76.85703
240.63        73.29207
241.08        73.07547
241.54        74.83894
242.00        76.96795
242.46        78.67333
242.91        80.35092
243.37        82.93182
243.83        88.05885
244.28        95.96633
244.74        99.79538
245.20        96.87646
245.66        92.16388
246.11        88.80298
246.57        86.13206
247.03        82.63348
247.48        78.80107
247.94        78.98692
248.40         85.6502
248.85        95.71224
249.31        103.7169
249.77        105.2332
250.22        102.0573
250.68         97.1314
251.14        92.84572
251.59         91.2077
252.05        92.37836
252.51        95.74198
252.96        100.8315
253.42         104.897
253.88        105.1216
254.33        102.8984
254.79        100.3264
255.25        97.63139
255.70        94.78167
256.16        92.41061
256.62        90.92464
257.07        90.95269
257.53         92.4249
257.99        94.03822
258.44          94.789
258.90        94.47101
259.35        92.78571
259.81        90.77933
260.27        88.47694
260.72         86.0187
261.18        84.01315
261.63         82.0127
262.09        80.45515
262.55        79.24522
263.00        78.18391
263.46        77.41701
263.91          76.588
264.37        75.71056
264.83        74.68299
265.28        73.52226
265.74        72.41172
266.19        71.24998
266.65        70.14579
267.11        69.02174
267.56        67.88885
268.02        66.90858
268.47        66.03794
268.93        65.25551
269.38        64.47001
269.84        63.58411
270.30        62.55644
270.75        61.42216
271.21        60.19069
271.66        58.81026
272.12        57.33657
272.57        55.75433
273.03        54.24211
273.48        52.96697
273.94        52.02855
274.39         51.3162
274.85        50.73689
275.31        50.02563
275.76        49.10642
276.22        48.10792
276.67         47.0844
277.13        46.26427
277.58        45.60469
278.04        45.08843
278.49        44.55129
278.95        43.91601
279.40        43.10153
279.86        42.24276
280.31        41.36543
280.77        40.65839
281.22        40.10077
281.68        39.70171
282.13        39.36678
282.59        39.05343
283.04        38.70508
283.50        38.36511
283.95        38.03429
284.41        37.77788
284.86         37.5783
285.32        37.44418
285.77        37.30793
286.22        37.13484
286.68        36.93687
287.13        36.68892
287.59        36.47121
288.04        36.31133
288.50        36.25237
288.95        36.24147
289.41        36.26223
289.86        36.22294
290.32        36.14528
290.77        36.05799
291.22        36.02012
291.68        36.10564
292.13        36.32949
292.59         36.6984
293.04        37.21687
293.50          37.922
293.95        38.79731
294.40        39.84562
294.86        41.02107
295.31        42.23854
295.77        43.48877
296.22        44.77139
296.68        46.14023
297.13        47.64716
297.58        49.29895
298.04         51.0754
298.49        52.90461
298.95        54.74253
299.40        56.57942
299.85        58.44522
300.31        60.43302
300.76        62.61589
301.21        64.98427
301.67        67.50112
302.12        69.97742
302.58        72.25113
303.03        74.26029
303.48        76.10197
303.94        77.97891
304.39        80.09225
304.84        82.51608
305.30        85.18267
305.75        87.88823
306.20        90.43842
306.66        92.79646
307.11        94.96162
307.57        97.05601
308.02        99.12166
308.47        101.1944
308.93        103.2497
309.38        105.1716
309.83        106.9231
310.29          108.53
310.74        109.9947
311.19        111.4141
311.65         112.899
312.10        114.4214
312.55        115.9378
313.00        117.3675
313.46        118.6034
313.91        119.6053
314.36        120.4363
314.82        121.1385
315.27        121.7706
315.72        122.3703
316.18        122.9524
316.63        123.5303
317.08        124.1693
317.53        124.8777
317.99        125.6237
318.44        126.3919
318.89        127.1203
319.35        127.7764
319.80        128.3832
320.25        128.8914
320.70         129.239
321.16        129.4179
321.61        129.4693
322.06        129.5042
322.51        129.7204
322.97        130.1368
323.42        130.7391
323.87        131.3714
324.32        131.7943
324.78        131.9237
325.23        131.8854
325.68        131.7647
326.13        131.7409
326.59        131.8522
327.04        132.1089
327.49        132.4635
327.94        132.8826
328.39        133.3437
328.85        133.8173
329.30        134.3656
329.75         134.879
330.20         135.327
330.66        135.6704
331.11         135.997
331.56        136.3214
332.01         136.669
332.46        137.0337
332.92        137.3522
333.37        137.7101
333.82         138.046
334.27        138.3666
334.72        138.7015
335.17        139.0948
335.63        139.5235
336.08        140.0462
336.53        140.5763
336.98         141.025
337.43        141.3739
337.88        141.6462
338.34        141.9024
338.79        142.3144
339.24        142.8918
339.69        143.5948
340.14        144.3262
340.59        144.9265
341.05        145.3597
341.50        145.6872
341.95        145.9872
342.40        146.4039
342.85        146.9706
343.30        147.6218
343.75        148.3008
344.20        148.9218
344.66        149.4477
345.11        149.8962
345.56        150.2384
346.01        150.4236
346.46        150.4637
346.91        150.3887
347.36        150.2915
347.81        150.3154
348.26        150.4915
348.72        150.7803
349.17         151.106
349.62        151.3723
350.07        151.5288
350.52        151.5879
350.97        151.5453
351.42        151.3967
351.87        151.1545
352.32        150.8329
352.77        150.4383
353.22        149.9861
353.67        149.4872
354.13        148.9457
354.58        148.3961
355.03        147.9584
355.48        147.6317
355.93        147.3745
356.38        147.0348
356.83        146.3716
357.28        145.3551
357.73        144.0889
358.18        142.7469
358.63        141.5951
359.08        140.7121
359.53        140.0224
359.98        139.4493
360.43         138.869
360.88        138.2206
361.33        137.5224
361.78        136.7701
362.23        135.9425
362.68        135.0313
363.13        134.0582
363.58         133.013
364.03        131.7415
364.48        130.5082
364.93        129.1683
365.38        127.8561
365.83        126.6554
366.28         125.592
366.73        124.6325
367.18          123.77
367.63        122.9916
368.08         122.273
368.53        121.6159
368.98        120.9321
369.43        120.0815
369.88        119.0443
370.33         117.855
370.78        116.6504
371.23        115.6654
371.68        114.9464
372.13        114.4124
372.58        113.9299
373.03        113.2763
373.48        112.3946
373.93        111.3773
374.38         110.289
374.83        109.2222
375.28        108.2269
375.72        107.2561
376.17        106.4048
376.62        105.7503
377.07        105.2834
377.52        104.9552
377.97        104.6518
378.42        104.1911
378.87        103.5334
379.32        102.7492
379.77        101.8871
380.22        101.0192
380.67        100.1831
381.11        99.36081
381.56        98.62182
382.01        98.09662
382.46         97.8038
382.91        97.70863
383.36        97.66532
383.81        97.43725
384.26        96.96564
384.71        96.30835
385.15        95.57356
385.60        95.00531
386.05        94.63818
386.50        94.40382
386.95        94.20062
387.40        93.87978
387.85         93.4141
388.29         92.8101
388.74        92.25268
389.19        91.77992
389.64        91.38992
390.09        91.02151
390.54        90.63515
390.98        90.15621
391.43        89.64472
391.88        89.15479
392.33        88.68509
392.78        88.20732
393.23        87.74693
393.67        87.22804
394.12        86.88522
394.57        86.67821
395.02        87.23136
395.47        86.96535
395.91        86.17914
396.36        85.74016
396.81        85.71219
397.26         85.5881
397.71        85.31935
398.15        85.05525
398.60        84.86724
399.05        84.59088
399.50        84.30721
399.95        84.20193
400.39         84.2203
400.84        84.17834
401.29        83.99284
401.74        83.36526
402.18        82.49973
402.63        82.20377
403.08        82.44577
403.53        82.39254
403.97        82.00761
404.42         81.8218
404.87        81.84501
405.32        81.86833
405.76        81.85836
406.21        81.84522
406.66        81.78935
407.11         81.6694
407.55         81.4642
408.00        81.11645
408.45        80.69024
408.90        80.10995
409.34         79.5432
409.79        79.52453
410.24        79.91952
410.68        80.06005
411.13        79.87591
411.58        79.73159
412.03        79.67561
412.47        79.64449
412.92        79.62407
413.37        79.63644
413.81         79.6368
414.26        79.62846
414.71        79.58776
415.15        79.54278
415.60        79.47649
416.05        79.43127
416.49         79.4239
416.94        79.42757
417.39        79.44689
417.83        79.48667
418.28        79.53171
418.73        79.56066
419.17        79.56072
419.62        79.51511
420.07        79.43707
420.51        79.34882
420.96         79.2496
421.41        79.13127
421.85        78.98472
422.30        78.71277
422.74         78.4302
423.19        78.78188
423.64        79.60267
424.08        79.99709
424.53        79.81457
424.98        79.76109
425.42        79.86034
425.87        79.62152
426.31        79.16201
426.76        78.92881
427.21        78.94364
427.65        79.03321
428.10        79.15809
428.54        79.29073
428.99        79.44503
429.44        79.76453
429.88        80.08227
430.33        79.84245
430.77        79.22703
431.22        79.04052
431.66        79.64071
432.11        79.92162
432.56        79.97527
433.00        80.14701
433.45        80.27646
433.89        80.40573
434.34        80.53143
434.78        79.98296
435.23        79.70465
435.67        80.08266
436.12        80.82154
436.57        81.00877
437.01        80.55505
437.46        80.50151
437.90        80.82373
438.35        80.74079
438.79        80.75516
439.24        80.67771
439.68        80.72178
440.13        80.82938
440.57        81.00982
441.02        81.46226
441.46        81.95984
441.91        81.88295
442.35        81.32722
442.80        81.27573
443.24        81.68747
443.69        81.93927
444.13        81.90246
444.58         82.0448
445.02        81.92605
445.47        81.78185
445.91        81.58295
446.36        81.55045
446.80        81.69034
447.24        81.94144
447.69        82.23367
448.13        82.42988
448.58        82.52581
449.02        82.41119
449.47        82.19999
449.91        82.10107
450.36        82.17439
450.80        82.28864
451.25         82.4101
451.69        82.51726
452.13        82.58772
452.58        82.50678
453.02        82.29649
453.47        82.20142
453.91        82.26642
454.36        81.89599
454.80        82.13149
455.24        81.66911
455.69        81.02159
456.13        80.47617
456.58        80.22369
457.02        80.52636
457.46        81.03699
457.91        81.06126
458.35        80.64832
458.79         80.4594
459.24        80.52312
459.68        80.38945
460.13        80.12638
460.57        79.77799
461.01         79.7503
461.46        79.84582
461.90        79.35478
462.34        79.91559
462.79        79.43166
463.23        79.26709
463.68        78.95787
464.12        78.88844
464.56        79.06039
465.01        79.25119
465.45        79.26447
465.89        79.28673
466.34        79.31042
466.78        78.71255
467.22        77.66771
467.67        78.15456
468.11        78.12855
468.55        78.26817
468.99        77.84103
469.44        77.75299
469.88        77.95422
470.32        78.01719
470.77        77.92624
471.21        77.83704
471.65        77.75282
472.10        77.64933
472.54        77.50493
472.98        77.36656
473.42          77.254
473.87        77.07664
474.31        76.85748
474.75        76.99702
475.20        77.36481
475.64        77.27663
476.08        76.79375
476.52        76.62721
476.97        76.81702
477.41        76.62004
477.85         76.8959
478.29        76.35843
478.74        76.93782
479.18        75.97071
479.62        76.72385
480.06        76.64758
480.50        76.55524
480.95        76.58141
481.39        76.67461
481.83        76.42906
482.27        76.63815
482.72        76.11488
483.16        76.29086
483.60        76.09933
484.04        75.85109
484.48        75.83439
484.93        76.31431
485.37        75.68948
485.81        76.54823
486.25        77.12749
486.69         78.0668
487.14        77.19824
487.58        76.69174
488.02        76.50154
488.46        76.34731
488.90        76.72108
489.34        75.35902
489.79         75.3791
490.23        75.80779
490.67        75.88558
491.11        75.52716
491.55        75.38662
491.99        75.49998
492.43        75.52251
492.88        75.44801
493.32        75.43821
493.76         75.4773
494.20        75.51997
494.64        75.57172
495.08        75.61993
495.52         75.6506
495.96        75.70855
496.41        75.76004
496.85        75.62643
497.29        75.35846
497.73        75.40578
498.17          75.622
498.61        75.71155
499.05        75.59466
499.49        75.53951
499.93        75.55721
500.37        75.36174
500.82         75.0436
501.26        74.86183
501.70        75.73687
502.14        74.95262
502.58        75.46769
503.02        75.25089
503.46        75.32461
503.90        75.23301
504.34         75.0839
504.78        75.05944
505.22        75.12468
505.66        75.13798
506.10        75.09573
506.54        75.08025
506.98        75.07964
507.42        75.05528
507.86        75.19861
508.30        74.92111
508.74        75.12537
509.18        75.14919
509.62        75.23711
510.06        75.10361
510.50        75.13414
510.94        75.02697
511.38        74.91759
511.82        74.85094
512.26        74.83846
512.70        74.86227
513.14        74.90678
513.58        74.92805
514.02        74.91061
514.46        74.91972
514.90        74.96533
515.34        74.79636
515.78        74.84765
516.22        74.77207
516.66        74.71974
517.10         74.7151
517.54        74.76446
517.98        74.85109
518.42        74.93901
518.86        74.98054
519.30        74.96249
519.74        74.90158
520.18        74.82243
520.62        74.76317
521.06        74.73814
521.50        74.73808
521.93        74.75833
522.37        74.77762
522.81         74.7918
523.25        74.79712
523.69        74.79678
524.13        74.79479
524.57        74.78954
525.01        74.78261
525.45        74.74847
525.89        74.64709
526.32        74.47611
526.76        74.27147
527.20        74.08951
527.64        74.02666
528.08        74.09985
528.52        74.27152
528.96        74.48351
529.40        74.64391
529.83        74.71381
530.27         74.7289
530.71        74.69389
531.15        74.62978
531.59        74.55116
532.03        74.45451
532.46        74.34993
532.90        74.27989
533.34        74.24873
533.78         74.2522
534.22        74.28097
534.66        74.31667
535.09        74.33872
535.53        74.36602
535.97        74.37895
536.41        74.36507
536.85        74.32365
537.28        74.26543
537.72        74.19416
538.16        74.10727
538.60        74.01712
539.04        73.94495
539.47        73.89703
539.91        73.92291
540.35        74.00512
540.79        74.14046
541.22        74.27956
541.66        74.35225
542.10        74.33759
542.54        74.25591
542.97        74.13729
543.41        74.07462
543.85         74.0736
544.29        74.11372
544.72        74.15369
545.16        74.16817
545.60        74.13317
546.04        74.05789
546.47        73.96765
546.91        73.92365
547.35        73.92976
547.79        73.94397
548.22        73.92204
548.66        73.89951
549.10        73.84765
549.53        73.73267
549.97        73.61137
550.41        73.60162
550.84        73.71702
551.28        73.91357
551.72        74.11889
552.15        74.19624
552.59        74.13474
553.03        74.00105
553.46        73.86457
553.90        73.68527
554.34        73.79819
554.77        73.89654
555.21        74.01841
555.65        74.05459
556.08        73.98623
556.52        73.81564
556.96        73.60059
557.39        73.47559
557.83         73.4845
558.27        73.54459
558.70        73.61417
559.14        73.66802
559.57        73.67244
560.01        73.65668
560.45        73.62314
560.88        73.59934
561.32        73.64175
561.75        73.62029
562.19        73.62021
562.63        73.65963
563.06        73.70174
563.50         73.5399
563.93        73.24738
564.37        73.18029
564.80        73.33937
565.24        73.62268
565.68        73.91301
566.11        74.03584
566.55        73.99723
566.98        73.88734
567.42        73.77895
567.85        73.71141
568.29        73.76146
568.72        73.78633
569.16        73.79556
569.60        74.14326
570.03        74.16557
570.47        74.31488
570.90        74.23495
571.34        74.62626
571.77        74.60886
572.21        74.48761
572.64        74.60453
573.08        74.47373
573.51        74.10866
573.95        74.43301
574.38        74.86021
574.82        74.48076
