SpectraSmart Spectrum 2.9.0.0
--------- Device Information -----------
Spectrum Name :  反射率_0
Saving Time :  2024/04/27 23:48:03
Spectro-Module Model Name : SE2030-DUVN
Spectro-Module Serial Number : OS361AC55029948
Wavelength Start : 200
Wavelength End : 1025
Wavelength Unit : Wavelength(nm)
Spectrum Unit : Reflectance(%)
-----------Spectrum Setting ------------
Integration Time : 20ms
Average : 10
Boxcar : 0
Background removal :  enabled
linearity correction :  enabled
SC :  disabled
Intensity correction :  disabled
DWT denoise :  enabled
savitzky-golay :  disabled
FFT :  disabled
Running average :  disabled
Kalman :  disabled
High pass :  disabled
---------------BEGIN--------------------
Wavelength(nm)             Reflectance(%)
200.29               0
200.75        127.1491
201.21        104.9841
201.67        82.19484
202.13        69.13712
202.58        62.53915
203.04        58.60753
203.50        57.96521
203.96        61.96549
204.42        69.01263
204.88        77.47052
205.34        84.82299
205.80        89.14369
206.26        90.59952
206.72        89.20868
207.18         84.4595
207.64          79.127
208.10        77.22496
208.55        78.37715
209.01        78.70253
209.47        75.99651
209.93        68.37078
210.39        48.25718
210.85       -13.17347
211.31       -91.28463
211.77       -5.570334
212.23        53.10388
212.69        73.28162
213.14         77.4212
213.60        72.44964
214.06        59.07424
214.52        35.29163
214.98        18.29721
215.44        26.68484
215.90        44.08854
216.36        58.44284
216.81        66.56483
217.27        70.32567
217.73        72.20877
218.19        72.37476
218.65        70.39458
219.11         66.2047
219.57         59.3338
220.02        50.39742
220.48        43.51594
220.94        40.55236
221.40         40.8732
221.86        43.15265
222.32        45.53436
222.77        47.50031
223.23        49.29082
223.69        50.42285
224.15        50.23508
224.61        48.81106
225.06        46.04744
225.52         43.2833
225.98        42.70322
226.44        44.31244
226.90        46.70271
227.36        48.48843
227.81        48.54176
228.27        46.93519
228.73         44.0535
229.19        40.37281
229.65        37.09807
230.10        34.86582
230.56        33.72741
231.02        33.27436
231.48        32.96855
231.93        32.62006
232.39        32.49295
232.85        32.83016
233.31        33.96067
233.77        35.80673
234.22        38.17654
234.68         40.4269
235.14        41.93397
235.60        42.62931
236.05        42.57941
236.51        42.49341
236.97        43.66177
237.43         46.3938
237.88        50.32874
238.34        53.99542
238.80        56.25541
239.26        56.94777
239.71        56.02803
240.17        53.80975
240.63        53.32544
241.08        56.77489
241.54        61.56924
242.00        65.26307
242.46         67.2421
242.91        68.17271
243.37         68.1578
243.83        67.96814
244.28         71.6603
244.74        81.41733
245.20        90.51772
245.66        93.39658
246.11        90.80754
246.57        83.37304
247.03         68.3266
247.48        45.02229
247.94        28.16877
248.40        33.98449
248.85         54.8543
249.31        76.52922
249.77        86.84649
250.22        87.25294
250.68        83.61792
251.14        79.57835
251.59        78.03367
252.05        79.44462
252.51        82.64238
252.96        87.38476
253.42        92.07964
253.88        93.77841
254.33        93.11438
254.79         91.0112
255.25        87.08644
255.70        81.87722
256.16        76.68102
256.62         72.7469
257.07        71.60334
257.53        72.93163
257.99        74.93649
258.44        76.23508
258.90        76.16077
259.35        74.51414
259.81        72.36494
260.27        69.92984
260.72        67.53282
261.18        65.68015
261.63        63.93138
262.09        62.50344
262.55        61.18721
263.00        59.84388
263.46        58.66158
263.91        57.50085
264.37        56.55977
264.83        55.75312
265.28        54.98448
265.74        54.25301
266.19        53.32021
266.65        52.24237
267.11        51.04633
267.56        49.77491
268.02         48.6109
268.47         47.5666
268.93        46.61264
269.38        45.77232
269.84        45.11004
270.30        44.59668
270.75        44.19972
271.21        43.75968
271.66        42.98199
272.12        41.84661
272.57        40.40679
273.03        38.91943
273.48        37.70133
273.94        36.89118
274.39        36.36219
274.85        35.97584
275.31        35.44269
275.76        34.68989
276.22        33.83968
276.67        33.00842
277.13        32.45905
277.58        32.15992
278.04        32.04966
278.49          31.889
278.95        31.45656
279.40        30.67885
279.86        29.73332
280.31        28.77303
280.77        28.13487
281.22        27.83971
281.68         27.8171
282.13         27.9021
282.59        27.91941
283.04        27.80174
283.50        27.61826
283.95        27.42503
284.41        27.34291
284.86        27.37404
285.32        27.49133
285.77         27.5961
286.22        27.59365
286.68        27.49035
287.13          27.295
287.59          27.129
288.04        27.09604
288.50        27.24025
288.95        27.48034
289.41        27.74636
289.86         27.8848
290.32        27.89008
290.77        27.81531
291.22        27.73477
291.68        27.74649
292.13        27.88742
292.59         28.1667
293.04         28.5948
293.50         29.2088
293.95        30.00298
294.40        30.98299
294.86        32.12973
295.31        33.39986
295.77        34.77494
296.22        36.22353
296.68        37.73301
297.13         39.2586
297.58        40.77734
298.04        42.28961
298.49        43.76776
298.95        45.22137
299.40        46.67336
299.85        48.15513
300.31        49.75323
300.76        51.53775
301.21        53.50496
301.67        55.61205
302.12        57.73122
302.58        59.76184
303.03        61.64182
303.48        63.43343
303.94         65.2049
304.39        66.97483
304.84        68.79592
305.30        70.66944
305.75        72.56956
306.20        74.55137
306.66        76.62267
307.11        78.70381
307.57         80.7714
308.02        82.66207
308.47         84.3551
308.93        85.89406
309.38        87.25579
309.83        88.51544
310.29        89.72871
310.74        90.86324
311.19        91.97782
311.65        93.13445
312.10         94.3041
312.55        95.47764
313.00        96.60299
313.46        97.60592
313.91        98.45422
314.36        99.18066
314.82        99.81424
315.27        100.3993
315.72        100.9533
316.18        101.4813
316.63        101.9632
317.08        102.4078
317.53        102.8223
317.99        103.2081
318.44        103.5954
318.89         103.999
319.35          104.42
319.80        104.8641
320.25        105.2974
320.70        105.6749
321.16        105.9751
321.61        106.2218
322.06         106.457
322.51        106.7627
322.97        107.1354
323.42        107.5854
323.87        108.0195
324.32        108.3067
324.78         108.406
325.23        108.4039
325.68        108.3791
326.13         108.491
326.59        108.7593
327.04        109.1845
327.49        109.6875
327.94        110.1733
328.39        110.6044
328.85        110.9754
329.30        111.3521
329.75        111.6801
330.20        111.9611
330.66         112.163
331.11         112.392
331.56        112.7093
332.01        113.1407
332.46        113.6635
332.92        114.1866
333.37        114.7038
333.82         115.131
334.27        115.4882
334.72        115.7889
335.17        116.0605
335.63        116.2978
336.08        116.5577
336.53        116.8311
336.98         117.152
337.43        117.5287
337.88        117.9505
338.34        118.4048
338.79        118.9206
339.24        119.4703
339.69        120.0553
340.14        120.6114
340.59        121.0372
341.05        121.3256
341.50        121.5195
341.95        121.7222
342.40        122.1184
342.85        122.7417
343.30        123.5175
343.75        124.3406
344.20        125.0388
344.66        125.5566
345.11        125.9402
345.56         126.197
346.01        126.3407
346.46        126.3992
346.91        126.3684
347.36        126.3418
347.81        126.4662
348.26        126.7625
348.72        127.1977
349.17        127.6383
349.62        127.8856
350.07        127.8856
350.52        127.6908
350.97        127.4137
351.42        127.2372
351.87        127.2114
352.32        127.2876
352.77        127.3628
353.22        127.2802
353.67        127.0051
354.13        126.5953
354.58        126.1376
355.03        125.8345
355.48        125.7115
355.93        125.6874
356.38        125.6035
356.83        125.2158
357.28        124.4838
357.73        123.5164
358.18         122.452
358.63        121.5002
359.08          120.73
359.53        120.0774
359.98        119.5219
360.43        119.0296
360.88        118.5658
361.33        118.1411
361.78        117.6847
362.23        117.0705
362.68        116.2796
363.13        115.3583
363.58        114.3994
364.03        113.4978
364.48        112.7962
364.93        112.1693
365.38        111.5857
365.83        110.9424
366.28         110.207
366.73        109.4115
367.18        108.5785
367.63        107.7439
368.08         106.927
368.53        106.1212
368.98        105.3282
369.43        104.5529
369.88        103.7989
370.33        103.0705
370.78         102.379
371.23        101.7374
371.68        101.1395
372.13        100.5704
372.58         100.002
373.03        99.39388
373.48        98.73579
373.93        98.04186
374.38        97.32541
374.83        96.60462
375.28        95.89337
375.72        95.17875
376.17        94.50995
376.62        93.89102
377.07         93.3223
377.52        92.78599
377.97        92.28305
378.42        91.81583
378.87        91.37348
379.32        90.95623
379.77        90.50773
380.22        89.93732
380.67        89.23863
381.11        88.45155
381.56        87.67171
382.01         87.0713
382.46        86.70304
382.91        86.52244
383.36        86.44199
383.81        86.31937
384.26        86.10326
384.71        85.81917
385.15        85.49223
385.60        85.22455
386.05        85.01308
386.50        84.82934
386.95         84.6139
387.40        84.28768
387.85        83.85387
388.29        83.30721
388.74         82.8263
389.19        82.46832
389.64        82.22606
390.09        82.02803
390.54        81.82209
390.98         81.5081
391.43        81.13161
391.88         80.7508
392.33        80.30495
392.78        79.81972
393.23        79.35296
393.67        78.59603
394.12        77.82053
394.57        78.26482
395.02        78.60121
395.47        78.82232
395.91         78.5021
396.36        78.32055
396.81        78.27091
397.26        77.94148
397.71        77.41972
398.15        76.99759
398.60        76.78467
399.05        76.59959
399.50        76.45967
399.95        76.40985
400.39        76.40556
400.84        76.41911
401.29        76.37533
401.74        75.89973
402.18        75.16853
402.63        74.95742
403.08        75.24677
403.53        75.27079
403.97         75.0016
404.42        74.93215
404.87        75.02787
405.32        75.06996
405.76        75.03365
406.21        74.83846
406.66        74.55055
407.11        74.60092
407.55        74.87064
408.00        74.58436
408.45         73.8199
408.90        73.20927
409.34        72.91311
409.79        72.95234
410.24        73.21169
410.68         73.3374
411.13        73.27232
411.58        73.25117
412.03        73.29862
412.47        73.34162
412.92        73.35412
413.37        73.37008
413.81        73.35728
414.26        73.32764
414.71        73.26675
415.15        73.19928
415.60        73.12305
416.05        73.09772
416.49        73.14146
416.94        73.22474
417.39        73.32667
417.83         73.4118
418.28        73.45707
418.73        73.45163
419.17        73.40841
419.62        73.35582
420.07        73.31707
420.51        73.29469
420.96        73.26277
421.41          73.194
421.85        73.07328
422.30        72.77334
422.74          72.425
423.19        72.76416
423.64        73.60368
424.08        73.86245
424.53        73.44434
424.98        73.34471
425.42        73.61691
425.87        73.50739
426.31        73.10213
426.76        73.15511
427.21        73.54684
427.65        73.40876
428.10        72.84731
428.54        72.69051
428.99          73.006
429.44         73.4312
429.88        73.76263
430.33        73.77561
430.77         73.4826
431.22        73.26562
431.66        73.21813
432.11        73.52891
432.56        74.16626
433.00        74.38611
433.45        73.93497
433.89         73.9786
434.34        74.64003
434.78        73.28247
435.23        73.21048
435.67        73.91813
436.12        74.73978
436.57        75.10828
437.01        74.74398
437.46        74.47805
437.90        74.78159
438.35        75.64083
438.79        75.13897
439.24        75.12344
439.68        75.05694
440.13        74.86932
440.57        74.67139
441.02        75.02381
441.46        75.70802
441.91        75.75153
442.35        75.19433
442.80        75.11749
443.24        75.44556
443.69        75.46619
444.13        75.19901
444.58        75.14968
445.02        75.30988
445.47        75.50615
445.91        75.67474
446.36        75.81018
446.80        75.87396
447.24        75.86699
447.69        75.84807
448.13        75.91239
448.58         76.0621
449.02         76.1673
449.47        76.21652
449.91        76.24646
450.36         76.2711
450.80         76.2184
451.25        76.14904
451.69        76.16929
452.13        76.28182
452.58        76.39667
453.02        76.45368
453.47        76.41499
453.91        76.26224
454.36        76.07372
454.80         75.8819
455.24        75.61472
455.69        75.37395
456.13        75.30671
456.58        75.50924
457.02        75.35167
457.46        76.18958
457.91        75.70113
458.35        74.82191
458.79        74.36734
459.24         74.4929
459.68         74.5565
460.13        74.50784
460.57        74.55734
461.01        74.21396
461.46        74.34423
461.90        74.26482
462.34          73.852
462.79        74.35949
463.23        74.36247
463.68         74.2907
464.12        74.09052
464.56        73.85877
465.01         74.0689
465.45        74.46175
465.89          74.265
466.34        73.62189
466.78        73.60664
467.22        73.36319
467.67         74.0433
468.11        73.76096
468.55        73.66126
468.99        73.35322
469.44        73.23573
469.88        73.33229
470.32        73.38847
470.77        73.37152
471.21        73.33629
471.65        73.26818
472.10        73.16799
472.54        73.01585
472.98        72.85375
473.42        72.70366
473.87        72.49083
474.31        72.24051
474.75        72.31439
475.20         72.6139
475.64        72.54723
476.08        72.13601
476.52        72.08036
476.97        72.43727
477.41        72.25636
477.85        72.27451
478.29        72.52997
478.74        72.64549
479.18        71.82884
479.62        72.51146
480.06        72.34114
480.50        72.32014
480.95        72.20091
481.39        72.03849
481.83        72.31428
482.27        72.01947
482.72        72.10667
483.16        72.43958
483.60        71.98312
484.04        72.01276
484.48         71.8241
484.93        72.18623
485.37        71.43774
485.81        72.16972
486.25        73.20218
486.69        72.54008
487.14        71.77089
487.58         71.9883
488.02        72.43459
488.46        71.86893
488.90        71.99299
489.34        71.72382
489.79        71.17567
490.23        72.19299
490.67        72.21532
491.11        71.87913
491.55        71.57352
491.99        71.41242
492.43        71.28907
492.88        71.21533
493.32        71.28477
493.76        71.41727
494.20        71.54626
494.64        71.66401
495.08        71.62836
495.52        71.52364
495.96        71.84769
496.41        72.43875
496.85        72.38744
497.29        71.77267
497.73        71.56593
498.17        71.69375
498.61        71.82657
499.05        71.82776
499.49        71.67917
499.93        71.47243
500.37        71.35378
500.82        71.31011
501.26        71.52872
501.70        72.03831
502.14        71.20782
502.58        71.63118
503.02         71.5882
503.46        71.54755
503.90        71.54623
504.34        71.50944
504.78        71.54416
505.22        71.60918
505.66        71.56835
506.10        71.44641
506.54        71.47459
506.98        71.66966
507.42         71.6144
507.86        71.80656
508.30        71.83817
508.74        71.85354
509.18        71.82833
509.62        71.76675
510.06        71.67443
510.50        71.55656
510.94        71.42248
511.38        71.29852
511.82        71.22502
512.26        71.20907
512.70        71.24259
513.14        71.30518
513.58         71.3328
514.02        71.30775
514.46        71.29601
514.90        71.31722
515.34        71.15163
515.78        71.21686
516.22        71.17498
516.66        71.16072
517.10        71.18478
517.54         71.2485
517.98        71.34019
518.42        71.42517
518.86        71.45753
519.30        71.42641
519.74        71.34765
520.18         71.2512
520.62        71.18469
521.06        71.16296
521.50        71.17376
521.93        71.20634
522.37        71.22781
522.81        71.23375
523.25        71.23067
523.69         71.2233
524.13        71.21785
524.57        71.21552
525.01         71.2123
525.45        71.20111
525.89        71.17257
526.32         71.1207
526.76        71.06432
527.20        71.01152
527.64        70.98276
528.08        70.98208
528.52        71.00131
528.96        71.03094
529.40        71.05569
529.83        71.06299
530.27        71.06977
530.71        71.06544
531.15        71.04443
531.59        71.00742
532.03        70.95481
532.46        70.89436
532.90        70.86176
533.34        70.85787
533.78        70.87814
534.22        70.90256
534.66         70.8997
535.09        70.85463
535.53        70.79511
535.97        70.73463
536.41        70.71144
536.85        70.73215
537.28        70.78651
537.72        70.84413
538.16        70.84673
538.60         70.7872
539.04        70.70133
539.47        70.60406
539.91        70.55787
540.35         70.5569
540.79        70.59665
541.22        70.64618
541.66        70.66504
542.10        70.63968
542.54        70.58563
542.97        70.51704
543.41          70.495
543.85         70.5172
544.29        70.57147
544.72         70.6217
545.16        70.64961
545.60        70.63104
546.04        70.56907
546.47        70.49108
546.91        70.44318
547.35        70.42423
547.79        70.45347
548.22        70.47353
548.66        70.35728
549.10        70.14385
549.53         70.1164
549.97        70.26578
550.41        70.33024
550.84        70.29743
551.28         70.3296
551.72        70.43183
552.15        70.47652
552.59        70.45737
553.03        70.48743
553.46        70.59303
553.90        70.33341
554.34        70.48753
554.77        70.58659
555.21        70.55078
555.65        70.49251
556.08        70.26494
556.52        70.06417
556.96        69.92229
557.39        69.96653
557.83        70.15619
558.27        70.27547
558.70        70.28633
559.14        70.17125
559.57         70.0037
560.01        70.14979
560.45        70.50018
560.88        70.52338
561.32        70.28166
561.75        70.10935
562.19        70.07616
562.63        70.08008
563.06        70.08974
563.50        70.02784
563.93        69.91205
564.37        69.93404
564.80        70.08189
565.24        70.30589
565.68        70.51463
566.11         70.6207
566.55        70.63325
566.98        70.46815
567.42        70.24371
567.85        70.31084
568.29        70.64749
568.72        70.62106
569.16        70.27622
569.60        70.28835
570.03        70.68834
570.47        70.36364
570.90        70.16638
571.34        70.86922
571.77        70.50736
572.21        70.45094
572.64        70.51633
573.08        70.47957
573.51        70.20663
573.95        70.31942
574.38        70.64656
574.82         70.5473
