SpectraSmart Spectrum 2.9.0.0
--------- Device Information -----------
Spectrum Name :  反射率_0
Saving Time :  2024/04/27 23:51:44
Spectro-Module Model Name : SE2030-DUVN
Spectro-Module Serial Number : OS361AC55029948
Wavelength Start : 200
Wavelength End : 1025
Wavelength Unit : Wavelength(nm)
Spectrum Unit : Reflectance(%)
-----------Spectrum Setting ------------
Integration Time : 20ms
Average : 10
Boxcar : 0
Background removal :  enabled
linearity correction :  enabled
SC :  disabled
Intensity correction :  disabled
DWT denoise :  enabled
savitzky-golay :  disabled
FFT :  disabled
Running average :  disabled
Kalman :  disabled
High pass :  disabled
---------------BEGIN--------------------
Wavelength(nm)             Reflectance(%)
200.29               0
200.75       -16.36596
201.21        20.27657
201.67        50.17003
202.13        58.16975
202.58          51.431
203.04        37.62661
203.50         25.8413
203.96        28.31019
204.42        43.53713
204.88        63.39066
205.34        80.66257
205.80        90.10019
206.26        91.77303
206.72         86.4865
207.18        73.46913
207.64        60.89766
208.10        58.72384
208.55        63.47685
209.01        66.56061
209.47        63.56371
209.93        51.94753
210.39         20.7458
210.85       -74.80053
211.31       -196.1878
211.77       -62.20197
212.23        28.65167
212.69         60.7309
213.14        69.75684
213.60        67.50754
214.06        56.73717
214.52        35.08226
214.98         16.0131
215.44        18.21043
215.90        29.62827
216.36        40.63459
216.81        48.41384
217.27        53.74503
217.73        58.65886
218.19        62.42154
218.65        62.90319
219.11        59.55482
219.57        52.56134
220.02        42.96349
220.48        35.92654
220.94        33.83089
221.40        35.37539
221.86        39.45717
222.32        44.69677
222.77        50.10162
223.23        55.28722
223.69        59.10486
224.15        60.22189
224.61        58.74591
225.06        55.00065
225.52        50.21815
225.98        46.84103
226.44        45.75497
226.90        45.91296
227.36        46.33081
227.81        46.08861
228.27        45.02444
228.73        43.38806
229.19        41.19808
229.65        38.66011
230.10        36.08231
230.56        33.85701
231.02        32.11283
231.48        31.07338
231.93        30.69841
232.39        30.94661
232.85        31.88248
233.31        33.60138
233.77        35.92676
234.22        38.75667
234.68        41.38177
235.14        43.07146
235.60        43.75606
236.05        43.48614
236.51        43.09704
236.97        44.20378
237.43        47.23408
237.88         51.7622
238.34        56.07475
238.80        58.71551
239.26        59.49096
239.71        58.43525
240.17        56.02113
240.63        56.08056
241.08        60.92984
241.54        66.95499
242.00        71.49605
242.46        74.27364
242.91        76.27636
243.37        78.23451
243.83        80.88674
244.28        83.60345
244.74         82.7214
245.20        78.97176
245.66        75.19918
246.11        71.46045
246.57        66.51151
247.03        59.16955
247.48        49.67247
247.94        45.59505
248.40        53.35058
248.85        67.70068
249.31        81.12454
249.77        87.99091
250.22        89.34338
250.68        87.92728
251.14        86.20193
251.59        86.43645
252.05        89.16687
252.51        94.12476
252.96        100.5465
253.42         104.381
253.88        102.5704
254.33        97.73275
254.79        93.29319
255.25        90.05377
255.70        87.59081
256.16        86.00562
256.62        85.24406
257.07        85.46203
257.53        86.62866
257.99        87.76088
258.44        88.07196
258.90        87.46177
259.35        85.66644
259.81        83.62334
260.27        81.33396
260.72        78.91473
261.18        76.93576
261.63        74.99238
262.09        73.50902
262.55        72.42445
263.00        71.54169
263.46        70.96766
263.91        70.32052
264.37        69.54655
264.83        68.53651
265.28        67.31753
265.74        66.10594
266.19        64.87343
266.65        63.72468
267.11        62.58447
267.56        61.39153
268.02        60.18684
268.47        58.93688
268.93        57.67612
269.38        56.47106
269.84        55.45724
270.30        54.63206
270.75        53.94428
271.21        53.23847
271.66        52.21408
272.12        50.85949
272.57        49.24173
273.03        47.61739
273.48        46.28978
273.94        45.39146
274.39        44.75762
274.85        44.28242
275.31        43.70663
275.76        42.94265
276.22        42.11937
276.67        41.24372
277.13        40.44635
277.58        39.69925
278.04        39.02612
278.49        38.35307
278.95        37.72009
279.40        37.06675
279.86        36.45601
280.31         35.8731
280.77        35.43096
281.22        35.08296
281.68        34.85517
282.13        34.62153
282.59        34.27765
283.04         33.7896
283.50        33.22742
283.95        32.70044
284.41        32.42914
284.86        32.42578
285.32        32.63763
285.77        32.90009
286.22        33.02837
286.68        32.99581
287.13        32.81684
287.59        32.62639
288.04        32.54246
288.50        32.62503
288.95         32.7958
289.41        32.97934
289.86        33.00583
290.32        32.88844
290.77        32.69466
291.22        32.56464
291.68        32.68996
292.13        33.10648
292.59        33.77867
293.04         34.6244
293.50         35.5422
293.95        36.48448
294.40        37.49649
294.86        38.60675
295.31          39.848
295.77        41.23853
296.22        42.73496
296.68        44.32622
297.13        45.96755
297.58        47.63087
298.04        49.31263
298.49        50.98777
298.95        52.67911
299.40        54.39029
299.85        56.13451
300.31        57.94097
300.76        59.78702
301.21        61.66724
301.67        63.60012
302.12        65.51582
302.58        67.41353
303.03        69.25716
303.48        71.07492
303.94        72.96442
304.39        74.97736
304.84        77.14184
305.30        79.43264
305.75        81.69424
306.20        83.79574
306.66        85.72964
307.11         87.4919
307.57        89.19669
308.02        90.88816
308.47        92.60577
308.93        94.32542
309.38        95.97372
309.83        97.55784
310.29        99.09567
310.74        100.5721
311.19        101.9903
311.65        103.3175
312.10        104.5087
312.55        105.5725
313.00        106.5478
313.46         107.512
313.91        108.4673
314.36        109.4139
314.82        110.2986
315.27         111.027
315.72        111.5837
316.18        112.0183
316.63        112.3925
317.08        112.8447
317.53        113.4078
317.99        114.0337
318.44        114.6652
318.89        115.1808
319.35        115.5452
319.80        115.8068
320.25        116.0065
320.70        116.2182
321.16        116.4566
321.61        116.7187
322.06        116.9901
322.51        117.2615
322.97        117.5072
323.42        117.7728
323.87        118.0317
324.32        118.2594
324.78        118.4359
325.23        118.6139
325.68        118.7903
326.13        118.9945
326.59        119.2108
327.04         119.485
327.49        119.8049
327.94        120.1899
328.39        120.6384
328.85        121.1051
329.30        121.6274
329.75         122.084
330.20        122.4465
330.66        122.6977
331.11        122.9521
331.56         123.271
332.01        123.6882
332.46        124.1825
332.92        124.6621
333.37        125.1423
333.82        125.5426
334.27        125.8786
334.72        126.1918
335.17        126.5505
335.63        126.9454
336.08        127.4222
336.53        127.8973
336.98         128.285
337.43        128.5685
337.88        128.7738
338.34        128.9695
338.79        129.3289
339.24        129.8648
339.69         130.539
340.14          131.24
340.59        131.7827
341.05        132.1326
341.50        132.3655
341.95        132.5889
342.40        132.9923
342.85        133.6154
343.30         134.367
343.75        135.1723
344.20        135.9164
344.66         136.544
345.11          137.08
345.56        137.4637
346.01        137.5969
346.46        137.4941
346.91        137.2041
347.36        136.8928
347.81        136.8157
348.26        137.0279
348.72        137.4619
349.17        137.9729
349.62        138.3456
350.07        138.5012
350.52        138.4876
350.97         138.363
351.42        138.2238
351.87        138.1044
352.32        137.9796
352.77        137.8007
353.22        137.5026
353.67        137.0769
354.13        136.5576
354.58        136.0172
355.03        135.6306
355.48        135.4158
355.93        135.3151
356.38        135.1554
356.83        134.6664
357.28        133.8055
357.73        132.6774
358.18        131.4733
358.63        130.4854
359.08        129.7944
359.53          129.32
359.98        128.9393
360.43        128.4585
360.88        127.8103
361.33        127.0353
361.78        126.2149
362.23        125.4685
362.68        124.8154
363.13        124.2299
363.58        123.5922
364.03        122.6152
364.48        121.4567
364.93        120.0781
365.38        118.7051
365.83        117.5988
366.28        116.8235
366.73        116.2882
367.18        115.8786
367.63        115.4121
368.08        114.8191
368.53        114.1499
368.98        113.4087
369.43        112.6037
369.88        111.7522
370.33        110.8432
370.78        109.9299
371.23        109.1092
371.68        108.4057
372.13        107.8049
372.58        107.2585
373.03        106.6774
373.48        106.0368
373.93        105.3619
374.38        104.6849
374.83         104.054
375.28        103.4793
375.72        102.9212
376.17        102.3855
376.62        101.8133
377.07        101.1921
377.52        100.5267
377.97        99.85931
378.42        99.25496
378.87        98.72846
379.32        98.27502
379.77        97.82034
380.22        97.24368
380.67        96.53006
381.11        95.72169
381.56        94.94104
382.01        94.40473
382.46        94.15865
382.91        94.12817
383.36        94.15598
383.81        93.99464
384.26         93.5828
384.71         92.9998
385.15        92.33871
385.60        91.81196
386.05        91.45239
386.50        91.19088
386.95        90.97775
387.40        90.74731
387.85        90.47193
388.29        90.12331
388.74        89.79344
389.19        89.39441
389.64        88.91815
390.09        88.36263
390.54        87.77375
390.98         87.2281
391.43        86.81797
391.88        86.49138
392.33        86.19218
392.78        85.97717
393.23        85.81675
393.67         85.3684
394.12        84.81687
394.57        85.03754
395.02        84.98836
395.47        85.06831
395.91         84.9332
396.36        84.83255
396.81        84.74682
397.26        84.53027
397.71        84.24527
398.15        83.95369
398.60        83.75443
399.05        83.66398
399.50        83.60609
399.95        83.26675
400.39        82.73328
400.84        82.46139
401.29        82.47857
401.74        82.34334
402.18        82.06889
402.63        81.96932
403.08        81.99346
403.53         81.8486
403.97        81.50773
404.42        81.09049
404.87        80.70271
405.32        80.50267
405.76        80.50362
406.21        80.67966
406.66        80.88181
407.11        80.83472
407.55        80.53616
408.00        80.15513
408.45        79.79982
408.90        79.44174
409.34        79.13685
409.79        79.02872
410.24        79.07383
410.68        79.12547
411.13        79.14767
411.58        79.20747
412.03        79.26775
412.47        79.25382
412.92         79.1268
413.37        78.92317
413.81        78.68349
414.26        78.53681
414.71        78.48554
415.15        78.51965
415.60        78.57381
416.05        78.60056
416.49        78.58681
416.94        78.54113
417.39        78.48213
417.83        78.43387
418.28        78.39341
418.73        78.32596
419.17        78.24686
419.62        78.19083
420.07        78.17364
420.51         78.1964
420.96        78.19986
421.41         78.1001
421.85         77.8746
422.30        77.41666
422.74        76.89871
423.19        77.12447
423.64        77.91218
424.08        78.15749
424.53         77.7425
424.98        77.62136
425.42        77.82304
425.87        77.65513
426.31        77.23637
426.76        77.16603
427.21        77.39725
427.65        77.56025
428.10         77.5485
428.54        77.29869
428.99        76.94801
429.44        76.96843
429.88         77.2851
430.33        77.18921
430.77        76.73221
431.22        76.89152
431.66        77.54438
432.11        77.65573
432.56         77.3182
433.00        77.52499
433.45        78.05753
433.89        78.22255
434.34        77.97692
434.78         76.9377
435.23        76.44543
435.67        76.45464
436.12        77.38262
436.57        77.74366
437.01        77.57561
437.46        77.47488
437.90         77.9818
438.35        77.99783
438.79         77.8513
439.24        77.73598
439.68        77.77637
440.13        77.87613
440.57        78.01561
441.02        78.41898
441.46        78.85478
441.91        78.60603
442.35         77.8779
442.80        77.77555
443.24         78.5479
443.69         78.7013
444.13        78.30962
444.58        78.21519
445.02        78.38393
445.47        78.36024
445.91        78.19135
446.36         78.1737
446.80        78.29378
447.24        78.53587
447.69        78.88902
448.13        78.78902
448.58        79.17303
449.02        79.03488
449.47        78.76742
449.91        78.64878
450.36         78.7388
450.80        78.83881
451.25        78.91502
451.69         78.9837
452.13         79.0131
452.58        78.95325
453.02        78.82442
453.47         78.6524
453.91        78.40272
454.36        78.31416
454.80        78.37823
455.24        77.84248
455.69        77.14851
456.13        77.75563
456.58        77.34135
457.02         77.7097
457.46        77.86436
457.91        77.57803
458.35        77.07179
458.79         76.7364
459.24        76.68769
459.68         76.6329
460.13        76.58894
460.57        76.35255
461.01        76.26609
461.46          76.223
461.90        75.98464
462.34        75.97202
462.79        76.23811
463.23        76.14947
463.68        75.81628
464.12        75.55932
464.56        75.45789
465.01        75.65791
465.45        75.92562
465.89        75.78453
466.34        75.35872
466.78        75.16522
467.22        75.16894
467.67        75.50481
468.11        74.77525
468.55        74.75122
468.99        74.97572
469.44        75.03038
469.88        74.88835
470.32        74.75539
470.77        74.67132
471.21        74.62084
471.65        74.61592
472.10        74.56725
472.54          74.596
472.98        74.53085
473.42        74.42621
473.87        74.20499
474.31        73.91756
474.75        73.96266
475.20        74.21643
475.64         74.1479
476.08        73.79675
476.52        73.59096
476.97        73.51001
477.41        73.84494
477.85        73.41375
478.29        73.47829
478.74        73.93726
479.18          73.285
479.62        73.43662
480.06        73.30749
480.50        73.49234
480.95        73.55693
481.39        73.36802
481.83        73.80454
482.27         73.8165
482.72        73.05231
483.16         73.5415
483.60         73.2191
484.04        72.81899
484.48        73.03427
484.93        73.37022
485.37        73.45125
485.81        73.32079
486.25        73.49559
486.69        73.93686
487.14        72.97308
487.58        72.78226
488.02        73.64319
488.46        73.52427
488.90        73.47952
489.34        73.20487
489.79        72.36445
490.23        73.14919
490.67        72.76859
491.11        72.58307
491.55        72.46195
491.99        72.61069
492.43         72.6812
492.88         72.6328
493.32        72.63848
493.76        72.66452
494.20        72.70921
494.64        72.78661
495.08        72.74905
495.52        72.64698
495.96        72.89502
496.41         73.3548
496.85         73.2248
497.29        72.60262
497.73        72.49126
498.17        72.79552
498.61        72.94331
499.05        72.84404
499.49        72.92831
499.93        73.14065
500.37        72.98939
500.82        72.50008
501.26        72.28886
501.70        72.56011
502.14        71.88853
502.58        72.76575
503.02        72.89541
503.46        72.70057
503.90        72.57726
504.34        72.50303
504.78        72.49334
505.22        72.48558
505.66         72.4349
506.10        72.43088
506.54        72.46585
506.98        72.38099
507.42        73.29382
507.86        72.70605
508.30        72.51674
508.74        72.81638
509.18        72.78699
509.62        72.66386
510.06        72.56265
510.50        72.52451
510.94        72.48589
511.38        72.44056
511.82        72.39393
512.26        72.34184
512.70          72.297
513.14        72.26698
513.58        72.23085
514.02        72.18617
514.46        72.18611
514.90        72.24716
515.34        72.13921
515.78        72.27675
516.22        72.31754
516.66        72.37187
517.10        72.41985
517.54        72.45805
517.98        72.46121
518.42         72.4203
518.86        72.44393
519.30        72.34877
519.74         72.3087
520.18        72.27379
520.62        72.20451
521.06        72.12989
521.50        72.16827
521.93        72.29942
522.37         72.3681
522.81        72.36407
523.25         72.3554
523.69        72.36396
524.13        72.39596
524.57        72.45358
525.01        72.52964
525.45        72.58775
525.89        72.57256
526.32          72.471
526.76        72.31799
527.20        72.15366
527.64        72.05322
528.08        72.03516
528.52        72.06776
528.96        72.12334
529.40        72.17374
529.83         72.1897
530.27        72.16394
530.71        72.09988
531.15        72.04715
531.59        72.01331
532.03        71.96436
532.46        71.91187
532.90        71.91233
533.34        71.95933
533.78          72.036
534.22        72.09767
534.66        72.07371
535.09        71.95098
535.53        71.78564
535.97        71.61057
536.41        71.50627
536.85        71.49766
537.28        71.52448
537.72        71.59308
538.16         71.7834
538.60        72.03718
539.04        72.18169
539.47        72.18407
539.91        72.18283
540.35         72.1691
540.79         72.0928
541.22        71.97318
541.66        71.87511
542.10        71.81226
542.54        71.78323
542.97         71.7677
543.41        71.76278
543.85        71.74828
544.29        71.73529
544.72        71.71185
545.16        71.68469
545.60         71.6404
546.04        71.59963
546.47        71.56384
546.91        71.49622
547.35        71.42059
547.79        71.45151
548.22        71.54039
548.66        71.55804
549.10        71.49123
549.53        71.47382
549.97        71.51582
550.41        71.53059
550.84        71.50576
551.28        71.52585
551.72        71.58583
552.15        71.53142
552.59        71.34485
553.03        71.53015
553.46        71.20488
553.90        71.22613
554.34        71.32095
554.77        71.49067
555.21        71.65244
555.65        71.70747
556.08        71.57118
556.52        71.42542
556.96        71.30364
557.39        71.35558
557.83          71.548
558.27        71.55528
558.70        71.36649
559.14        71.27908
559.57        71.28728
560.01        71.17068
560.45        70.97581
560.88        71.01396
561.32        71.25604
561.75        71.27567
562.19        71.12271
562.63         71.0658
563.06        71.12806
563.50        71.23245
563.93        71.31816
564.37         71.3558
564.80         71.3131
565.24        71.27542
565.68        71.26202
566.11         71.2515
566.55        71.27561
566.98        71.34749
567.42        71.44398
567.85        71.41631
568.29        71.35652
568.72        71.24689
569.16        71.37386
569.60        71.45217
570.03        71.56496
570.47        71.37212
570.90        71.39341
571.34        71.61407
571.77        71.67062
572.21         71.2941
572.64        71.79205
573.08        71.21523
573.51        70.97533
573.95         71.4858
574.38        71.57446
574.82        71.38736
