SpectraSmart Spectrum 2.9.0.0
--------- Device Information -----------
Spectrum Name :  反射率_0
Saving Time :  2024/04/28 00:07:15
Spectro-Module Model Name : SE2030-DUVN
Spectro-Module Serial Number : OS361AC55029948
Wavelength Start : 200
Wavelength End : 1025
Wavelength Unit : Wavelength(nm)
Spectrum Unit : Reflectance(%)
-----------Spectrum Setting ------------
Integration Time : 20ms
Average : 10
Boxcar : 0
Background removal :  enabled
linearity correction :  enabled
SC :  disabled
Intensity correction :  disabled
DWT denoise :  enabled
savitzky-golay :  disabled
FFT :  disabled
Running average :  disabled
Kalman :  disabled
High pass :  disabled
---------------BEGIN--------------------
Wavelength(nm)             Reflectance(%)
200.29               0
200.75        130.3603
201.21        140.4423
201.67         140.142
202.13        133.3734
202.58         122.835
203.04        109.7241
203.50        98.22045
203.96        95.64661
204.42        101.2895
204.88         110.433
205.34        119.0326
205.80         123.794
206.26        124.5338
206.72        122.2171
207.18        114.9088
207.64        103.0267
208.10        93.76797
208.55        89.79404
209.01        88.44844
209.47        87.29788
209.93        85.27354
210.39        81.44664
210.85        74.48177
211.31        85.00694
211.77        109.3905
212.23        113.6645
212.69        113.3477
213.14        113.5921
213.60        113.8528
214.06        113.8731
214.52        112.3292
214.98        106.6835
215.44        99.52497
215.90        94.71822
216.36        92.04179
216.81         89.9483
217.27        87.81654
217.73         85.7066
218.19        83.57146
218.65        81.35042
219.11        79.09528
219.57        76.65134
220.02        74.03245
220.48        72.66911
220.94        72.74352
221.40        73.82926
221.86        75.45667
222.32         77.1629
222.77        78.65076
223.23        79.81705
223.69        80.42709
224.15        80.17924
224.61        79.11657
225.06        77.27074
225.52        75.13438
225.98        73.43246
226.44        72.57635
226.90        72.23623
227.36        72.16843
227.81        72.08615
228.27        71.94508
228.73        71.67654
229.19        71.03945
229.65        69.65332
230.10        67.49971
230.56        65.14265
231.02        62.87062
231.48        61.12487
231.93        59.96584
232.39        59.38875
232.85        59.48117
233.31        60.42717
233.77        62.06229
234.22         64.2332
234.68        66.28986
235.14        67.45536
235.60        67.62062
236.05        66.89313
236.51         65.8793
236.97        65.95518
237.43        67.59805
237.88        70.54016
238.34        73.49628
238.80        75.45734
239.26        76.28467
239.71        76.21764
240.17        75.56672
240.63        76.66415
241.08        80.45383
241.54         84.4005
242.00        87.14148
242.46        88.82713
242.91         90.2136
243.37        91.58098
243.83        93.87476
244.28        98.18781
244.74        101.7107
245.20        102.5356
245.66        101.1335
246.11        98.43916
246.57        94.15628
247.03        86.42695
247.48        75.73684
247.94        71.04858
248.40        79.80533
248.85        96.40129
249.31         110.474
249.77        113.5811
250.22        108.4891
250.68        100.4137
251.14        93.54765
251.59        91.41405
252.05        94.22434
252.51        101.0029
252.96        110.6258
253.42        116.7017
253.88        114.3039
254.33         107.265
254.79        100.0251
255.25        93.66261
255.70        87.98696
256.16        83.27242
256.62        80.15721
257.07        79.59241
257.53        81.20515
257.99        83.38039
258.44        84.71011
258.90        84.57117
259.35        82.75571
259.81        80.38544
260.27         77.7718
260.72        75.35836
261.18        73.67912
261.63        72.21663
262.09        71.09235
262.55        69.93492
263.00        68.60939
263.46        67.38596
263.91        66.25639
264.37        65.64069
264.83        65.41991
265.28        65.36815
265.74        65.30813
266.19        64.73616
266.65        63.70499
267.11        62.31207
267.56        60.75805
268.02        59.48556
268.47        58.54514
268.93        57.82207
269.38        57.17468
269.84        56.42159
270.30        55.49612
270.75        54.48808
271.21        53.40099
271.66        52.16245
272.12        50.83023
272.57        49.38933
273.03        48.05069
273.48        47.04722
273.94        46.46913
274.39        46.17069
274.85        45.99368
275.31        45.60033
275.76        44.89605
276.22        44.02068
276.67        43.05848
277.13        42.26963
277.58        41.62984
278.04        41.11409
278.49        40.55692
278.95        39.86391
279.40        38.97116
279.86        38.03543
280.31        37.11251
280.77        36.41864
281.22        35.93889
281.68        35.64942
282.13        35.45742
282.59        35.31185
283.04        35.14762
283.50        35.00171
283.95        34.82077
284.41        34.58348
284.86        34.26877
285.32        33.90987
285.77        33.53695
286.22        33.24996
286.68        33.08019
287.13        32.96716
287.59          32.891
288.04        32.72998
288.50        32.50425
288.95        32.22482
289.41        31.97686
289.86         31.8268
290.32        31.81903
290.77        31.91802
291.22        32.09715
291.68        32.30705
292.13        32.52817
292.59        32.80418
293.04        33.16684
293.50        33.69181
293.95        34.38325
294.40        35.22993
294.86        36.19544
295.31        37.21475
295.77        38.27863
296.22        39.38272
296.68        40.56469
297.13         41.8516
297.58        43.23725
298.04        44.69672
298.49        46.16217
298.95        47.58314
299.40        48.95589
299.85        50.32275
300.31        51.76604
300.76        53.35343
301.21          55.091
301.67         56.9424
302.12        58.80141
302.58        60.60295
303.03        62.29263
303.48        63.92464
303.94        65.56185
304.39        67.21128
304.84         68.9174
305.30        70.68327
305.75        72.47017
306.20        74.31091
306.66         76.2175
307.11        78.12786
307.57        80.03609
308.02        81.81015
308.47        83.43438
308.93        84.92815
309.38        86.28126
309.83        87.58698
310.29        88.89025
310.74        90.15424
311.19        91.35685
311.65        92.43356
312.10        93.34306
312.55        94.12015
313.00        94.84858
313.46        95.66195
313.91        96.57427
314.36        97.56513
314.82        98.52758
315.27        99.28341
315.72        99.79246
316.18        100.1175
316.63        100.3733
317.08        100.7817
317.53        101.3938
317.99        102.1413
318.44        102.8991
318.89        103.4376
319.35        103.7066
319.80        103.7963
320.25        103.8441
320.70        104.0767
321.16        104.5378
321.61        105.1616
322.06        105.8397
322.51        106.4099
322.97        106.7987
323.42        107.0951
323.87        107.3043
324.32        107.4566
324.78         107.564
325.23        107.6538
325.68        107.7619
326.13        107.9831
326.59        108.3101
327.04        108.7723
327.49        109.2875
327.94         109.747
328.39        110.1163
328.85        110.3866
329.30        110.6557
329.75        110.9318
330.20        111.2362
330.66        111.5317
331.11        111.8824
331.56         112.276
332.01        112.7187
332.46        113.2003
332.92        113.6854
333.37        114.2641
333.82         114.872
334.27        115.4968
334.72        116.0613
335.17        116.4467
335.63        116.6147
336.08        116.6659
336.53        116.6976
336.98        116.9197
337.43        117.3938
337.88        118.0677
338.34        118.8326
338.79         119.558
339.24        120.1665
339.69        120.6929
340.14        121.1664
340.59        121.6367
341.05        122.1269
341.50        122.6312
341.95          123.12
342.40        123.5718
342.85        123.9899
343.30        124.3779
343.75        124.8067
344.20        125.3832
344.66        126.1132
345.11        126.9463
345.56        127.7286
346.01        128.2144
346.46        128.3601
346.91        128.2498
347.36        128.0639
347.81        128.0834
348.26        128.3746
348.72        128.8516
349.17        129.3803
349.62        129.7659
350.07        129.9459
350.52        129.9901
350.97        129.9487
351.42        129.8989
351.87        129.8696
352.32        129.8223
352.77        129.7627
353.22        129.7099
353.67        129.6566
354.13        129.6149
354.58        129.5075
355.03        129.2715
355.48        128.8918
355.93        128.3862
356.38        127.8114
356.83        127.2565
357.28        126.7467
357.73        126.2697
358.18        125.7757
358.63        125.1814
359.08        124.4775
359.53        123.6989
359.98        122.9234
360.43        122.2704
360.88        121.7597
361.33        121.3457
361.78        120.9437
362.23         120.413
362.68        119.7149
363.13        118.9054
363.58        118.0497
364.03        117.1708
364.48        116.4316
364.93        115.7091
365.38        114.9974
365.83         114.224
366.28        113.3781
366.73        112.4858
367.18        111.6146
367.63        110.8697
368.08        110.2719
368.53        109.7893
368.98        109.3346
369.43        108.7667
369.88        108.0536
370.33        107.2378
370.78        106.4078
371.23        105.7102
371.68        105.1777
372.13        104.7532
372.58        104.3609
373.03        103.8826
373.48        103.2808
373.93        102.5972
374.38        101.8612
374.83        101.1127
375.28         100.376
375.72        99.62843
376.17        98.92428
376.62        98.27628
377.07         97.6906
377.52        97.15861
377.97        96.67839
378.42        96.24199
378.87        95.83897
379.32        95.47099
379.77        95.09648
380.22        94.65007
380.67        94.12177
381.11        93.53085
381.56        92.93766
382.01        92.46074
382.46        92.13119
382.91        91.91389
383.36        91.73528
383.81        91.47627
384.26        91.10414
384.71        90.65539
385.15        90.16193
385.60        89.73708
386.05        89.38517
386.50        89.07494
386.95        88.78371
387.40        88.48108
387.85        88.16711
388.29          87.818
388.74        87.52636
389.19        87.21844
389.64        86.87584
390.09        86.46413
390.54        86.05025
390.98        85.72912
391.43        85.56983
391.88         85.5397
392.33        85.43929
392.78        85.09238
393.23        84.52727
393.67        83.53834
394.12        82.47807
394.57        82.66255
395.02        82.75905
395.47        82.91721
395.91        82.69292
396.36         82.6384
396.81        82.73253
397.26        82.63886
397.71         82.3713
398.15        82.12638
398.60        82.01465
399.05        81.72566
399.50        81.37163
399.95        81.49896
400.39        81.92779
400.84        81.73956
401.29        80.97752
401.74        80.31131
402.18        79.94162
402.63         79.9151
403.08        80.12084
403.53        80.07619
403.97        79.72775
404.42        79.41927
404.87        79.22934
405.32        79.12875
405.76        79.11762
406.21        79.21629
406.66        79.32449
407.11        79.27096
407.55        79.05036
408.00        78.73101
408.45        78.40187
408.90        78.04306
409.34        77.72691
409.79        77.67139
410.24         77.7945
410.68        77.81289
411.13        77.68859
411.58        77.56466
412.03        77.48153
412.47        77.46958
412.92        77.51623
413.37        77.61721
413.81        77.72064
414.26        77.82213
414.71        77.88914
415.15        77.93845
415.60        77.95281
416.05        77.97113
416.49          78.005
416.94         78.0376
417.39        78.04068
417.83         77.9645
418.28        77.80284
418.73         77.5665
419.17        77.33509
419.62        77.23822
420.07         77.3037
420.51        77.48491
420.96        77.68895
421.41        77.73796
421.85        77.57307
422.30        77.23987
422.74        76.86044
423.19        76.86407
423.64        77.18285
424.08         77.4967
424.53        77.65852
424.98        77.70051
425.42        77.57069
425.87        77.92873
426.31        77.19144
426.76        77.48727
427.21        78.16365
427.65        78.25349
428.10        77.79229
428.54        77.64355
428.99        77.86273
429.44        78.17347
429.88         78.3959
430.33        77.94427
430.77        77.05657
431.22        77.07379
431.66        77.84951
432.11        78.04517
432.56        77.75594
433.00        77.87341
433.45        78.11585
433.89        78.46328
434.34        79.05746
434.78        76.62083
435.23        77.24718
435.67        77.45625
436.12        79.08289
436.57        79.20491
437.01         78.1813
437.46        77.80173
437.90        78.63171
438.35        79.11218
438.79          79.078
439.24        79.07839
439.68        79.09903
440.13         78.9681
440.57        78.77228
441.02        79.07461
441.46        79.61631
441.91        79.31915
442.35        78.38536
442.80        78.24458
443.24        78.81821
443.69        79.15926
444.13        79.16225
444.58        79.32024
445.02        79.59152
445.47        79.76425
445.91        79.83078
446.36        79.89118
446.80        79.92856
447.24        79.94717
447.69        79.98815
448.13        79.92639
448.58        80.40018
449.02        80.34039
449.47        80.01705
449.91        79.84671
450.36        79.87923
450.80        79.82832
451.25        79.71188
451.69        79.67937
452.13        79.72066
452.58        79.72889
453.02        79.69779
453.47        79.65889
453.91        79.59531
454.36        79.60481
454.80        79.59632
455.24        79.25048
455.69        78.71492
456.13        78.37673
456.58        78.34301
457.02        78.45808
457.46        78.63095
457.91        78.61848
458.35        78.06792
458.79        77.86008
459.24        77.89173
459.68        77.83688
460.13         77.7253
460.57        77.47868
461.01        77.47649
461.46         77.4031
461.90         77.2478
462.34        77.27811
462.79        77.15349
463.23        76.97102
463.68        76.69625
464.12        76.68168
464.56        76.96296
465.01        76.87132
465.45        77.24232
465.89          77.105
466.34         76.8924
466.78        76.37139
467.22        75.59198
467.67        76.57441
468.11        76.02559
468.55        76.02094
468.99         75.6459
469.44        75.52748
469.88        75.66209
470.32        75.73587
470.77        75.71963
471.21        75.66401
471.65        75.55986
472.10         75.4072
472.54        75.22022
472.98          75.097
473.42        75.06349
473.87         75.0207
474.31        74.94608
474.75        75.12836
475.20        75.41602
475.64        75.28977
476.08         74.8509
476.52        74.60565
476.97        74.54033
477.41        74.89127
477.85        74.76824
478.29        74.49621
478.74        74.54944
479.18        73.98624
479.62        74.22475
480.06        74.16588
480.50        74.16927
480.95        74.27391
481.39        74.37553
481.83        74.54813
482.27        74.31815
482.72         74.2938
483.16        74.22629
483.60        74.04655
484.04        74.11977
484.48        74.03751
484.93        74.19288
485.37        74.38134
485.81         74.7396
486.25        75.54247
486.69        75.85176
487.14        74.38798
487.58        73.83842
488.02        74.51933
488.46        74.40186
488.90        74.50341
489.34        74.43837
489.79        73.57123
490.23        74.11256
490.67        73.94769
491.11        73.73909
491.55        73.64014
491.99        73.66203
492.43        73.66042
492.88        73.61049
493.32        73.63303
493.76        73.67592
494.20        73.71519
494.64        73.76086
495.08        73.63801
495.52        73.45362
495.96        73.77028
496.41        74.39882
496.85        74.38433
497.29        73.78946
497.73        73.49882
498.17        73.50846
498.61        73.82089
499.05        74.22163
499.49        74.23313
499.93        73.90754
500.37        73.65646
500.82         73.5475
501.26        73.53745
501.70        74.17659
502.14        73.28056
502.58        73.65186
503.02        73.54969
503.46        73.45464
503.90        73.37054
504.34        73.23354
504.78        73.20387
505.22        73.23845
505.66        73.20744
506.10        73.14516
506.54        73.18021
506.98        73.30685
507.42        73.50263
507.86        73.75519
508.30         73.6468
508.74        73.75278
509.18        73.61783
509.62        73.46665
510.06        73.36894
510.50        73.35316
510.94        73.39194
511.38        73.44728
511.82        73.47146
512.26        73.44692
512.70        73.39402
513.14        73.33836
513.58        73.29121
514.02        73.25609
514.46        73.27353
514.90         73.3389
515.34        73.18694
515.78        73.23622
516.22        73.15759
516.66        73.08695
517.10        73.05671
517.54        73.08076
517.98        73.08809
518.42        73.05277
518.86        73.23361
519.30        73.16489
519.74        73.21581
520.18         73.2435
520.62        73.24771
521.06        73.22758
521.50        73.19419
521.93        73.16829
522.37        73.15791
522.81        73.17267
523.25        73.20082
523.69        73.23937
524.13        73.28307
524.57        73.32542
525.01        73.36923
525.45        73.38904
525.89        73.34509
526.32        73.22945
526.76        73.06917
527.20        72.90984
527.64        72.83324
528.08        72.85557
528.52        72.95095
528.96        73.06699
529.40        73.11986
529.83        73.08105
530.27        72.98917
530.71        72.87273
531.15        72.78727
531.59        72.74982
532.03        72.74385
532.46        72.74333
532.90        72.73164
533.34        72.69688
533.78         72.6503
534.22        72.60959
534.66         72.5985
535.09        72.61154
535.53        72.66021
535.97        72.71016
536.41        72.72577
536.85         72.6999
537.28         72.6451
537.72        72.58939
538.16        72.56879
538.60        72.59211
539.04        72.65767
539.47         72.7168
539.91        72.73674
540.35        72.69184
540.79        72.61669
541.22        72.51936
541.66        72.42236
542.10        72.33464
542.54        72.24738
542.97        72.17951
543.41        72.20091
543.85        72.30077
544.29        72.46812
544.72        72.62018
545.16        72.66278
545.60        72.56241
546.04        72.34589
546.47        72.10783
546.91        72.00578
547.35        72.06129
547.79        72.25454
548.22        72.46639
548.66        72.47385
549.10        72.28936
549.53        72.23327
549.97        72.32851
550.41         72.3298
550.84        72.19984
551.28        72.22806
551.72        72.43967
552.15        72.31847
552.59        71.83603
553.03        72.73769
553.46        72.00098
553.90        72.12714
554.34        72.21059
554.77        72.31566
555.21        72.37143
555.65        72.36794
556.08        72.24075
556.52        72.07566
556.96        71.91128
557.39        71.96314
557.83        72.18871
558.27        72.21327
558.70        72.04374
559.14        71.99517
559.57         72.0716
560.01        72.13161
560.45        72.12739
560.88        72.12744
561.32        72.16555
561.75        71.99026
562.19        71.73389
562.63         71.9053
563.06        72.37097
563.50        72.36636
563.93        71.93452
564.37        71.80031
564.80        71.98624
565.24        72.12217
565.68        72.16988
566.11        72.16159
566.55        72.13726
566.98         72.1992
567.42        72.33266
567.85        72.30169
568.29        72.19086
568.72        72.11153
569.16        72.12684
569.60        72.28589
570.03        72.59159
570.47         72.4619
570.90        72.76405
571.34        73.05545
571.77        72.95718
572.21        72.84975
572.64        72.65942
573.08        72.56568
573.51        72.09542
573.95        72.53459
574.38        72.76847
574.82        72.90762
