SpectraSmart Spectrum 2.9.0.0
--------- Device Information -----------
Spectrum Name :  反射率_0
Saving Time :  2024/04/28 00:10:31
Spectro-Module Model Name : SE2030-DUVN
Spectro-Module Serial Number : OS361AC55029948
Wavelength Start : 200
Wavelength End : 1025
Wavelength Unit : Wavelength(nm)
Spectrum Unit : Reflectance(%)
-----------Spectrum Setting ------------
Integration Time : 20ms
Average : 10
Boxcar : 0
Background removal :  enabled
linearity correction :  enabled
SC :  disabled
Intensity correction :  disabled
DWT denoise :  enabled
savitzky-golay :  disabled
FFT :  disabled
Running average :  disabled
Kalman :  disabled
High pass :  disabled
---------------BEGIN--------------------
Wavelength(nm)             Reflectance(%)
200.29               0
200.75        76.30516
201.21        73.03982
201.67        72.98338
202.13        72.63666
202.58        71.33529
203.04        70.29448
203.50        70.92779
203.96        74.84055
204.42        80.87215
204.88        87.15077
205.34        92.08724
205.80        94.60769
206.26         94.8499
206.72          93.026
207.18        88.35094
207.64        82.38151
208.10        79.30931
208.55        79.60938
209.01        80.64791
209.47        81.63293
209.93         82.8578
210.39        85.70673
210.85        97.70165
211.31        132.6685
211.77        130.8291
212.23        116.9359
212.69        109.7921
213.14        107.1614
213.60        105.7451
214.06        104.6673
214.52        102.5263
214.98        97.41825
215.44        91.86987
215.90        88.32523
216.36        87.28511
216.81        88.28144
217.27        90.56851
217.73        93.93752
218.19        96.71478
218.65        95.86175
219.11        90.45409
219.57        80.80353
220.02        69.10928
220.48        62.66546
220.94        64.14875
221.40        70.92638
221.86        79.07809
222.32        84.66732
222.77        87.22802
223.23         87.9986
223.69        88.05498
224.15        88.50851
224.61        89.59249
225.06        90.95033
225.52        91.86651
225.98        90.76605
226.44        88.06055
226.90        84.92097
227.36         82.6936
227.81        82.28095
228.27        83.55973
228.73        86.02657
229.19        88.63499
229.65        89.25466
230.10        87.19469
230.56        83.56493
231.02        79.67664
231.48        77.39878
231.93        76.96931
232.39        77.81174
232.85        79.26427
233.31        80.54186
233.77        81.38812
234.22        82.13527
234.68        82.67685
235.14        82.82734
235.60        82.63122
236.05        82.03403
236.51        81.46674
236.97         82.0195
237.43        83.92553
237.88         86.8672
238.34        89.69337
238.80        91.58314
239.26        92.42142
239.71        92.61074
240.17         91.4944
240.63        89.21472
241.08        87.16417
241.54        85.66864
242.00        85.30614
242.46        86.12388
242.91        88.30983
243.37        92.94339
243.83         102.323
244.28        113.8309
244.74        113.1991
245.20        101.2169
245.66         89.9659
246.11        83.19081
246.57        78.59789
247.03        74.33441
247.48        71.34051
247.94        74.86914
248.40        86.54369
248.85        101.3345
249.31        113.2308
249.77        118.0508
250.22        117.5581
250.68        114.5601
251.14        111.3496
251.59        110.0549
252.05        110.9349
252.51        113.2161
252.96        116.6817
253.42         119.694
253.88        120.1389
254.33        118.8111
254.79        116.5463
255.25        112.5463
255.70        107.1944
256.16        101.9275
256.62        98.14843
257.07        97.53004
257.53         99.7076
257.99        102.5828
258.44        104.3769
258.90         104.326
259.35        102.2483
259.81        99.64331
260.27        96.91628
260.72          94.632
261.18        93.36609
261.63        92.32114
262.09        91.73586
262.55         91.2589
263.00        90.65686
263.46        90.22281
263.91        89.59441
264.37        88.84277
264.83        87.86615
265.28        86.63874
265.74        85.44547
266.19        84.25753
266.65        83.20728
267.11        82.19492
267.56        81.11733
268.02        79.96061
268.47         78.6777
268.93        77.35551
269.38        76.07425
269.84        75.01292
270.30        74.17756
270.75        73.47588
271.21         72.8121
271.66        71.96325
272.12        70.90612
272.57        69.65702
273.03        68.30567
273.48         66.8722
273.94        65.49226
274.39        64.11609
274.85        62.88667
275.31        61.84526
275.76        60.95514
276.22        60.25348
276.67        59.60131
277.13        58.98713
277.58        58.28468
278.04        57.55779
278.49        56.72206
278.95        55.85094
279.40        54.88013
279.86        53.91847
280.31        52.88762
280.77        51.86895
281.22        50.83188
281.68        49.86722
282.13        49.01476
282.59        48.43806
283.04        48.08643
283.50        47.94584
283.95         47.8462
284.41        47.61438
284.86        47.18462
285.32        46.66103
285.77         46.1317
286.22        45.80585
286.68        45.73057
287.13        45.77585
287.59        45.87835
288.04        45.83838
288.50        45.65614
288.95        45.35097
289.41        45.01667
289.86        44.70966
290.32        44.49591
290.77        44.34225
291.22        44.25525
291.68        44.22902
292.13        44.25591
292.59         44.3871
293.04        44.64728
293.50        45.10745
293.95        45.75854
294.40        46.57959
294.86        47.53647
295.31         48.5635
295.77        49.64526
296.22        50.77518
296.68        51.94394
297.13        53.10555
297.58        54.25423
298.04        55.39915
298.49        56.56391
298.95        57.84808
299.40        59.26289
299.85        60.80182
300.31        62.44593
300.76         64.0959
301.21        65.71887
301.67        67.34061
302.12        68.91765
302.58        70.49714
303.03        72.04641
303.48        73.58552
303.94         75.1623
304.39        76.75079
304.84        78.38757
305.30        80.09347
305.75        81.80688
306.20        83.53704
306.66        85.29265
307.11        87.00368
307.57         88.7048
308.02        90.31875
308.47        91.84363
308.93        93.29501
309.38        94.59619
309.83        95.74664
310.29        96.78254
310.74        97.69611
311.19        98.56869
311.65        99.49949
312.10        100.4727
312.55        101.4619
313.00        102.4217
313.46        103.2896
313.91        104.0275
314.36        104.6691
314.82        105.2092
315.27        105.6362
315.72        105.9615
316.18        106.2098
316.63        106.4131
317.08         106.663
317.53        106.9858
317.99        107.3596
318.44        107.7685
318.89        108.1505
319.35        108.4852
319.80        108.7999
320.25        109.0941
320.70         109.378
321.16         109.642
321.61        109.8862
322.06        110.1225
322.51        110.3877
322.97        110.6646
323.42        110.9821
323.87        111.2663
324.32        111.4153
324.78        111.4032
325.23        111.3161
325.68         111.231
326.13        111.3036
326.59        111.5513
327.04        111.9739
327.49        112.4964
327.94        113.0325
328.39        113.5338
328.85        113.9741
329.30        114.3896
329.75        114.6754
330.20        114.8224
330.66        114.8254
331.11        114.8059
331.56        114.8434
332.01        114.9892
332.46        115.2281
332.92        115.5374
333.37         116.024
333.82        116.6216
334.27        117.3121
334.72        118.0063
335.17        118.5579
335.63        118.9045
336.08        119.1423
336.53        119.3102
336.98        119.5352
337.43        119.8672
337.88        120.2724
338.34        120.7427
338.79        121.3197
339.24        121.9663
339.69        122.6736
340.14        123.3635
340.59        123.9024
341.05        124.2684
341.50        124.5185
341.95        124.7089
342.40         124.957
342.85        125.2992
343.30        125.6786
343.75        126.1248
344.20        126.6816
344.66        127.3315
345.11        128.0623
345.56        128.6966
346.01        128.9451
346.46        128.7793
346.91        128.3025
347.36         127.802
347.81        127.7233
348.26        128.1563
348.72        128.9634
349.17        129.8759
349.62        130.4814
350.07        130.6575
350.52        130.5249
350.97        130.2455
351.42        130.0801
351.87        130.1028
352.32        130.2171
352.77        130.3211
353.22        130.2726
353.67        130.0314
354.13        129.6651
354.58        129.2145
355.03        128.7989
355.48        128.4449
355.93        128.1147
356.38        127.7383
356.83         127.209
357.28         126.514
357.73        125.7094
358.18        124.8763
358.63        124.1301
359.08        123.5059
359.53        122.9724
359.98        122.4893
360.43        121.9936
360.88        121.4558
361.33          120.88
361.78        120.2782
362.23        119.6656
362.68        119.0362
363.13        118.3872
363.58        117.6825
364.03        116.7908
364.48        115.8444
364.93        114.7915
365.38        113.7224
365.83        112.7108
366.28        111.7882
366.73         110.933
367.18        110.1675
367.63        109.5245
368.08        108.9924
368.53        108.5578
368.98        108.1254
369.43        107.5405
369.88        106.7706
370.33        105.8539
370.78        104.8976
371.23        104.0865
371.68        103.4675
372.13        102.9834
372.58        102.5512
373.03         102.033
373.48        101.3896
373.93        100.6732
374.38        99.92719
374.83         99.2112
375.28        98.54903
375.72        97.90253
376.17        97.30276
376.62        96.73261
377.07        96.18217
377.52         95.6395
377.97        95.10927
378.42        94.59666
378.87        94.09908
379.32        93.62742
379.77        93.12656
380.22        92.50566
380.67        91.76419
381.11        90.94178
381.56        90.16028
382.01        89.63592
382.46         89.4125
382.91        89.40961
383.36        89.48205
383.81         89.4005
384.26        89.09637
384.71        88.63651
385.15          88.065
385.60        87.51697
386.05        87.02139
386.50        86.54833
386.95        86.11591
387.40        85.76214
387.85         85.4887
388.29        85.23721
388.74         85.0601
389.19        84.82648
389.64        84.50371
390.09        84.09084
390.54        83.62167
390.98        83.14228
391.43        82.73331
391.88        82.38636
392.33         82.0416
392.78        81.66856
393.23        81.29546
393.67        80.77068
394.12        80.26473
394.57        80.42383
395.02        80.41193
395.47        80.32583
395.91        79.97665
396.36        79.82829
396.81        79.90133
397.26        79.95786
397.71         79.8917
398.15        79.65108
398.60        79.31773
399.05        78.72266
399.50        78.09445
399.95        78.01781
400.39        78.39713
400.84         78.5379
401.29        78.31166
401.74        77.84832
402.18        77.27139
402.63        76.89272
403.08         76.7655
403.53        76.55662
403.97        76.28988
404.42        76.29262
404.87        76.44045
405.32        76.43324
405.76        76.22083
406.21        75.73148
406.66        75.16999
407.11        75.19021
407.55         75.6704
408.00        75.77951
408.45        75.43356
408.90        74.76943
409.34        74.06882
409.79        74.14956
410.24        74.84247
410.68        75.05305
411.13        74.70513
411.58        74.48349
412.03        74.45785
412.47        74.41604
412.92        74.34464
413.37        74.32082
413.81        74.29698
414.26        74.25366
414.71        74.16463
415.15        74.05697
415.60        73.91404
416.05        73.78001
416.49        73.67878
416.94        73.58939
417.39        73.52751
417.83        73.51797
418.28        73.54636
418.73        73.57696
419.17         73.6008
419.62        73.60841
420.07        73.61307
420.51        73.63317
420.96        73.61588
421.41        73.53407
421.85        73.38055
422.30        72.91401
422.74        72.35535
423.19        72.81899
423.64        74.02275
424.08        74.27233
424.53        73.47944
424.98        73.21141
425.42        73.55341
425.87         73.3965
426.31        72.85406
426.76        72.93963
427.21        73.51601
427.65        73.51174
428.10        73.00976
428.54        72.91682
428.99        73.26888
429.44        73.72299
429.88        74.07735
430.33        73.84637
430.77         73.1711
431.22        73.11915
431.66        73.61603
432.11        73.65001
432.56         73.3026
433.00        73.45616
433.45        73.89336
433.89        74.09582
434.34        74.12283
434.78        73.17924
435.23        73.25007
435.67        73.82734
436.12         74.4119
436.57        74.53764
437.01        74.08463
437.46        73.77908
437.90        73.82621
438.35        74.58918
438.79        74.00475
439.24        74.06013
439.68        74.14636
440.13         74.0702
440.57        73.89928
441.02        74.20284
441.46        74.81522
441.91        74.83074
442.35        74.31619
442.80        74.41871
443.24          75.022
443.69        75.10374
444.13        74.69136
444.58        74.71277
445.02        75.07617
445.47        75.05855
445.91        74.70136
446.36        74.59074
446.80        74.73222
447.24        74.90633
447.69        74.88412
448.13        75.07887
448.58        75.32845
449.02        75.18126
449.47        74.77016
449.91        74.64144
450.36        74.85425
450.80        75.09177
451.25        75.26083
451.69        75.31541
452.13        75.20919
452.58         74.9045
453.02        74.50018
453.47        74.19001
453.91        74.01427
454.36        74.02419
454.80         74.0751
455.24        73.80552
455.69        73.33685
456.13        72.96288
456.58        72.82582
457.02        73.13377
457.46        73.55345
457.91        73.51698
458.35        72.90373
458.79        72.65907
459.24        72.75673
459.68        72.74584
460.13        72.64329
460.57        72.33353
461.01        72.14927
461.46        72.07619
461.90        71.77897
462.34        71.60813
462.79        71.79704
463.23        71.70406
463.68        71.47414
464.12         71.3448
464.56        71.37635
465.01        71.56922
465.45         71.6886
465.89        71.67159
466.34        71.51699
466.78        70.81149
467.22        69.77448
467.67        70.12074
468.11        70.33568
468.55        70.38469
468.99         69.8446
469.44        69.68847
469.88        69.91444
470.32        69.96383
470.77        69.82944
471.21          69.756
471.65        69.75103
472.10        69.76098
472.54        69.72662
472.98         69.6548
473.42        69.56221
473.87        69.30759
474.31         68.9612
474.75        69.14677
475.20         69.7142
475.64        69.48736
476.08        68.96085
476.52        68.74378
476.97        69.00783
477.41        68.85449
477.85        69.01614
478.29         68.6964
478.74        69.28107
479.18         68.3512
479.62        68.83363
480.06        68.70065
480.50        68.67355
480.95        68.87833
481.39        69.24264
481.83        68.79003
482.27        68.86866
482.72        68.69489
483.16         68.3792
483.60        68.28323
484.04        68.34186
484.48        68.36729
484.93        68.45273
485.37        68.97617
485.81        69.31832
486.25        69.70059
486.69        71.38663
487.14        70.34351
487.58        68.60622
488.02        68.84042
488.46        68.44881
488.90        68.39111
489.34        68.47407
489.79        67.53741
490.23        67.86965
490.67        67.73511
491.11        67.74401
491.55        67.71872
491.99        67.65378
492.43        67.55726
492.88        67.39771
493.32         67.4809
493.76        67.30714
494.20        67.33968
494.64        67.45251
495.08        67.52138
495.52        67.55965
495.96        67.88789
496.41        68.36485
496.85        68.25159
497.29        67.65882
497.73        67.52489
498.17        67.76983
498.61        67.92668
499.05        67.87408
499.49         67.8452
499.93        67.85403
500.37        67.66288
500.82        67.30451
501.26        67.31837
501.70        67.78037
502.14        67.02508
502.58          67.462
503.02        67.43585
503.46        67.37325
503.90        67.35418
504.34        67.30355
504.78        67.27641
505.22        67.21066
505.66        67.05593
506.10        66.90063
506.54        66.81264
506.98        66.75416
507.42        67.32468
507.86        67.24023
508.30        67.24348
508.74        67.31434
509.18        67.17269
509.62        66.98557
510.06        66.88232
510.50        66.90692
510.94        67.00417
511.38        67.11591
511.82        67.15775
512.26        67.10446
512.70        66.98841
513.14        66.86355
513.58        66.78746
514.02        66.77731
514.46        66.86019
514.90        67.00126
515.34        66.90872
515.78        66.95062
516.22        66.83625
516.66        66.73304
517.10        66.71312
517.54        66.79144
517.98        66.93321
518.42        67.06648
518.86        67.08723
519.30        66.97564
519.74        66.77663
520.18        66.55883
520.62        66.42576
521.06        66.40944
521.50        66.47906
521.93        66.60876
522.37        66.74214
522.81        66.85682
523.25        66.95584
523.69          67.032
524.13        67.07449
524.57        67.08025
525.01        67.05023
525.45         66.9763
525.89        66.85077
526.32        66.67826
526.76        66.48431
527.20        66.30925
527.64        66.22204
528.08        66.23314
528.52        66.31593
528.96         66.4247
529.40        66.48606
529.83        66.47208
530.27        66.41627
530.71        66.32483
531.15        66.22237
531.59        66.12413
532.03        66.02073
532.46        65.93797
532.90        65.94177
533.34        66.02999
533.78        66.18148
534.22         66.3403
534.66        66.41972
535.09        66.39227
535.53        66.30251
535.97        66.17963
536.41        66.08736
536.85        66.04801
537.28        66.04856
537.72        66.07576
538.16        66.09884
538.60        66.11057
539.04        66.13272
539.47        66.15605
539.91         66.2024
540.35        66.25356
540.79         66.3128
541.22        66.34927
541.66        66.32509
542.10        66.23433
542.54        66.09451
542.97        65.93999
543.41         65.8608
543.85        65.86024
544.29        65.91976
544.72        65.98962
545.16        66.01513
545.60        65.96667
546.04        65.88934
546.47        65.81297
546.91        65.72873
547.35        65.67531
547.79        65.78312
548.22         65.9686
548.66        66.00989
549.10        65.89359
549.53        65.82047
549.97        65.82368
550.41        65.82508
550.84        65.83202
551.28        65.89886
551.72        65.99421
552.15        66.02341
552.59        65.98825
553.03         65.9455
553.46        65.84014
553.90        65.80948
554.34        65.82871
554.77        65.89393
555.21        65.96841
555.65        65.99923
556.08        65.91014
556.52        65.88056
556.96        65.88297
557.39        65.93224
557.83        65.99776
558.27         65.8815
558.70        65.62766
559.14        65.51199
559.57        65.54451
560.01        65.58744
560.45        65.61147
560.88        65.67789
561.32        65.80252
561.75        65.82383
562.19         65.7838
562.63        65.85337
563.06        65.97871
563.50        65.88798
563.93        65.61993
564.37        65.51692
564.80        65.58183
565.24        65.70168
565.68        65.82662
566.11        65.91656
566.55           65.98
566.98        66.01681
567.42        66.04358
567.85        66.07703
568.29        66.18063
568.72        66.16776
569.16        66.08381
569.60        66.45643
570.03        66.60143
570.47        66.55463
570.90        66.95654
571.34        66.97868
571.77        67.03388
572.21        66.90488
572.64        67.07912
573.08        66.61565
573.51        66.33704
573.95        67.10503
574.38        67.34737
574.82        67.40967
