SpectraSmart Spectrum 2.9.0.0
--------- Device Information -----------
Spectrum Name :  反射率_0
Saving Time :  2024/04/27 23:37:15
Spectro-Module Model Name : SE2030-DUVN
Spectro-Module Serial Number : OS361AC55029948
Wavelength Start : 200
Wavelength End : 1025
Wavelength Unit : Wavelength(nm)
Spectrum Unit : Reflectance(%)
-----------Spectrum Setting ------------
Integration Time : 20ms
Average : 10
Boxcar : 0
Background removal :  enabled
linearity correction :  enabled
SC :  disabled
Intensity correction :  disabled
DWT denoise :  enabled
savitzky-golay :  disabled
FFT :  disabled
Running average :  disabled
Kalman :  disabled
High pass :  disabled
---------------BEGIN--------------------
Wavelength(nm)             Reflectance(%)
200.29               0
200.75        53.11113
201.21        58.58983
201.67        63.22146
202.13        62.22615
202.58        56.99988
203.04        50.28244
203.50        45.76797
203.96        48.35293
204.42        56.88939
204.88         67.5274
205.34        76.86308
205.80        82.68185
206.26        85.16027
206.72        84.72375
207.18        80.70788
207.64        74.61007
208.10        70.58739
208.55        69.89833
209.01        68.68814
209.47        63.96642
209.93        52.85273
210.39        24.61862
210.85       -59.11586
211.31       -155.8906
211.77        -31.5815
212.23        47.49254
212.69        74.16238
213.14        80.31934
213.60        75.68282
214.06        61.19287
214.52        33.92391
214.98        11.65536
215.44        16.60233
215.90        32.66031
216.36          46.629
216.81        54.21307
217.27        56.99311
217.73        58.06669
218.19        57.28361
218.65        53.54877
219.11        46.91854
219.57        37.09552
220.02        26.28669
220.48        22.13362
220.94        26.50623
221.40        35.92926
221.86        46.37838
222.32        53.90004
222.77        58.06431
223.23         60.2275
223.69        60.42091
224.15        58.38967
224.61        54.44679
225.06        48.39941
225.52        42.37581
225.98        40.38174
226.44        42.62806
226.90        46.69822
227.36        50.07388
227.81        50.71609
228.27         48.7103
228.73        44.72417
229.19        39.47743
229.65        34.75525
230.10        31.54066
230.56        29.78888
231.02        28.93742
231.48        28.22281
231.93        27.39068
232.39          26.748
232.85        26.78422
233.31        28.11659
233.77        30.62514
234.22        33.99306
234.68        37.05578
235.14        38.49382
235.60         38.1283
236.05        36.08696
236.51        33.76638
236.97        34.11089
237.43        38.06182
237.88        44.79165
238.34        51.54214
238.80        55.53541
239.26        56.20823
239.71        53.43465
240.17        47.53144
240.63         44.5791
241.08         49.5968
241.54        57.84983
242.00        64.41069
242.46        67.65002
242.91        68.42233
243.37        67.06582
243.83        62.45308
244.28         54.8082
244.74        50.98571
245.20        53.34443
245.66        56.37278
246.11        56.02185
246.57        52.04628
247.03         44.8649
247.48        35.03696
247.94        31.43284
248.40        40.97081
248.85        56.45465
249.31        71.07863
249.77         80.4581
250.22         84.8887
250.68        86.44491
251.14        86.11885
251.59         84.5382
252.05        81.79517
252.51        76.76314
252.96        69.32046
253.42        63.75456
253.88        63.09932
254.33        66.17118
254.79        69.25345
255.25        69.04156
255.70        66.18205
256.16        62.69952
256.62        60.38258
257.07        61.14154
257.53        64.28348
257.99        67.66916
258.44        69.69346
258.90         69.4796
259.35        67.07929
259.81        63.85365
260.27        60.31435
260.72        57.09706
261.18        54.74123
261.63         52.7782
262.09        51.30682
262.55        50.07286
263.00        48.91352
263.46        47.96259
263.91        47.13613
264.37         46.6305
264.83        46.33028
265.28        46.11142
265.74        45.81291
266.19        45.04859
266.65        43.86838
267.11        42.36582
267.56        40.77832
268.02         39.5828
268.47        38.84439
268.93        38.43156
269.38        38.15498
269.84        37.73265
270.30        37.07493
270.75        36.28751
271.21        35.40866
271.66        34.44831
272.12        33.46416
272.57         32.4085
273.03        31.42437
273.48        30.66994
273.94        30.20064
274.39        29.91828
274.85        29.69425
275.31        29.26767
275.76        28.58182
276.22        27.75635
276.67        26.87893
277.13        26.15489
277.58        25.59103
278.04        25.16973
278.49        24.78897
278.95        24.40031
279.40        23.94293
279.86        23.49001
280.31        23.06293
280.77        22.78846
281.22        22.64185
281.68        22.61504
282.13        22.59274
282.59        22.45172
283.04        22.16969
283.50        21.80319
283.95        21.46594
284.41         21.3579
284.86        21.49416
285.32        21.81347
285.77         22.1628
286.22        22.35113
286.68        22.35821
287.13        22.22065
287.59        22.07246
288.04        22.04896
288.50         22.2036
288.95        22.45025
289.41        22.72537
289.86        22.89477
290.32        22.95475
290.77        22.96496
291.22        22.98571
291.68        23.09368
292.13        23.31902
292.59        23.66085
293.04        24.14559
293.50        24.83488
293.95        25.71948
294.40        26.79164
294.86        27.98358
295.31        29.17717
295.77        30.35305
296.22        31.52516
296.68        32.75483
297.13        34.11348
297.58        35.61344
298.04        37.21635
298.49        38.86749
298.95        40.52884
299.40        42.19322
299.85        43.88734
300.31        45.66114
300.76        47.52755
301.21        49.47589
301.67        51.48739
302.12        53.46357
302.58        55.34661
303.03        57.10003
303.48        58.77156
303.94        60.46682
304.39        62.26412
304.84        64.20498
305.30        66.26231
305.75        68.32023
306.20         70.2886
306.66        72.15472
307.11        73.89513
307.57         75.5746
308.02        77.17803
308.47        78.72108
308.93        80.19355
309.38        81.53608
309.83        82.75922
310.29        83.89288
310.74        84.93362
311.19        85.91669
311.65        86.86591
312.10        87.75883
312.55        88.59642
313.00        89.39732
313.46        90.19783
313.91        90.98744
314.36        91.77018
314.82        92.49197
315.27        93.06015
315.72         93.4579
316.18        93.72356
316.63        93.92006
317.08        94.18761
317.53        94.55875
317.99        94.98876
318.44        95.41718
318.89        95.71696
319.35        95.86093
319.80        95.91117
320.25        95.92427
320.70        95.99482
321.16        96.14552
321.61        96.36018
322.06        96.62905
322.51        96.94829
322.97        97.28329
323.42        97.66002
323.87        98.01007
324.32         98.2399
324.78        98.31635
325.23        98.30115
325.68        98.23547
326.13        98.22211
326.59        98.27412
327.04        98.41119
327.49        98.61104
327.94        98.86433
328.39        99.15854
328.85        99.47329
329.30        99.82337
329.75        100.0836
330.20        100.2329
330.66        100.2659
331.11         100.314
331.56        100.4874
332.01        100.8261
332.46         101.291
332.92        101.7789
333.37        102.2485
333.82        102.6096
334.27        102.8844
334.72        103.0982
335.17        103.2968
335.63        103.4803
336.08        103.6955
336.53        103.9078
336.98        104.1032
337.43        104.2906
337.88        104.4878
338.34        104.7391
338.79        105.1574
339.24         105.735
339.69        106.4307
340.14        107.1463
340.59        107.7239
341.05        108.1217
341.50        108.3921
341.95        108.5869
342.40        108.8137
342.85        109.1064
343.30        109.4162
343.75         109.753
344.20        110.1317
344.66        110.5458
345.11        111.0058
345.56        111.4134
346.01        111.5995
346.46        111.5555
346.91        111.3435
347.36         111.152
347.81        111.2769
348.26        111.7605
348.72        112.4856
349.17        113.2516
349.62        113.7574
350.07        113.9073
350.52        113.7945
350.97        113.4938
351.42        113.1299
351.87        112.7711
352.32        112.3911
352.77        112.0362
353.22        111.7825
353.67        111.6316
354.13        111.5759
354.58        111.5252
355.03        111.3819
355.48        111.1103
355.93        110.7404
356.38        110.2677
356.83        109.6934
357.28        109.0374
357.73        108.3053
358.18        107.5775
358.63        106.9758
359.08        106.5249
359.53        106.2029
359.98        105.9086
360.43        105.4778
360.88        104.8663
361.33        104.1004
361.78        103.2932
362.23        102.6338
362.68        102.1546
363.13        101.7963
363.58        101.3949
364.03        100.6865
364.48        99.64451
364.93        98.37858
365.38         97.0857
365.83        96.06828
366.28        95.39697
366.73        94.96121
367.18        94.64328
367.63        94.25104
368.08        93.71536
368.53         93.1073
368.98        92.41419
369.43        91.61192
369.88        90.72398
370.33        89.74963
370.78        88.81326
371.23        88.12921
371.68        87.73119
372.13        87.55177
372.58        87.43166
373.03        87.10038
373.48        86.48521
373.93        85.67272
374.38        84.76151
374.83        83.90964
375.28        83.17545
375.72        82.49448
376.17         81.8995
376.62        81.37816
377.07        80.91469
377.52        80.50848
377.97        80.11803
378.42        79.67101
378.87        79.15192
379.32        78.58304
379.77        77.98249
380.22        77.37866
380.67        76.78456
381.11        76.19736
381.56        75.64115
382.01        75.16685
382.46        74.79195
382.91        74.51313
383.36        74.28701
383.81        74.03752
384.26        73.74268
384.71        73.41548
385.15        73.08065
385.60        72.83617
386.05         72.6738
386.50        72.55819
386.95        72.43269
387.40         72.2188
387.85        71.90396
388.29        71.47957
388.74        71.07016
389.19         70.6797
389.64        70.31266
390.09        69.94658
390.54        69.58075
390.98        69.20284
391.43        68.86216
391.88        68.56427
392.33        68.27579
392.78         68.0056
393.23        67.77364
393.67        67.42307
394.12        67.04358
394.57        67.24353
395.02        66.98055
395.47        66.88991
395.91        66.68613
396.36        66.54565
396.81        66.48012
397.26        66.41628
397.71        66.33839
398.15        66.22314
398.60        66.13104
399.05        65.95055
399.50        65.74242
399.95        65.69463
400.39        65.75043
400.84        65.65597
401.29        65.38505
401.74        64.89178
402.18        64.33202
402.63        64.18684
403.08        64.40153
403.53        64.36117
403.97        64.04028
404.42        63.84668
404.87        63.78379
405.32        63.74385
405.76        63.72175
406.21        63.58488
406.66        63.40269
407.11        63.62933
407.55        64.11265
408.00        64.05239
408.45         63.4783
408.90        62.89932
409.34        62.52985
409.79        62.64208
410.24        63.10038
410.68        63.28976
411.13        63.14791
411.58        63.07956
412.03        63.12784
412.47        63.16375
412.92        63.17138
413.37        63.20296
413.81        63.22987
414.26        63.25887
414.71        63.27591
415.15        63.29946
415.60        63.32283
416.05        63.38659
416.49        63.50377
416.94        63.65484
417.39        63.82249
417.83        63.98101
418.28        64.11433
418.73        64.20687
419.17        64.28989
419.62        64.41943
420.07        64.61262
420.51        64.85807
420.96        65.07681
421.41         65.1634
421.85        65.09156
422.30        64.76569
422.74        64.37716
423.19        64.70382
423.64        65.60434
424.08        66.06575
424.53        65.92353
424.98         65.9968
425.42        66.31628
425.87        66.15544
426.31        65.68874
426.76        65.91065
427.21        66.68095
427.65        66.79307
428.10        66.32192
428.54        66.31487
428.99        66.81657
429.44        67.39359
429.88        67.83665
430.33        67.75557
430.77        67.27047
431.22        67.25293
431.66        67.71651
432.11        68.06487
432.56        68.32499
433.00        68.78959
433.45        69.14015
433.89         69.3849
434.34        69.63026
434.78        68.25146
435.23        67.92683
435.67        68.89971
436.12        70.07349
436.57        70.40293
437.01        69.65821
437.46        69.36289
437.90        69.97392
438.35        71.26305
438.79        70.90664
439.24        71.07962
439.68         71.1311
440.13        70.96832
440.57        70.75059
441.02        71.13811
441.46        71.93355
441.91        72.09953
442.35        71.67127
442.80        71.70554
443.24        72.50286
443.69        72.62827
444.13         72.1466
444.58        72.72507
445.02         72.6376
445.47         72.9908
445.91         73.1981
446.36        73.37393
446.80         73.4838
447.24        73.46943
447.69        73.44358
448.13        73.68276
448.58        74.12502
449.02        74.30317
449.47        74.23462
449.91         74.2801
450.36        74.46654
450.80        74.54278
451.25        74.53788
451.69        74.59781
452.13        74.71509
452.58         74.7776
453.02        74.78162
453.47        74.76098
453.91        74.70641
454.36        74.73531
454.80        74.75395
455.24        74.41729
455.69        73.87294
456.13        73.54223
456.58        73.44624
457.02        73.62435
457.46        74.42585
457.91        74.32948
458.35         73.8548
458.79        73.63406
459.24         73.7869
459.68        73.74717
460.13        73.49866
460.57        73.20355
461.01        73.26085
461.46        72.84986
461.90        72.30981
462.34        73.02921
462.79        72.57304
463.23         72.6682
463.68        72.58165
464.12        72.61726
464.56        72.74807
465.01        72.86416
465.45         72.8325
465.89        72.78603
466.34        72.77216
466.78        72.38726
467.22        71.67585
467.67        72.30408
468.11        71.89059
468.55         71.9925
468.99        71.88027
469.44        71.84865
469.88        71.87776
470.32        71.82944
470.77        71.73177
471.21        71.66206
471.65         71.6312
472.10        71.62659
472.54        71.60271
472.98        71.58554
473.42        71.59801
473.87        71.46696
474.31        71.19852
474.75        71.39551
475.20        71.95135
475.64        71.33711
476.08        71.06433
476.52        70.76094
476.97        70.84275
477.41        70.96828
477.85        71.26916
478.29        70.81299
478.74        71.60567
479.18        71.16164
479.62        71.15801
480.06        71.01914
480.50        71.05962
480.95        71.20035
481.39        71.37257
481.83        71.04054
482.27         71.3435
482.72        70.97831
483.16        70.92523
483.60        70.76527
484.04        70.64651
484.48        70.76723
484.93        71.23615
485.37        70.73138
485.81        71.05751
486.25        71.43925
486.69        71.24158
487.14        70.90039
487.58        71.13575
488.02        71.32703
488.46        71.27991
488.90         71.2589
489.34        71.13094
489.79        70.11923
490.23        71.26118
490.67        71.04647
491.11        70.48627
491.55        70.30598
491.99        70.52924
492.43        70.59023
492.88        70.43539
493.32        70.38725
493.76        70.45126
494.20          70.568
494.64        70.74206
495.08        70.93086
495.52        71.09902
495.96        71.28674
496.41        71.42779
496.85        71.30424
497.29        70.97635
497.73        70.85306
498.17        70.85534
498.61        70.95129
499.05        71.03303
499.49        71.00728
499.93        70.90115
500.37        70.78008
500.82        70.62628
501.26        70.58961
501.70        70.80772
502.14         70.0827
502.58        70.71702
503.02        70.79728
503.46        70.71645
503.90        70.48944
504.34        70.55367
504.78        70.58125
505.22        70.67649
505.66        70.70744
506.10        70.66942
506.54         70.6693
506.98        70.70603
507.42        70.52051
507.86        70.71358
508.30        70.33855
508.74        70.50542
509.18        70.43559
509.62        70.41917
510.06         70.4423
510.50        70.50156
510.94        70.58847
511.38        70.66154
511.82        70.67921
512.26        70.63018
512.70        70.53268
513.14        70.42672
513.58        70.35149
514.02        70.32127
514.46        70.37335
514.90        70.49988
515.34        70.43603
515.78        70.57441
516.22        70.59386
516.66        70.62424
517.10        70.66891
517.54        70.72943
517.98        70.79207
518.42        70.83085
518.86        70.81811
519.30         70.7521
519.74        70.65099
520.18        70.54626
520.62        70.48425
521.06        70.47971
521.50        70.52062
521.93        70.59828
522.37        70.68232
522.81          70.763
523.25         70.8387
523.69        70.90069
524.13        70.93594
524.57        70.94309
525.01        70.92828
525.45        70.89139
525.89        70.83455
526.32        70.75956
526.76        70.68219
527.20        70.62679
527.64        70.63888
528.08        70.72036
528.52        70.85051
528.96        70.98391
529.40        71.04889
529.83        71.02148
530.27        70.93776
530.71        70.81675
531.15         70.7005
531.59         70.6069
532.03        70.52529
532.46        70.45752
532.90        70.42918
533.34         70.4335
533.78        70.46653
534.22        70.50513
534.66        70.51037
535.09        70.46595
535.53        70.40423
535.97        70.32914
536.41        70.26612
536.85          70.224
537.28        70.19522
537.72        70.18517
538.16        70.19278
538.60        70.21591
539.04         70.2683
539.47        70.30688
539.91        70.30612
540.35        70.24451
540.79        70.14367
541.22        70.01814
541.66        69.93537
542.10        69.91259
542.54        69.87646
542.97        69.79478
543.41        69.97112
543.85        69.88447
544.29        69.94799
544.72        69.99246
545.16        70.03396
545.60        70.04998
546.04        70.03725
546.47        70.02283
546.91        70.03094
547.35         70.0607
547.79        70.15873
548.22        70.24424
548.66        70.13459
549.10        69.86587
549.53        69.74247
549.97        69.79688
550.41        69.82545
550.84        69.81774
551.28        69.95175
551.72        70.18407
552.15        70.23055
552.59        70.05759
553.03        70.22816
553.46        69.87696
553.90        69.85307
554.34         69.8946
554.77        70.01199
555.21        70.13942
555.65        70.14674
556.08         70.0752
556.52        69.92875
556.96        69.73465
557.39        69.80118
557.83        70.07176
558.27         70.1494
558.70         70.0221
559.14        69.98135
559.57        70.01501
560.01        70.01028
560.45        69.94672
560.88         69.8354
561.32        69.77476
561.75        69.76981
562.19        69.85019
562.63        70.10387
563.06        70.37436
563.50        70.26176
563.93        69.83286
564.37        69.69201
564.80        69.83881
565.24        69.95163
565.68        69.99916
566.11        70.07429
566.55        70.18298
566.98        70.31336
567.42        70.42692
567.85        70.34903
568.29        70.20762
568.72        70.08772
569.16        70.01052
569.60        70.33137
570.03        70.33714
570.47        69.99863
570.90         69.9669
571.34        70.53078
571.77        70.38473
572.21        70.30229
572.64        70.34545
573.08        70.44403
573.51        70.19461
573.95        70.11567
574.38        70.08373
574.82        69.97919
