SpectraSmart Spectrum 2.9.0.0
--------- Device Information -----------
Spectrum Name :  反射率_0
Saving Time :  2024/04/28 00:00:50
Spectro-Module Model Name : SE2030-DUVN
Spectro-Module Serial Number : OS361AC55029948
Wavelength Start : 200
Wavelength End : 1025
Wavelength Unit : Wavelength(nm)
Spectrum Unit : Reflectance(%)
-----------Spectrum Setting ------------
Integration Time : 20ms
Average : 10
Boxcar : 0
Background removal :  enabled
linearity correction :  enabled
SC :  disabled
Intensity correction :  disabled
DWT denoise :  enabled
savitzky-golay :  disabled
FFT :  disabled
Running average :  disabled
Kalman :  disabled
High pass :  disabled
---------------BEGIN--------------------
Wavelength(nm)             Reflectance(%)
200.29               0
200.75        89.01955
201.21        99.61494
201.67        102.1198
202.13        95.92124
202.58        84.04282
203.04        68.99798
203.50        56.96945
203.96        57.27577
204.42        68.54542
204.88        84.48206
205.34        98.91966
205.80        107.2062
206.26        109.4035
206.72        106.3256
207.18        97.36293
207.64        88.19702
208.10        85.97942
208.55        88.44621
209.01        89.78385
209.47        86.59958
209.93        76.51286
210.39        50.12551
210.85        -31.3295
211.31       -141.0682
211.77       -32.17591
212.23        45.45526
212.69        73.21553
213.14        80.57516
213.60        77.34087
214.06        65.53814
214.52        41.90987
214.98        19.13704
215.44        17.98207
215.90        27.67524
216.36        37.98034
216.81        45.24618
217.27        50.05606
217.73        54.70789
218.19        58.56415
218.65        59.68634
219.11        57.62538
219.57        52.37695
220.02        45.26208
220.48        41.58024
220.94        42.98648
221.40        47.63814
221.86        53.25244
222.32        57.52605
222.77        60.14508
223.23        61.70343
223.69        62.51898
224.15        62.82291
224.61        62.72023
225.06        61.92933
225.52        60.60435
225.98        58.88685
226.44        57.16277
226.90        55.58267
227.36        54.15194
227.81        52.58759
228.27         50.7145
228.73        48.50583
229.19        45.81796
229.65        42.68427
230.10        39.45467
230.56         36.6723
231.02        34.72688
231.48        34.15404
231.93        34.79063
232.39        36.27594
232.85        38.27488
233.31        40.36251
233.77          42.303
234.22        44.28317
234.68        45.71636
235.14        45.94039
235.60        44.95478
236.05        42.73139
236.51        40.51575
236.97        40.97865
237.43        44.93684
237.88        51.64627
238.34        58.53733
238.80        63.14441
239.26        65.08154
239.71        64.54384
240.17        61.66056
240.63        60.05332
241.08        62.76796
241.54        67.05982
242.00        70.35444
242.46        71.67542
242.91        71.42325
243.37        69.52994
243.83        65.66462
244.28        63.21406
244.74        69.01145
245.20        78.76446
245.66        84.85513
246.11        86.59671
246.57         85.4687
247.03         81.3033
247.48        73.83588
247.94        67.63667
248.40        68.29856
248.85        73.61966
249.31        80.35339
249.77        85.48731
250.22         88.5493
250.68        90.53191
251.14        91.64778
251.59        92.10565
252.05        92.17572
252.51        91.45472
252.96        89.72496
253.42        88.17013
253.88        87.61898
254.33        88.16798
254.79        89.02218
255.25        88.70904
255.70        87.28558
256.16        85.76823
256.62        85.17854
257.07        86.61732
257.53        89.67503
257.99        92.74143
258.44        94.22094
258.90        93.39511
259.35        90.31284
259.81        86.49997
260.27        82.69469
260.72        79.84466
261.18        78.42364
261.63         77.5342
262.09        77.04899
262.55        76.30685
263.00        75.10513
263.46        73.83997
263.91        72.45711
264.37        71.34669
264.83        70.44933
265.28        69.60147
265.74        68.78632
266.19        67.67985
266.65         66.3557
267.11        64.84757
267.56        63.27474
268.02        61.94764
268.47        60.88187
268.93        60.01251
269.38        59.21538
269.84        58.34182
270.30        57.32779
270.75        56.21817
271.21        55.04323
271.66        53.77787
272.12        52.47645
272.57        51.12142
273.03        49.80665
273.48         48.5872
273.94        47.54634
274.39        46.60188
274.85        45.81415
275.31        45.14747
275.76        44.54083
276.22        44.03714
276.67        43.46876
277.13        42.73337
277.58        41.76975
278.04        40.69172
278.49        39.60113
278.95         38.7916
279.40        38.23858
279.86        37.91574
280.31        37.63008
280.77        37.24327
281.22        36.67341
281.68        36.05161
282.13        35.42106
282.59        34.90931
283.04        34.51534
283.50        34.22446
283.95        34.00295
284.41         33.8606
284.86        33.76634
285.32        33.74642
285.77        33.76007
286.22        33.79817
286.68        33.86659
287.13        33.91707
287.59        33.98071
288.04        34.02169
288.50        34.07039
288.95        34.10136
289.41        34.13791
289.86        34.15246
290.32         34.1839
290.77        34.24532
291.22        34.38233
291.68        34.64724
292.13        35.04995
292.59        35.60884
293.04        36.32482
293.50        37.22559
293.95        38.29112
294.40        39.51557
294.86        40.86582
295.31        42.28144
295.77        43.75117
296.22        45.26252
296.68        46.82604
297.13        48.42689
297.58        50.05831
298.04        51.71838
298.49        53.38853
298.95        55.10647
299.40        56.87751
299.85        58.70699
300.31        60.63369
300.76        62.64691
301.21         64.7216
301.67        66.85183
302.12        68.90829
302.58        70.81155
303.03        72.51867
303.48        74.10412
303.94        75.71752
304.39        77.48402
304.84        79.46583
305.30        81.62361
305.75        83.82018
306.20        85.95132
306.66        87.99837
307.11        89.93855
307.57        91.82227
308.02        93.59189
308.47        95.26088
308.93        96.82587
309.38        98.25965
309.83        99.64855
310.29        101.0313
310.74        102.3734
311.19        103.6494
311.65        104.7794
312.10        105.7179
312.55        106.5063
313.00        107.2243
313.46        108.0053
313.91          108.86
314.36        109.7597
314.82        110.6294
315.27        111.3406
315.72        111.8618
316.18        112.2566
316.63        112.5609
317.08        112.8725
317.53        113.2288
317.99         113.597
318.44         113.996
318.89        114.4277
319.35        114.8826
319.80        115.3757
320.25        115.8598
320.70        116.2636
321.16        116.5597
321.61        116.7766
322.06        116.9685
322.51        117.2427
322.97        117.5996
323.42        118.0417
323.87        118.4697
324.32        118.7441
324.78        118.8177
325.23        118.7883
325.68        118.7205
326.13        118.7515
326.59        118.9017
327.04        119.1858
327.49        119.5569
327.94        119.9763
328.39        120.4172
328.85        120.8482
329.30        121.3109
329.75         121.691
330.20         121.965
330.66        122.1118
331.11        122.2402
331.56        122.4056
332.01        122.6463
332.46        122.9505
332.92        123.2597
333.37          123.64
333.82        124.0263
334.27        124.4237
334.72        124.8356
335.17        125.2643
335.63        125.6802
336.08        126.1426
336.53        126.5956
336.98        127.0017
337.43        127.3578
337.88        127.6726
338.34         127.987
338.79        128.4341
339.24        129.0081
339.69        129.6687
340.14        130.3293
340.59        130.8459
341.05        131.1909
341.50        131.4363
341.95        131.6275
342.40        131.8571
342.85        132.1581
343.30        132.4753
343.75        132.8593
344.20        133.3918
344.66        134.0589
345.11        134.8309
345.56        135.5007
346.01        135.7326
346.46        135.4884
346.91        134.8926
347.36        134.2493
347.81        134.0293
348.26        134.3333
348.72        135.0138
349.17        135.8157
349.62        136.3501
350.07        136.4916
350.52        136.3509
350.97        136.0508
351.42        135.7877
351.87        135.6269
352.32        135.4994
352.77        135.3419
353.22        135.0711
353.67        134.6651
354.13        134.1721
354.58        133.6296
355.03        133.1528
355.48         132.755
355.93        132.3934
356.38        131.9683
356.83        131.3245
357.28        130.4441
357.73        129.4068
358.18        128.3172
358.63        127.3305
359.08        126.4982
359.53        125.7739
359.98        125.1397
360.43        124.5663
360.88        124.0178
361.33        123.4851
361.78        122.9114
362.23        122.1984
362.68        121.3234
363.13        120.3284
363.58        119.2564
364.03        118.0986
364.48        117.0323
364.93        115.9536
365.38        114.9195
365.83        113.9436
366.28        113.0299
366.73        112.1759
367.18        111.3818
367.63        110.6424
368.08        109.9491
368.53        109.3013
368.98        108.6595
369.43        107.9624
369.88        107.2021
370.33        106.3941
370.78        105.6007
371.23        104.9297
371.68        104.3964
372.13        103.9523
372.58        103.5308
373.03        103.0252
373.48        102.4013
373.93        101.6976
374.38        100.9225
374.83        100.0869
375.28        99.21316
375.72        98.28673
376.17        97.40676
376.62        96.65659
377.07        96.04955
377.52        95.55049
377.97        95.09344
378.42        94.56993
378.87        93.95486
379.32        93.29478
379.77        92.60772
380.22        91.91492
380.67        91.23331
381.11        90.55777
381.56        89.93807
382.01         89.4733
382.46        89.18182
382.91        89.03453
383.36        88.93739
383.81        88.73879
384.26        88.39528
384.71        87.93891
385.15        87.42181
385.60        86.99415
386.05        86.66768
386.50         86.4034
386.95        86.14426
387.40        85.80717
387.85        85.38909
388.29         84.8904
388.74        84.45574
389.19        84.08852
389.64        83.77905
390.09         83.4677
390.54        83.16273
390.98        82.86498
391.43        82.62595
391.88        82.45263
392.33        82.20453
392.78        81.78864
393.23        81.24711
393.67        80.33935
394.12        79.37946
394.57        79.62973
395.02        79.77867
395.47        79.91191
395.91        79.61423
396.36        79.49469
396.81        79.54686
397.26        79.41534
397.71         79.0955
398.15        78.78513
398.60        78.59766
399.05        78.18382
399.50        77.71006
399.95        77.90779
400.39        78.55624
400.84        78.45679
401.29        77.63327
401.74        76.99355
402.18        76.72118
402.63        76.64598
403.08        76.70279
403.53        76.62912
403.97        76.39058
404.42        76.23945
404.87        76.17879
405.32        76.09864
405.76        75.98641
406.21        75.86077
406.66        75.70903
407.11        75.61725
407.55        75.54035
408.00        75.29439
408.45        74.54106
408.90        74.37831
409.34        74.57246
409.79        74.37179
410.24        73.80388
410.68        73.52604
411.13        73.56573
411.58        73.55871
412.03        73.47647
412.47        73.45331
412.92        73.45527
413.37        73.45687
413.81        73.44867
414.26         73.4782
414.71        73.52712
415.15        73.60693
415.60         73.6658
416.05        73.67611
416.49        73.63544
416.94        73.54497
417.39        73.43795
417.83         73.3598
418.28         73.3158
418.73        73.28264
419.17        73.24885
419.62        73.19827
420.07        73.13728
420.51        73.07967
420.96        73.02477
421.41        72.96069
421.85        72.86755
422.30        72.66306
422.74        72.42302
423.19         72.6685
423.64        73.26379
424.08        73.48285
424.53        73.21473
424.98        73.10957
425.42        73.20483
425.87        72.96421
426.31        72.51262
426.76        72.51697
427.21         72.8839
427.65        72.86152
428.10        72.48029
428.54        72.37353
428.99        72.57925
429.44        72.81331
429.88        72.97716
430.33        72.89855
430.77        72.61722
431.22        72.71962
431.66        73.13099
432.11         73.2459
432.56        73.12675
433.00        73.17548
433.45        73.22726
433.89        73.33788
434.34        73.50639
434.78        72.25452
435.23        72.24322
435.67        72.00112
436.12        73.82132
436.57        73.92175
437.01        73.07706
437.46        72.60945
437.90        73.01214
438.35         74.1987
438.79        73.65596
439.24        73.77583
439.68        73.83383
440.13        73.79214
440.57         73.7088
441.02        73.95248
441.46        74.37291
441.91        74.29914
442.35        73.77611
442.80        73.67519
443.24        73.91609
443.69        73.89593
444.13        73.64487
444.58        73.62195
445.02        73.81403
445.47        74.05934
445.91        74.26968
446.36        74.36714
446.80        74.30295
447.24        74.14632
447.69        74.05092
448.13        73.81447
448.58        74.33338
449.02        74.36024
449.47         74.1838
449.91        74.12595
450.36        74.21194
450.80         74.1899
451.25        74.08231
451.69        74.04175
452.13        74.06613
452.58        74.05502
453.02        73.99979
453.47        73.92867
453.91        73.82652
454.36        73.78281
454.80        73.73398
455.24        73.41877
455.69        72.98541
456.13        72.77307
456.58        72.81161
457.02        72.97266
457.46        73.02753
457.91        72.76242
458.35        72.44255
458.79        72.25796
459.24        72.31003
459.68        72.34311
460.13        72.31979
460.57        72.15537
461.01        72.12611
461.46        71.68343
461.90         71.3595
462.34        71.43536
462.79        71.28704
463.23        71.28923
463.68        71.20412
464.12        71.20715
464.56        71.27676
465.01        71.29735
465.45        71.14812
465.89        71.09356
466.34        71.13833
466.78        70.65691
467.22        69.74841
467.67         70.2771
468.11        70.07964
468.55        70.20202
468.99        69.97708
469.44        69.90744
469.88        69.97535
470.32        69.92521
470.77        69.77966
471.21        69.66657
471.65        69.59504
472.10         69.5415
472.54        69.47197
472.98        69.39072
473.42        69.30595
473.87        69.18571
474.31        69.02797
474.75        69.08329
475.20        69.26166
475.64        69.13885
476.08        68.77763
476.52         68.6912
476.97        68.89616
477.41        69.06296
477.85        69.14682
478.29        69.29276
478.74        68.88407
479.18        68.48631
479.62        69.01357
480.06        69.00249
480.50        68.80453
480.95        68.66141
481.39        68.52734
481.83        68.58795
482.27        68.62113
482.72        68.04145
483.16         68.3858
483.60        68.30198
484.04        68.20158
484.48         68.3273
484.93        68.91385
485.37        68.40254
485.81        68.88255
486.25        69.49276
486.69        70.49272
487.14        69.23009
487.58        68.48095
488.02         68.8348
488.46        68.41644
488.90        69.22932
489.34         68.2903
489.79        67.55417
490.23        67.89847
490.67          67.771
491.11        67.61898
491.55        67.50131
491.99        67.45671
492.43        67.45226
492.88        67.47485
493.32        67.54591
493.76        67.61118
494.20        67.68572
494.64        67.78207
495.08        67.71872
495.52        67.56987
495.96        67.88339
496.41        68.48306
496.85        68.30549
497.29        67.49837
497.73        67.32597
498.17        67.68304
498.61        67.86398
499.05        67.74445
499.49        67.60712
499.93        67.50978
500.37        67.44791
500.82        67.40636
501.26        67.32484
501.70        67.65523
502.14        66.88275
502.58        67.50403
503.02        67.40056
503.46        67.25186
503.90        67.08672
504.34        66.95839
504.78        66.95371
505.22         67.0461
505.66        67.10455
506.10        67.11818
506.54        67.20784
506.98        67.36864
507.42        67.31256
507.86        67.57021
508.30        67.30608
508.74        67.35441
509.18        67.16451
509.62        66.98714
510.06        66.87793
510.50        66.85639
510.94        66.90443
511.38        66.97657
511.82        67.01522
512.26         66.9999
512.70        66.94584
513.14        66.87447
513.58        66.83405
514.02        66.84055
514.46        66.85649
514.90        66.84893
515.34        66.92081
515.78        66.83055
516.22        66.77814
516.66        66.73563
517.10        66.77354
517.54        66.89531
517.98        67.07307
518.42        67.24675
518.86        67.31378
519.30        67.25198
519.74        67.10153
520.18         66.9105
520.62        66.74572
521.06        66.64118
521.50        66.59856
521.93        66.61491
522.37        66.65594
522.81        66.71375
523.25        66.79304
523.69        66.88528
524.13        66.97071
524.57        67.03828
525.01        67.08733
525.45        67.09312
525.89        67.02199
526.32        66.87172
526.76        66.67294
527.20        66.47714
527.64        66.37321
528.08        66.38103
528.52        66.47366
528.96        66.60522
529.40        66.69967
529.83        66.72732
530.27         66.7219
530.71        66.69052
531.15        66.65547
531.59        66.62617
532.03        66.59099
532.46         66.5526
532.90        66.54047
533.34        66.55186
533.78        66.58473
534.22        66.61782
534.66        66.61638
535.09        66.56547
535.53        66.49188
535.97        66.41048
536.41        66.36114
536.85        66.35281
537.28        66.37759
537.72        66.40877
538.16        66.39353
538.60        66.32713
539.04        66.24428
539.47        66.16102
539.91        66.13816
540.35        66.16917
540.79        66.24647
541.22        66.33501
541.66        66.38871
542.10        66.38913
542.54        66.34754
542.97        66.27897
543.41        66.24435
543.85        66.24414
544.29        66.27206
544.72        66.28677
545.16        66.25875
545.60         66.1692
546.04        66.02901
546.47        65.89565
546.91        65.86067
547.35        65.92805
547.79        66.09485
548.22         66.2634
548.66        66.24906
549.10        66.07056
549.53        66.01077
549.97        66.08805
550.41         66.0969
550.84        66.03014
551.28        66.05979
551.72        66.17487
552.15        66.16267
552.59        66.00459
553.03        66.19539
553.46        65.93266
553.90         65.9436
554.34        65.98157
554.77        66.06851
555.21        66.14938
555.65        66.14367
556.08        66.01073
556.52        65.90094
556.96        65.83248
557.39        65.89762
557.83        66.05196
558.27        66.04547
558.70        65.82762
559.14        65.75623
559.57         65.8009
560.01        65.84647
560.45         65.8633
560.88        65.79173
561.32        65.71381
561.75        65.79516
562.19        66.00428
562.63        66.03149
563.06        65.86948
563.50        65.74673
563.93        65.69683
564.37        65.66682
564.80        65.71128
565.24        65.86132
565.68        66.06439
566.11        66.15984
566.55        66.15689
566.98        66.09841
567.42        66.03532
567.85        66.01556
568.29         66.0898
568.72        66.05891
569.16        65.96514
569.60        66.10449
570.03         66.4045
570.47        66.22823
570.90        66.39293
571.34        66.72392
571.77        66.74558
572.21        66.52911
572.64        67.06513
573.08         66.3474
573.51        66.30826
573.95        66.40795
574.38        66.97462
574.82        66.79196
