SpectraSmart Spectrum 2.9.0.0
--------- Device Information -----------
Spectrum Name :  反射率_0
Saving Time :  2024/04/27 23:48:48
Spectro-Module Model Name : SE2030-DUVN
Spectro-Module Serial Number : OS361AC55029948
Wavelength Start : 200
Wavelength End : 1025
Wavelength Unit : Wavelength(nm)
Spectrum Unit : Reflectance(%)
-----------Spectrum Setting ------------
Integration Time : 20ms
Average : 10
Boxcar : 0
Background removal :  enabled
linearity correction :  enabled
SC :  disabled
Intensity correction :  disabled
DWT denoise :  enabled
savitzky-golay :  disabled
FFT :  disabled
Running average :  disabled
Kalman :  disabled
High pass :  disabled
---------------BEGIN--------------------
Wavelength(nm)             Reflectance(%)
200.29               0
200.75       -3.196287
201.21        34.68477
201.67        65.04863
202.13        77.67355
202.58        78.65153
203.04        75.02496
203.50        68.89498
203.96         63.0346
204.42         59.1127
204.88        56.04861
205.34        54.63614
205.80        56.24163
206.26        60.93784
206.72        69.57187
207.18        81.86485
207.64        86.97278
208.10        78.81477
208.55        67.43383
209.01        57.19174
209.47        46.99878
209.93        32.12991
210.39       -1.919173
210.85       -98.14451
211.31       -196.1982
211.77       -44.03928
212.23        46.53181
212.69        75.98089
213.14        82.03876
213.60        75.82537
214.06        57.38454
214.52        23.79446
214.98      -0.5164821
215.44        10.71498
215.90         34.9359
216.36        54.41924
216.81        63.75442
217.27        65.72912
217.73         64.2629
218.19        60.27182
218.65        54.45554
219.11        47.37206
219.57        38.20182
220.02        28.06038
220.48        22.32683
220.94        22.74182
221.40        27.66253
221.86        34.68613
222.32        41.07763
222.77        46.16146
223.23        50.31005
223.69        52.99239
224.15        53.55724
224.61        52.29239
225.06        49.26874
225.52        46.09669
225.98        45.46636
226.44        47.42871
226.90         50.2683
227.36         52.5133
227.81        53.01079
228.27        51.83939
228.73        49.42653
229.19        46.00085
229.65        42.27444
230.10        38.84096
230.56        36.01256
231.02        33.88618
231.48        32.59183
231.93        31.98803
232.39        32.02496
232.85        32.68205
233.31         33.9126
233.77        35.52372
234.22        37.49166
234.68        39.03625
235.14        39.28357
235.60         38.1088
236.05        35.45712
236.51        32.48499
236.97        31.75827
237.43        34.19685
237.88        39.28549
238.34        44.46664
238.80        46.93993
239.26        45.91642
239.71        40.73443
240.17        31.73027
240.63        26.93426
241.08        33.27637
241.54        44.77431
242.00        53.98946
242.46        58.06971
242.91        57.97337
243.37        53.58026
243.83        42.37603
244.28         27.4598
244.74         26.2187
245.20        38.57824
245.66        49.72354
246.11        53.36419
246.57        50.97159
247.03        44.08724
247.48        32.50283
247.94        23.81261
248.40        26.55648
248.85        35.50005
249.31        46.80494
249.77        57.97421
250.22        67.26494
250.68         74.6748
251.14        79.10143
251.59        79.43901
252.05        75.79915
252.51        67.17828
252.96        53.45047
253.42        42.16357
253.88        39.48847
254.33        43.32021
254.79        47.72358
255.25        47.89641
255.70        44.62216
256.16        40.49429
256.62        37.72867
257.07        38.56961
257.53        42.14419
257.99        46.18334
258.44        48.97612
258.90        49.41915
259.35        47.69514
259.81        45.07105
260.27         42.2249
260.72        39.93842
261.18        38.58503
261.63        37.65823
262.09        37.02095
262.55        36.27812
263.00        35.33735
263.46        34.42794
263.91        33.64138
264.37         33.3209
264.83        33.38755
265.28        33.64002
265.74         33.8606
266.19        33.66669
266.65        33.07272
267.11         32.2003
267.56        31.19931
268.02        30.39129
268.47        29.82081
268.93        29.37706
269.38        29.02343
269.84        28.71895
270.30        28.41276
270.75         28.1349
271.21         27.7294
271.66        26.91087
272.12        25.69724
272.57        24.18079
273.03        22.70926
273.48        21.75887
273.94        21.45092
274.39        21.57225
274.85         21.8667
275.31        21.91813
275.76        21.60856
276.22        21.08551
276.67        20.42801
277.13        19.80526
277.58        19.24385
278.04        18.73053
278.49        18.22142
278.95        17.74055
279.40        17.25895
279.86        16.83073
280.31        16.46992
280.77        16.26591
281.22        16.18984
281.68        16.22835
282.13        16.27175
282.59        16.18476
283.04        15.94453
283.50        15.58735
283.95        15.22034
284.41        15.02719
284.86        15.02584
285.32        15.15616
285.77        15.27715
286.22         15.1979
286.68        14.90595
287.13        14.45854
287.59        14.00181
288.04        13.69808
288.50        13.60876
288.95        13.65574
289.41        13.77179
289.86        13.83025
290.32        13.80818
290.77        13.74819
291.22        13.68718
291.68        13.67594
292.13        13.72413
292.59        13.80971
293.04        13.92767
293.50        14.09172
293.95         14.2922
294.40        14.54191
294.86        14.80726
295.31        15.02635
295.77         15.2028
296.22        15.34939
296.68        15.54389
297.13         15.8896
297.58        16.40614
298.04        17.04283
298.49        17.71931
298.95        18.31473
299.40         18.8039
299.85        19.22258
300.31        19.63708
300.76        20.11533
301.21        20.68782
301.67        21.33227
302.12        22.00146
302.58         22.6489
303.03        23.25931
303.48        23.85623
303.94        24.50597
304.39        25.26873
304.84        26.16386
305.30        27.17235
305.75        28.20466
306.20        29.15408
306.66         30.0171
307.11        30.80907
307.57        31.63814
308.02        32.60741
308.47        33.74509
308.93        34.99986
309.38        36.27324
309.83        37.45332
310.29        38.53245
310.74        39.54269
311.19        40.54544
311.65        41.62232
312.10        42.76522
312.55        43.93652
313.00        45.11742
313.46         46.2953
313.91        47.45786
314.36        48.62336
314.82        49.74933
315.27        50.75573
315.72         51.6343
316.18        52.41607
316.63        53.18474
317.08        54.10518
317.53        55.21193
317.99        56.45079
318.44        57.72336
318.89        58.84614
319.35        59.76527
319.80        60.53366
320.25        61.22453
320.70        61.96814
321.16        62.79113
321.61        63.65547
322.06        64.50982
322.51        65.28229
322.97        65.94161
323.42        66.54495
323.87        67.09527
324.32        67.60452
324.78        68.07883
325.23        68.53775
325.68        69.00648
326.13        69.54535
326.59        70.14474
327.04        70.82182
327.49        71.51777
327.94        72.15747
328.39        72.72044
328.85        73.20808
329.30        73.67832
329.75        74.13629
330.20        74.59023
330.66         75.0025
331.11        75.43442
331.56        75.90292
332.01        76.42194
332.46        76.99679
332.92        77.55702
333.37        78.07487
333.82        78.49717
334.27        78.83772
334.72        79.16794
335.17        79.61047
335.63        80.17748
336.08        80.87829
336.53         81.5954
336.98        82.16666
337.43        82.54966
337.88        82.78307
338.34        82.97485
338.79        83.34178
339.24        83.91744
339.69        84.64129
340.14        85.36874
340.59        85.86333
341.05        86.08223
341.50        86.13017
341.95        86.14966
342.40        86.37594
342.85        86.86988
343.30        87.53589
343.75         88.3021
344.20        89.05457
344.66        89.73323
345.11         90.3616
345.56        90.86835
346.01        91.13737
346.46        91.17184
346.91         91.0155
347.36         90.8276
347.81        90.85882
348.26        91.16944
348.72        91.69981
349.17         92.3186
349.62        92.81974
350.07        93.13186
350.52        93.29962
350.97        93.39948
351.42        93.55284
351.87        93.78962
352.32        94.07175
352.77        94.30142
353.22        94.34148
353.67        94.17289
354.13         93.8496
354.58        93.49856
355.03        93.37912
355.48        93.52599
355.93         93.8488
356.38        94.12671
356.83        94.01499
357.28        93.45509
357.73         92.5848
358.18        91.61894
358.63        90.88585
359.08        90.48074
359.53        90.30438
359.98        90.25439
360.43        90.17061
360.88        89.98415
361.33        89.72987
361.78        89.42031
362.23        89.07471
362.68        88.70353
363.13        88.29089
363.58        87.80141
364.03         87.2509
364.48        86.55889
364.93        85.82652
365.38        85.14057
365.83        84.67595
366.28         84.4525
366.73        84.41243
367.18        84.39592
367.63        84.14062
368.08        83.58759
368.53        82.81938
368.98        81.97737
369.43        81.29449
369.88        80.83931
370.33        80.53946
370.78        80.31744
371.23        80.04736
371.68        79.68199
372.13        79.26293
372.58        78.81264
373.03        78.36137
373.48        77.92734
373.93        77.50149
374.38         77.0791
374.83        76.65857
375.28        76.24078
375.72        75.81155
376.17        75.42903
376.62        75.11673
377.07        74.87031
377.52        74.66659
377.97        74.45075
378.42        74.13919
378.87        73.72238
379.32        73.24355
379.77         72.7486
380.22        72.30234
380.67        71.92838
381.11        71.61105
381.56        71.36085
382.01        71.20226
382.46        71.12884
382.91        71.12694
383.36        71.13499
383.81        71.05632
384.26        70.86687
384.71        70.58898
385.15        70.25692
385.60        69.98427
386.05        69.78268
386.50        69.63107
386.95          69.505
387.40        69.36716
387.85        69.21136
388.29        69.01449
388.74        68.87029
389.19        68.75099
389.64        68.64706
390.09        68.53156
390.54        68.40217
390.98        68.24397
391.43         68.1006
391.88        67.97606
392.33        67.81326
392.78        67.61777
393.23        67.42365
393.67        67.01134
394.12        66.54234
394.57        66.90117
395.02        66.98488
395.47        66.98594
395.91        66.64192
396.36        66.54076
396.81        66.70417
397.26        66.81809
397.71         66.8259
398.15        66.75317
398.60        66.65927
399.05        66.43212
399.50        66.18853
399.95        66.17375
400.39        66.35621
400.84        66.52664
401.29        66.57696
401.74        66.24439
402.18        65.66603
402.63        65.46865
403.08        65.65464
403.53        65.62348
403.97        65.36964
404.42        65.30386
404.87         65.4025
405.32        65.48929
405.76        65.53939
406.21        65.47089
406.66        65.32738
407.11        65.47006
407.55        65.77219
408.00        65.55762
408.45        64.91489
408.90        64.34524
409.34        64.07249
409.79        64.39339
410.24        65.10912
410.68        65.47249
411.13        65.38916
411.58         65.3006
412.03        65.29292
412.47        65.31448
412.92        65.36986
413.37        65.47803
413.81        65.58479
414.26        65.66422
414.71        65.69525
415.15        65.72043
415.60        65.73011
416.05        65.75978
416.49        65.82542
416.94        65.89828
417.39        66.00468
417.83        66.18493
418.28        66.43102
418.73        66.71884
419.17        66.97902
419.62        67.10278
420.07        67.07462
420.51        66.93271
420.96        66.76185
421.41        66.65567
421.85        66.62225
422.30         66.6423
422.74        66.69331
423.19        66.94019
423.64        67.31837
424.08        67.62601
424.53        67.75591
424.98        67.86979
425.42        67.98122
425.87        67.91913
426.31        67.75921
426.76        67.77995
427.21        67.96333
427.65         68.0574
428.10        68.06969
428.54        68.17676
428.99        68.40814
429.44        68.80029
429.88        69.19439
430.33        69.08423
430.77        68.60316
431.22        68.62632
431.66        69.13108
432.11        69.53375
432.56        69.83115
433.00        70.12667
433.45        70.19353
433.89        70.42201
434.34        70.87402
434.78         69.4367
435.23        69.51746
435.67        69.67298
436.12        70.86997
436.57        71.18759
437.01        70.83498
437.46        70.63248
437.90        71.01047
438.35        72.15782
438.79        71.68236
439.24        71.85503
439.68        71.99722
440.13        72.06134
440.57        72.07751
441.02        72.42646
441.46        72.90027
441.91        72.66616
442.35        71.99161
442.80        71.75428
443.24        72.90919
443.69        73.21181
444.13        72.92361
444.58        72.95729
445.02        73.29602
445.47        73.45058
445.91        73.40451
446.36        73.45097
446.80        73.59033
447.24        73.68201
447.69         73.7503
448.13        73.98644
448.58        74.30383
449.02        74.27298
449.47        73.99319
449.91        73.94342
450.36        74.17427
450.80        74.39528
451.25        74.55452
451.69        74.67284
452.13        74.71491
452.58        74.61133
453.02        74.42981
453.47        74.31136
453.91        74.26709
454.36        74.39976
454.80        74.57673
455.24        74.29782
455.69        73.66499
456.13        73.45805
456.58        73.17661
457.02        73.20836
457.46        74.12701
457.91        73.85765
458.35        73.09668
458.79        72.72883
459.24        72.88037
459.68        72.89269
460.13        72.77261
460.57        72.56554
461.01        72.60934
461.46        72.76431
461.90        72.43482
462.34        72.93507
462.79        72.73154
463.23        72.80142
463.68        72.76295
464.12        72.64848
464.56        72.53524
465.01        72.74783
465.45        73.04417
465.89        73.00322
466.34        72.74088
466.78        72.35179
467.22         71.8279
467.67         72.7379
468.11         72.0052
468.55         71.9977
468.99        71.83487
469.44        71.78863
469.88        71.84565
470.32        71.87963
470.77        71.89348
471.21        71.90004
471.65        71.89376
472.10        71.88255
472.54        71.81777
472.98        71.72121
473.42        71.61427
473.87        71.36143
474.31        71.03447
474.75        71.22327
475.20        71.75841
475.64        71.67047
476.08        71.05868
476.52        70.92689
476.97        71.30421
477.41        71.31754
477.85        71.71598
478.29        71.40651
478.74        71.62487
479.18        71.16446
479.62        71.46049
480.06        71.38844
480.50        71.31284
480.95        71.18533
481.39        70.94347
481.83        71.32906
482.27        71.20043
482.72         71.0951
483.16        71.37498
483.60        71.39305
484.04        71.34793
484.48        71.21838
484.93        71.21397
485.37        71.14243
485.81        71.73303
486.25        71.56731
486.69        71.46828
487.14        70.73888
487.58        71.06517
488.02         71.6892
488.46        71.66145
488.90         71.9222
489.34        71.33965
489.79        70.35278
490.23        71.17037
490.67        71.16138
491.11         71.0257
491.55        70.98087
491.99        71.05041
492.43        71.11482
492.88        71.13516
493.32        71.13577
493.76        71.09319
494.20        71.10123
494.64        71.18681
495.08        71.15373
495.52        71.06125
495.96        71.38808
496.41        71.97242
496.85        71.89021
497.29        71.24103
497.73        71.13167
498.17        71.46231
498.61        71.58398
499.05        71.40345
499.49        71.38677
499.93        71.52866
500.37        71.36439
500.82        70.93742
501.26        70.95798
501.70          71.558
502.14         70.8502
502.58        71.38737
503.02        71.41711
503.46         71.3815
503.90        71.43159
504.34        71.46135
504.78        71.34391
505.22        71.11282
505.66        70.99806
506.10        71.01894
506.54        71.11913
506.98        71.28719
507.42        71.19836
507.86        71.39505
508.30        71.41444
508.74        71.41411
509.18        71.34263
509.62        71.23405
510.06        71.16836
510.50        71.15725
510.94        71.18128
511.38          71.217
511.82        71.22817
512.26        71.20572
512.70        71.16911
513.14        71.14164
513.58        71.13084
514.02        71.13802
514.46        71.20316
514.90        71.32755
515.34        71.25438
515.78        71.38916
516.22        71.42155
516.66        71.45901
517.10        71.45367
517.54        71.40514
517.98        71.32348
518.42        71.23445
518.86        71.18316
519.30         71.1804
519.74        71.23123
520.18        71.30225
520.62        71.30729
521.06        71.25256
521.50        71.22538
521.93        71.25052
522.37        71.29452
522.81        71.36348
523.25        71.46883
523.69        71.59011
524.13        71.68044
524.57        71.72669
525.01        71.74601
525.45        71.72294
525.89        71.63266
526.32        71.47769
526.76        71.28547
527.20        71.10909
527.64        71.04182
528.08        71.09916
528.52        71.24731
528.96        71.42838
529.40        71.54836
529.83         71.5724
530.27         71.5414
530.71        71.46485
531.15        71.37087
531.59        71.27483
532.03        71.16567
532.46        71.06152
532.90        71.01608
533.34        71.03111
533.78        71.10074
534.22        71.18224
534.66        71.20538
535.09        71.14902
535.53        71.05321
535.97        70.95518
536.41        70.92997
536.85        70.98777
537.28        71.11642
537.72        71.27229
538.16        71.32936
538.60        71.25986
539.04        71.29546
539.47        71.12761
539.91        71.07817
540.35        71.05057
540.79        71.05148
541.22        71.05833
541.66        71.05075
542.10        71.02448
542.54        70.98814
542.97        70.95342
543.41        70.97811
543.85        71.05168
544.29         71.1531
544.72         71.2415
545.16        71.29407
545.60        71.28909
546.04        71.23499
546.47        71.14312
546.91        71.06763
547.35        71.01833
547.79        70.92562
548.22         70.7912
548.66        70.79924
549.10        70.88956
549.53        70.82578
549.97        70.66054
550.41        70.65452
550.84        70.79511
551.28        71.01472
551.72         71.2813
552.15        71.32331
552.59        71.08248
553.03        71.64767
553.46        71.15839
553.90        71.20027
554.34        71.21835
554.77        71.24713
555.21        71.26274
555.65        71.20968
556.08        71.21243
556.52        71.07669
556.96        70.88844
557.39        70.84669
557.83        70.95433
558.27        70.99597
558.70        70.96229
559.14        70.96656
559.57        71.01808
560.01        71.15269
560.45        71.30501
560.88        71.38591
561.32        71.42093
561.75        71.26423
562.19        71.03751
562.63        71.14888
563.06        71.50723
563.50        71.48513
563.93          71.118
564.37        71.07908
564.80        71.31847
565.24        71.37881
565.68        71.24668
566.11        71.18723
566.55         71.2303
566.98        71.21709
567.42        71.16283
567.85        71.14314
568.29        71.21156
568.72        71.13291
569.16         70.9277
569.60        71.14828
570.03        71.44025
570.47        71.17186
570.90        71.07092
571.34        71.92899
571.77        71.39838
572.21        71.36629
572.64        71.47534
573.08        71.12094
573.51        70.96082
573.95        71.11987
574.38         71.6349
574.82        71.23463
