SpectraSmart Spectrum 2.9.0.0
--------- Device Information -----------
Spectrum Name :  反射率_0
Saving Time :  2024/04/28 00:02:15
Spectro-Module Model Name : SE2030-DUVN
Spectro-Module Serial Number : OS361AC55029948
Wavelength Start : 200
Wavelength End : 1025
Wavelength Unit : Wavelength(nm)
Spectrum Unit : Reflectance(%)
-----------Spectrum Setting ------------
Integration Time : 20ms
Average : 10
Boxcar : 0
Background removal :  enabled
linearity correction :  enabled
SC :  disabled
Intensity correction :  disabled
DWT denoise :  enabled
savitzky-golay :  disabled
FFT :  disabled
Running average :  disabled
Kalman :  disabled
High pass :  disabled
---------------BEGIN--------------------
Wavelength(nm)             Reflectance(%)
200.29               0
200.75        101.6688
201.21         105.438
201.67         105.067
202.13        98.73138
202.58        87.98241
203.04        75.42031
203.50         65.1641
203.96        63.66583
204.42        70.16102
204.88        79.98565
205.34        89.23186
205.80        95.17684
206.26        97.86201
206.72        98.17007
207.18        95.13905
207.64        88.56685
208.10        82.48978
208.55        79.52444
209.01        77.27612
209.47        73.33393
209.93        65.22423
210.39        44.93318
210.85       -13.68456
211.31       -74.21129
211.77        17.99635
212.23        72.87273
212.69         89.7769
213.14        91.09386
213.60        82.57741
214.06        62.72948
214.52        28.50448
214.98         4.57283
215.44        17.07394
215.90          42.956
216.36        63.58519
216.81         73.3173
217.27        75.36944
217.73        73.71154
218.19        70.07848
218.65        66.63912
219.11        64.42113
219.57        62.60172
220.02         61.0136
220.48          60.871
220.94        61.99614
221.40        64.05707
221.86         66.8798
222.32        70.22849
222.77        73.62213
223.23        76.65453
223.69        78.46427
224.15        78.06234
224.61        75.53825
225.06        71.18172
225.52        66.28467
225.98        63.32303
226.44        62.95891
226.90        63.89538
227.36        65.00633
227.81        65.30786
228.27          64.774
228.73         63.7025
229.19        61.99716
229.65         59.6262
230.10        56.82023
230.56        53.98051
231.02        51.63394
231.48        50.56578
231.93        50.69635
232.39        51.77636
232.85         53.2579
233.31        54.41362
233.77        55.06497
234.22        55.52209
234.68         55.6889
235.14        55.53194
235.60        55.10653
236.05        54.25412
236.51         53.5812
236.97        54.33938
237.43        56.81176
237.88          60.721
238.34        64.46326
238.80        66.61978
239.26        66.91891
239.71         65.2775
240.17        61.74015
240.63        59.87625
241.08        62.78374
241.54        67.66995
242.00        71.82233
242.46        74.50345
242.91        76.52869
243.37        78.73802
243.83        82.28715
244.28        87.43236
244.74        89.63046
245.20        87.33534
245.66        83.59683
246.11        79.82112
246.57         75.2071
247.03        68.48847
247.48         60.0924
247.94        57.40797
248.40        66.14317
248.85         80.7677
249.31        94.41275
249.77        101.9751
250.22        104.1931
250.68        103.6068
251.14        101.9303
251.59        100.6009
252.05        99.82233
252.51        98.73392
252.96        96.82243
253.42        94.55274
253.88        92.62596
254.33        91.72304
254.79        91.33252
255.25        89.82394
255.70        87.12514
256.16        84.26607
256.62        82.23413
257.07        82.21249
257.53         83.9005
257.99         85.7405
258.44         86.2605
258.90        84.74071
259.35        81.24178
259.81        77.22646
260.27        73.32059
260.72        70.35367
261.18        68.76116
261.63        67.69852
262.09        67.17268
262.55        66.75134
263.00        66.19179
263.46        65.75064
263.91        65.09408
264.37        64.18311
264.83        62.97114
265.28        61.49943
265.74        60.07105
266.19        58.81517
266.65         57.8265
267.11        56.97124
267.56        56.10521
268.02        55.12436
268.47         53.9536
268.93        52.67542
269.38         51.3599
269.84         50.1438
270.30        49.05948
270.75         48.0741
271.21        47.12218
271.66        46.04797
272.12        44.85746
272.57        43.56867
273.03        42.34967
273.48        41.36353
273.94        40.69004
274.39        40.20857
274.85        39.81194
275.31        39.25699
275.76        38.47871
276.22        37.59292
276.67        36.66997
277.13        35.92283
277.58        35.33046
278.04        34.87757
278.49        34.41727
278.95        33.86543
279.40          33.153
279.86        32.39355
280.31         31.6385
280.77        31.08521
281.22         30.7169
281.68        30.51819
282.13        30.35817
282.59        30.11535
283.04        29.74319
283.50        29.30272
283.95        28.87192
284.41        28.61259
284.86        28.53451
285.32        28.60612
285.77        28.69972
286.22        28.67578
286.68        28.52523
287.13        28.25912
287.59        28.01468
288.04        27.91987
288.50        28.02426
288.95        28.24172
289.41        28.47441
289.86        28.52637
290.32        28.39389
290.77        28.14874
291.22        27.91967
291.68        27.88649
292.13        28.09087
292.59        28.50078
293.04        29.06146
293.50        29.71083
293.95        30.41438
294.40        31.20943
294.86        32.10497
295.31        33.10149
295.77        34.20787
296.22        35.39323
296.68        36.66613
297.13        38.01474
297.58        39.42528
298.04        40.89082
298.49        42.37273
298.95        43.85808
299.40        45.35093
299.85        46.87311
300.31        48.48895
300.76         50.2367
301.21        52.11528
301.67        54.10896
302.12        56.10955
302.58        58.04274
303.03        59.86932
303.48        61.64984
303.94        63.50016
304.39        65.50883
304.84        67.72404
305.30         70.1179
305.75        72.57986
306.20        75.03035
306.66        77.46333
307.11        79.86007
307.57        82.26815
308.02        84.63451
308.47        86.96172
308.93        89.23155
309.38        91.41928
309.83        93.61214
310.29        95.84404
310.74        98.07549
311.19        100.2385
311.65        102.1862
312.10        103.8486
312.55        105.2699
313.00        106.5832
313.46        108.0128
313.91        109.5945
314.36        111.2851
314.82        112.9298
315.27        114.2691
315.72        115.2413
316.18        115.9366
316.63        116.5146
317.08        117.2718
317.53        118.2762
317.99        119.4304
318.44        120.5686
318.89        121.3936
319.35        121.8396
319.80        122.0291
320.25        122.1274
320.70         122.404
321.16        122.9221
321.61        123.6083
322.06        124.3668
322.51        125.0564
322.97         125.598
323.42        126.0794
323.87        126.4667
324.32        126.7275
324.78        126.8529
325.23        126.8924
325.68        126.9078
326.13        127.0453
326.59        127.3169
327.04        127.7549
327.49         128.268
327.94        128.7359
328.39        129.1214
328.85        129.4144
329.30        129.7405
329.75        130.1192
330.20        130.5632
330.66        131.0063
331.11        131.4893
331.56        131.9456
332.01        132.3746
332.46        132.7978
332.92         133.171
333.37        133.6044
333.82        134.0443
334.27        134.4709
334.72        134.9091
335.17        135.4049
335.63        135.9285
336.08        136.5385
336.53          137.12
336.98        137.5331
337.43        137.7605
337.88        137.8548
338.34        137.9286
338.79          138.24
339.24        138.8173
339.69        139.5759
340.14         140.405
340.59        141.1193
341.05        141.6571
341.50         142.096
341.95        142.4244
342.40        142.6428
342.85        142.7849
343.30        142.8399
343.75        142.9467
344.20        143.3359
344.66        144.0338
345.11        144.9541
345.56        145.8683
346.01        146.3976
346.46        146.4633
346.91        146.1983
347.36        145.8043
347.81        145.5978
348.26        145.6658
348.72        145.9003
349.17        146.2193
349.62         146.521
350.07        146.7441
350.52        146.9283
350.97        147.0092
351.42        146.8748
351.87        146.5247
352.32        145.9946
352.77        145.4082
353.22        144.9682
353.67        144.7151
354.13        144.5947
354.58        144.4847
355.03        144.2531
355.48        143.8422
355.93         143.286
356.38        142.5957
356.83        141.7869
357.28        140.8852
357.73         139.909
358.18        138.8877
358.63        137.8626
359.08        136.8676
359.53        135.9189
359.98        135.0568
360.43        134.3368
360.88        133.7451
361.33        133.2268
361.78        132.7228
362.23        132.1291
362.68        131.3997
363.13         130.588
363.58        129.6482
364.03        128.3848
364.48        127.0382
364.93        125.4874
365.38         123.964
365.83        122.7232
366.28        121.8198
366.73        121.1798
367.18        120.6496
367.63         119.974
368.08        119.0802
368.53        118.0444
368.98        116.9488
369.43        115.9299
369.88        115.0318
370.33        114.1992
370.78        113.4111
371.23        112.6424
371.68        111.8756
372.13        111.1282
372.58        110.3792
373.03        109.5889
373.48        108.7552
373.93         107.888
374.38         107.026
374.83        106.2311
375.28        105.5135
375.72        104.8353
376.17        104.1968
376.62        103.5196
377.07        102.7916
377.52        102.0346
377.97        101.2848
378.42        100.5999
378.87        99.99694
379.32        99.46143
379.77        98.96208
380.22         98.4476
380.67        97.89864
381.11        97.32667
381.56         96.7541
382.01        96.23346
382.46        95.78519
382.91        95.40308
383.36        95.04076
383.81        94.62269
384.26         94.1357
384.71        93.60265
385.15        93.07942
385.60        92.71716
386.05        92.51057
386.50        92.40436
386.95        92.30164
387.40        92.06044
387.85        91.65376
388.29        91.08654
388.74        90.52463
389.19        89.98227
389.64        89.47405
390.09        88.97174
390.54        88.48981
390.98        88.03586
391.43        87.66844
391.88        87.37936
392.33        87.10835
392.78        86.81279
393.23        86.50803
393.67        86.08915
394.12        85.65137
394.57        85.77361
395.02        85.20492
395.47        85.15762
395.91        85.21427
396.36        85.13218
396.81        84.90595
397.26        84.72434
397.71        84.54659
398.15         84.2608
398.60        83.97186
399.05        83.39577
399.50        82.76055
399.95        82.90352
400.39        83.59074
400.84         83.5475
401.29        82.74273
401.74         81.9452
402.18        81.39468
402.63        81.23194
403.08        81.37722
403.53         81.2541
403.97        80.83427
404.42         80.5878
404.87        80.52483
405.32        80.46654
405.76        80.38505
406.21        80.25288
406.66        80.11851
407.11        80.16514
407.55        80.29704
408.00        80.35618
408.45        80.03812
408.90        79.33024
409.34        78.45396
409.79        78.47536
410.24        79.21843
410.68        79.46117
411.13        79.11969
411.58        78.92552
412.03        78.93318
412.47        78.89502
412.92        78.79471
413.37        78.71438
413.81         78.6459
414.26        78.63966
414.71        78.67886
415.15        78.76958
415.60        78.84547
416.05        78.86716
416.49        78.82784
416.94        78.72449
417.39        78.61252
417.83        78.57648
418.28         78.6254
418.73        78.71914
419.17        78.81019
419.62        78.82599
420.07        78.75979
420.51        78.64161
420.96        78.50323
421.41        78.38358
421.85        78.27072
422.30        78.06054
422.74        77.81419
423.19        78.04803
423.64        78.62098
424.08        78.80725
424.53        78.48594
424.98        78.34153
425.42        78.42303
425.87        78.09029
426.31        77.54615
426.76        77.76714
427.21        78.59941
427.65         78.8112
428.10        78.36972
428.54          78.271
428.99        78.57027
429.44        78.65662
429.88        78.49974
430.33        78.48486
430.77        78.51541
431.22        78.40163
431.66        78.22717
432.11        78.37287
432.56        78.85647
433.00        79.26938
433.45        79.30924
433.89        79.19375
434.34        79.06278
434.78        78.20246
435.23         78.1285
435.67        78.46631
436.12        78.82905
436.57        78.92813
437.01        78.45986
437.46        79.34383
437.90        79.14401
438.35        79.15302
438.79        79.31332
439.24        79.29456
439.68        79.32617
440.13        79.47161
440.57        79.70677
441.02        79.93071
441.46         80.0372
441.91        79.86361
442.35        79.46677
442.80        79.51526
443.24        79.89368
443.69        79.94556
444.13        79.68219
444.58        79.67128
445.02        79.89707
445.47        80.08452
445.91        80.17889
446.36        80.28342
446.80        80.37195
447.24        80.35217
447.69        80.28702
448.13        80.39017
448.58        80.67034
449.02        80.57276
449.47        80.21523
449.91        80.09721
450.36        80.26978
450.80        80.42402
451.25        80.52522
451.69        80.62856
452.13        80.69574
452.58        80.63445
453.02         80.4774
453.47        80.32051
453.91        80.17576
454.36         80.1452
454.80         80.1105
455.24        79.68823
455.69        79.03262
456.13        78.52913
456.58        78.40278
457.02        78.45922
457.46        79.39931
457.91         79.2877
458.35        78.74367
458.79        78.45672
459.24        78.54955
459.68         78.4052
460.13        78.07098
460.57        77.73073
461.01        77.78687
461.46        77.56097
461.90        77.42114
462.34        77.70688
462.79        77.38201
463.23        77.50884
463.68        77.66562
464.12        77.50568
464.56        77.11672
465.01        77.01671
465.45        77.11514
465.89        77.16593
466.34        77.12666
466.78        76.83711
467.22        76.43876
467.67        76.30965
468.11        76.60839
468.55        76.58114
468.99        76.29762
469.44        76.21257
469.88        76.33694
470.32        76.41006
470.77        76.37688
471.21        76.28751
471.65        76.13126
472.10        75.92342
472.54        75.69486
472.98        75.55207
473.42        75.51915
473.87        75.51614
474.31        75.48819
474.75        75.62463
475.20        75.83656
475.64        75.67532
476.08        75.25955
476.52        75.09785
476.97        75.27096
477.41        74.94698
477.85        74.87265
478.29        74.97691
478.74         75.2254
479.18        74.46499
479.62        74.57504
480.06         74.3959
480.50        74.49907
480.95        74.66188
481.39        74.76974
481.83        74.80758
482.27        75.03484
482.72         74.4594
483.16         74.6851
483.60        74.53672
484.04        74.45648
484.48        74.41672
484.93        74.59457
485.37        74.59956
485.81        75.09025
486.25        75.44937
486.69        75.67894
487.14        75.04606
487.58        74.27434
488.02        75.15166
488.46        75.00752
488.90         75.1125
489.34        74.80883
489.79        73.69595
490.23        74.29235
490.67        74.00865
491.11        73.64639
491.55         73.5693
491.99        73.74895
492.43        73.81199
492.88        73.69949
493.32        73.61361
493.76         73.5756
494.20        73.62443
494.64        73.77724
495.08        73.91543
495.52        74.00922
495.96        74.21645
496.41        74.42072
496.85        74.17472
497.29        73.58262
497.73        73.32534
498.17        73.34241
498.61        73.43433
499.05        73.50371
499.49        73.63396
499.93        73.77344
500.37        73.75717
500.82        73.60356
501.26        73.58476
501.70        73.74334
502.14         73.5055
502.58        73.58197
503.02        73.61919
503.46        73.52116
503.90        73.49606
504.34        73.45801
504.78        73.44788
505.22        73.40924
505.66        73.30762
506.10        73.24132
506.54        73.15142
506.98        72.98384
507.42        73.73026
507.86        73.77853
508.30         73.4949
508.74         73.7812
509.18        73.58201
509.62         73.3596
510.06        73.18879
510.50         73.1261
510.94        73.11328
511.38        73.12065
511.82        73.13419
512.26        73.13741
512.70        73.14661
513.14        73.16213
513.58        73.15163
514.02        73.11037
514.46        73.09132
514.90        73.12157
515.34        72.98894
515.78        73.11926
516.22        73.16398
516.66        73.23158
517.10        73.28436
517.54        73.31348
517.98        73.31713
518.42        73.29692
518.86        73.26781
519.30         73.2343
519.74        73.19789
520.18        73.15002
520.62        73.07603
521.06        72.98015
521.50         72.8728
521.93        72.78982
522.37        72.77209
522.81        72.83061
523.25        72.94341
523.69         73.0694
524.13        73.14475
524.57        73.15128
525.01        73.10734
525.45        73.03253
525.89        72.95941
526.32        72.89835
526.76        72.85626
527.20        72.83178
527.64        72.84036
528.08        72.88051
528.52        72.92029
528.96        72.95844
529.40        73.04414
529.83        73.13756
530.27         73.1343
530.71         73.0294
531.15        72.93249
531.59        72.85449
532.03        72.73074
532.46        72.59268
532.90        72.54681
533.34        72.59623
533.78         72.7086
534.22        72.82815
534.66        72.86736
535.09         72.7999
535.53        72.68047
535.97        72.53508
536.41        72.42231
536.85        72.36373
537.28        72.34248
537.72        72.36225
538.16        72.41835
538.60        72.50339
539.04         72.6318
539.47         72.7484
539.91        72.80975
540.35         72.7879
540.79        72.70861
541.22        72.60119
541.66        72.52567
542.10        72.49623
542.54        72.49821
542.97        72.50253
543.41        72.50462
543.85        72.48173
544.29        72.44431
544.72         72.3889
545.16        72.33192
545.60        72.26215
546.04        72.21368
546.47        72.17953
546.91        72.07217
547.35         71.9352
547.79        71.96897
548.22        72.10727
548.66        72.14584
549.10        72.05527
549.53        71.95721
549.97        71.89953
550.41         71.9173
550.84        72.02121
551.28        72.16653
551.72        72.32556
552.15        72.46331
552.59        72.52155
553.03        72.48838
553.46        72.35871
553.90        71.98447
554.34        72.07967
554.77        72.13925
555.21        72.40661
555.65        71.82123
556.08        72.10088
556.52        71.95422
556.96        71.88794
557.39        71.79897
557.83        71.74745
558.27        71.82123
558.70        71.94924
559.14        71.99511
559.57        71.93109
560.01        71.80537
560.45        71.65926
560.88         71.6953
561.32        71.90661
561.75        71.83393
562.19        71.56363
562.63        71.63162
563.06        71.94246
563.50        71.85849
563.93        71.44639
564.37         71.2921
564.80        71.51202
565.24        71.74489
565.68        71.94073
566.11         72.0712
566.55        72.13448
566.98        72.12281
567.42        72.07617
567.85        72.01292
568.29        71.99908
568.72        71.90199
569.16        71.79498
569.60        71.86272
570.03        72.11755
570.47        71.94368
570.90        72.24247
571.34        72.26855
571.77        72.57991
572.21        72.09103
572.64        72.42858
573.08        72.03726
573.51        71.79475
573.95        71.92885
574.38        72.41692
574.82        72.30228
