SpectraSmart Spectrum 2.9.0.0
--------- Device Information -----------
Spectrum Name :  反射率_0
Saving Time :  2024/04/28 00:06:15
Spectro-Module Model Name : SE2030-DUVN
Spectro-Module Serial Number : OS361AC55029948
Wavelength Start : 200
Wavelength End : 1025
Wavelength Unit : Wavelength(nm)
Spectrum Unit : Reflectance(%)
-----------Spectrum Setting ------------
Integration Time : 20ms
Average : 10
Boxcar : 0
Background removal :  enabled
linearity correction :  enabled
SC :  disabled
Intensity correction :  disabled
DWT denoise :  enabled
savitzky-golay :  disabled
FFT :  disabled
Running average :  disabled
Kalman :  disabled
High pass :  disabled
---------------BEGIN--------------------
Wavelength(nm)             Reflectance(%)
200.29               0
200.75        9.069617
201.21        37.10224
201.67        60.71807
202.13          69.366
202.58        67.94283
203.04        62.24121
203.50        56.94431
203.96        58.05562
204.42        65.11137
204.88        74.15254
205.34        82.13368
205.80         87.1076
206.26         89.1683
206.72        88.78419
207.18        85.30102
207.64        79.67419
208.10        75.41795
208.55         73.9104
209.01        71.83999
209.47        66.11315
209.93        53.31279
210.39        21.41726
210.85       -75.71561
211.31        -204.832
211.77       -73.52895
212.23        19.83888
212.69          53.667
213.14        63.65797
213.60        62.19971
214.06        52.47177
214.52        32.88337
214.98        17.40124
215.44        22.30004
215.90        34.53698
216.36        45.04034
216.81        51.41246
217.27        54.72446
217.73        57.20475
218.19         58.2836
218.65         56.2015
219.11        50.75834
219.57        42.08158
220.02        32.19731
220.48        28.13338
220.94        31.71814
221.40        39.67825
221.86        48.80758
222.32        56.02757
222.77        60.73689
223.23        63.84944
223.69        64.83366
224.15        62.80889
224.61        58.04991
225.06        50.61496
225.52        42.94173
225.98        39.82922
226.44        41.76312
226.90        45.94185
227.36        49.59288
227.81         50.4757
228.27        48.65219
228.73        44.91777
229.19        39.86107
229.65        35.00797
230.10        31.30162
230.56         28.7285
231.02        27.16624
231.48        26.45472
231.93        26.35014
232.39        26.94695
232.85        28.10476
233.31         29.5677
233.77        31.17883
234.22        32.97916
234.68        34.50032
235.14        35.36607
235.60        35.56595
236.05        35.01332
236.51        34.54178
236.97        35.71371
237.43        38.89148
237.88         43.6599
238.34        48.10487
238.80        50.46804
239.26        50.32756
239.71         47.1928
240.17        41.16238
240.63        37.38756
241.08         40.7587
241.54        47.80604
242.00        53.50436
242.46        55.47616
242.91        54.03901
243.37        48.35849
243.83        36.13778
244.28        23.26827
244.74        29.58197
245.20        50.32429
245.66         65.7628
246.11        70.66698
246.57        68.02096
247.03        58.15597
247.48        41.76955
247.94         32.8241
248.40        43.71383
248.85        65.40943
249.31        85.60465
249.77        94.91266
250.22        94.94073
250.68        90.63756
251.14        85.49248
251.59        81.97981
252.05        80.03693
252.51        78.20796
252.96        74.64674
253.42        67.86473
253.88        59.68437
254.33        53.80934
254.79        51.21725
255.25        50.60944
255.70        51.03105
256.16        52.33022
256.62        54.36882
257.07        57.03372
257.53        59.95617
257.99        62.36294
258.44        63.46755
258.90        63.00249
259.35        61.00598
259.81        58.37741
260.27        55.58737
260.72         53.2455
261.18        51.74088
261.63        50.59747
262.09        49.67552
262.55        48.45149
263.00        46.84327
263.46        45.16269
263.91        43.61231
264.37        42.76806
264.83        42.56068
265.28        42.69756
265.74        42.84561
266.19        42.42296
266.65        41.42341
267.11        40.01185
267.56        38.44186
268.02         37.2007
268.47        36.37885
268.93        35.84657
269.38        35.44386
269.84        34.94616
270.30        34.27606
270.75        33.51222
271.21        32.71365
271.66        31.91514
272.12        31.15993
272.57        30.40235
273.03        29.66111
273.48        28.90469
273.94        28.18434
274.39        27.48492
274.85        26.88407
275.31        26.42337
275.76        26.07003
276.22        25.80109
276.67        25.50807
277.13        25.11531
277.58        24.57166
278.04        23.96071
278.49        23.27991
278.95        22.61566
279.40         21.9661
279.86        21.37792
280.31        20.87113
280.77        20.56709
281.22        20.44113
281.68        20.48444
282.13        20.59767
282.59         20.6681
283.04        20.65914
283.50        20.60055
283.95        20.53904
284.41        20.57487
284.86        20.70696
285.32        20.90711
285.77        21.09214
286.22        21.17229
286.68        21.15274
287.13         21.0464
287.59        20.94927
288.04        20.93829
288.50        21.05491
288.95        21.23844
289.41        21.45681
289.86        21.62217
290.32        21.73489
290.77        21.83152
291.22        21.94103
291.68        22.09582
292.13        22.31857
292.59        22.62948
293.04        23.07126
293.50        23.72901
293.95        24.60565
294.40        25.68518
294.86        26.91388
295.31        28.19674
295.77         29.5115
296.22        30.86251
296.68        32.27372
297.13        33.75515
297.58        35.30676
298.04         36.9114
298.49        38.55106
298.95        40.24434
299.40        42.00417
299.85         43.8469
300.31        45.81165
300.76        47.88954
301.21        50.06063
301.67         52.3116
302.12        54.54747
302.58        56.71822
303.03        58.78316
303.48        60.77917
303.94        62.80157
304.39        64.91195
304.84        67.15356
305.30         69.5154
305.75        71.88463
306.20        74.17931
306.66        76.39532
307.11        78.50423
307.57        80.59623
308.02        82.68639
308.47        84.78468
308.93        86.86346
309.38        88.80646
309.83        90.55251
310.29        92.12065
310.74        93.52448
311.19        94.84566
311.65        96.18141
312.10        97.51715
312.55        98.82079
313.00        100.0697
313.46         101.241
313.91        102.3106
314.36        103.3141
314.82         104.216
315.27        104.9497
315.72        105.5144
316.18        105.9432
316.63        106.3229
317.08        106.8341
317.53        107.5127
317.99        108.3034
318.44        109.0974
318.89         109.685
319.35        110.0171
319.80         110.174
320.25        110.2589
320.70        110.4474
321.16        110.7798
321.61        111.2145
322.06           111.7
322.51        112.1641
322.97         112.556
323.42        112.9404
323.87         113.278
324.32        113.5232
324.78        113.6599
325.23        113.7377
325.68        113.8048
326.13        113.9792
326.59        114.2636
327.04        114.6788
327.49        115.1471
327.94        115.5731
328.39         115.925
328.85        116.1934
329.30        116.4688
329.75         116.734
330.20        116.9993
330.66        117.2223
331.11        117.4861
331.56        117.8036
332.01        118.1889
332.46        118.6362
332.92        119.0664
333.37        119.5034
333.82        119.8763
334.27        120.1981
334.72        120.4969
335.17        120.8234
335.63        121.1696
336.08        121.5847
336.53        122.0256
336.98        122.4683
337.43        122.9061
337.88        123.3462
338.34        123.7921
338.79         124.308
339.24        124.8768
339.69        125.4799
340.14         126.073
340.59        126.5868
341.05        127.0113
341.50        127.3843
341.95        127.7353
342.40        128.1309
342.85        128.5885
343.30        129.0682
343.75        129.5807
344.20        130.1412
344.66        130.7382
345.11         131.369
345.56         131.921
346.01        132.2088
346.46        132.2208
346.91        132.0262
347.36        131.8313
347.81        131.9578
348.26        132.4583
348.72        133.2157
349.17        134.0193
349.62        134.5544
350.07        134.7213
350.52        134.6162
350.97        134.3282
351.42        134.0023
351.87        133.7081
352.32        133.4125
352.77        133.1317
353.22        132.8971
353.67        132.7022
354.13         132.549
354.58        132.3855
355.03         132.182
355.48        131.9088
355.93        131.5641
356.38        131.0951
356.83        130.4263
357.28        129.5674
357.73        128.5696
358.18        127.5381
358.63        126.6308
359.08        125.8965
359.53        125.3005
359.98        124.7981
360.43        124.3114
360.88        123.7978
361.33        123.2585
361.78         122.688
362.23        122.0699
362.68        121.3989
363.13        120.6964
363.58        119.9343
364.03        118.9895
364.48        118.0163
364.93        116.9239
365.38        115.8579
365.83        114.9702
366.28        114.2873
366.73        113.7662
367.18        113.2733
367.63        112.5932
368.08         111.679
368.53        110.5961
368.98        109.4798
369.43        108.5504
369.88        107.8617
370.33        107.3416
370.78         106.875
371.23        106.2762
371.68         105.492
372.13        104.5842
372.58         103.635
373.03        102.7776
373.48        102.0565
373.93         101.429
374.38        100.8513
374.83        100.2524
375.28        99.61138
375.72         98.9427
376.17        98.29923
376.62        97.68625
377.07        97.10831
377.52        96.53846
377.97        95.98997
378.42        95.49197
378.87        95.03975
379.32        94.62991
379.77        94.19401
380.22        93.61993
380.67        92.89546
381.11        92.06506
381.56          91.233
382.01        90.58765
382.46        90.18366
382.91        89.96874
383.36        89.84374
383.81        89.64746
384.26        89.32895
384.71        88.93044
385.15        88.48778
385.60        88.11927
386.05         87.8307
386.50        87.58748
386.95        87.34882
387.40        87.06379
387.85        86.72784
388.29        86.31516
388.74        85.96015
389.19        85.65118
389.64        85.37485
390.09        85.08687
390.54        84.77338
390.98        84.39955
391.43        84.02957
391.88        83.68902
392.33        83.30972
392.78        82.91458
393.23        82.55097
393.67        81.89226
394.12        81.16823
394.57        81.61787
395.02        81.83598
395.47          81.777
395.91        81.11567
396.36        80.79937
396.81        80.86812
397.26        80.81081
397.71        80.56802
398.15        80.27621
398.60        80.02338
399.05        79.56419
399.50        79.06878
399.95         79.0779
400.39        79.45184
400.84        79.44236
401.29          79.005
401.74        78.42077
402.18        77.89601
402.63        77.84727
403.08        78.18749
403.53        78.19248
403.97        77.82192
404.42        77.58172
404.87        77.48985
405.32        77.39446
405.76         77.2858
406.21        77.10223
406.66        76.90752
407.11        77.00603
407.55        77.26481
408.00        77.31127
408.45        76.71403
408.90        76.11223
409.34        75.57543
409.79        75.51826
410.24        75.81726
410.68           75.85
411.13        75.57325
411.58        75.38189
412.03        75.34895
412.47        75.40607
412.92        75.53194
413.37        75.74986
413.81        75.95753
414.26        76.06528
414.71        76.03568
415.15        75.91887
415.60        75.74718
416.05         75.6521
416.49        75.67699
416.94        75.76595
417.39         75.8956
417.83        76.02605
418.28        76.12923
418.73        76.20776
419.17        76.24544
419.62        76.21652
420.07        76.14103
420.51        76.03781
420.96        75.93887
421.41        75.90462
421.85         75.9191
422.30        75.82006
422.74        75.67953
423.19        76.11998
423.64        76.96322
424.08        77.26517
424.53        76.87631
424.98        76.66699
425.42         76.7039
425.87        76.18053
426.31        75.38197
426.76        75.60368
427.21        76.64954
427.65        76.90601
428.10        76.35623
428.54        76.27299
428.99         76.6937
429.44        76.96255
429.88        76.98138
430.33        76.80041
430.77        76.49406
431.22        76.51888
431.66         76.8624
432.11        77.22405
432.56        77.56208
433.00        77.78907
433.45        77.67181
433.89        77.59856
434.34        77.73931
434.78        76.66802
435.23          76.775
435.67           77.35
436.12        78.34042
436.57        78.45224
437.01        77.78929
437.46        77.35757
437.90        77.63868
438.35         78.8185
438.79        78.26997
439.24        78.41116
439.68        78.47784
440.13        78.53887
440.57        78.57761
441.02        78.73136
441.46        78.92075
441.91        78.72945
442.35        78.25746
442.80        78.42151
443.24        79.06308
443.69         79.2127
444.13        78.87715
444.58        78.87307
445.02        79.18215
445.47        79.40581
445.91        79.49493
446.36        79.56877
446.80        79.59475
447.24        79.72853
447.69        79.58349
448.13        79.74096
448.58        80.00803
449.02        79.98976
449.47        79.75218
449.91        79.69392
450.36        79.86047
450.80         79.9922
451.25        80.06941
451.69        80.14864
452.13        80.19925
452.58        80.12956
453.02        79.97086
453.47         79.8186
453.91        79.68568
454.36        79.66663
454.80        79.62957
455.24        79.24285
455.69        78.66373
456.13        78.14947
456.58        77.89604
457.02        78.28903
457.46        78.90569
457.91        78.96472
458.35        78.12042
458.79        77.85589
459.24        78.08678
459.68        78.14767
460.13        78.01973
460.57         77.7314
461.01        77.65881
461.46         77.3093
461.90        77.01073
462.34        76.96536
462.79        77.17196
463.23        77.24744
463.68        77.13316
464.12        76.91796
464.56        76.69142
465.01        76.71091
465.45        76.82928
465.89        76.89991
466.34        76.86113
466.78        76.74976
467.22        75.62779
467.67        76.29817
468.11        76.06514
468.55        76.14426
468.99        75.81334
469.44        75.66035
469.88        75.68616
470.32         75.5955
470.77        75.42251
471.21        75.30756
471.65        75.26769
472.10        75.29436
472.54        75.29818
472.98        75.24814
473.42        75.15149
473.87         74.8385
474.31        74.43566
474.75        74.72479
475.20        75.49774
475.64        75.50477
476.08        74.78791
476.52        74.58972
476.97        74.97825
477.41        74.69766
477.85        74.54823
478.29        74.60735
478.74        74.83772
479.18         73.9987
479.62        74.71934
480.06        74.65359
480.50        74.56809
480.95        74.71516
481.39        74.80724
481.83        74.56902
482.27        74.73295
482.72        74.35494
483.16        74.39004
483.60        74.23917
484.04        74.07573
484.48        74.05776
484.93        74.39285
485.37        74.13137
485.81        74.57025
486.25        75.43947
486.69        75.50455
487.14         74.9849
487.58        74.55881
488.02        74.68265
488.46        74.47221
488.90         74.6371
489.34        74.26704
489.79        73.60245
490.23        74.05178
490.67        73.86978
491.11        73.57895
491.55        73.49461
491.99        73.62933
492.43        73.70613
492.88        73.69059
493.32        73.76302
493.76         73.8745
494.20        73.93298
494.64        73.93861
495.08        73.85459
495.52        73.74731
495.96        73.83855
496.41        74.06329
496.85        74.11319
497.29        73.96325
497.73        73.84896
498.17        73.70327
498.61        73.84519
499.05        74.11522
499.49        73.91261
499.93         73.3611
500.37         73.1728
500.82        73.34207
501.26        73.49279
501.70        73.65415
502.14        73.24422
502.58        73.66766
503.02        73.75765
503.46        73.61666
503.90        73.48466
504.34        73.31871
504.78        73.25471
505.22        73.27942
505.66        73.22325
506.10        73.13774
506.54        73.22564
506.98        73.44149
507.42        73.56371
507.86        73.88559
508.30        73.42672
508.74        73.77842
509.18        73.63287
509.62        73.46738
510.06        73.33096
510.50        73.25108
510.94        73.19601
511.38        73.15096
511.82        73.13007
512.26        73.12614
512.70        73.14719
513.14        73.18644
513.58        73.19873
514.02        73.17563
514.46          73.177
514.90        73.22758
515.34        73.11111
515.78        73.25105
516.22        73.29046
516.66        73.34902
517.10        73.40797
517.54        73.46043
517.98        73.50497
518.42        73.50858
518.86        73.43021
519.30        73.27112
519.74        73.05398
520.18        72.83865
520.62        72.71604
521.06        72.70894
521.50        72.79367
521.93        72.92812
522.37         73.0257
522.81          73.063
523.25        73.05468
523.69        73.02327
524.13        73.00545
524.57        73.01147
525.01        73.03036
525.45        73.03538
525.89        72.98834
526.32         72.8801
526.76        72.73952
527.20        72.61239
527.64        72.57699
528.08        72.64456
528.52        72.78609
528.96        72.93681
529.40        72.99506
529.83        72.93212
530.27        72.79613
530.71        72.63156
531.15        72.51926
531.59        72.48367
532.03        72.49903
532.46        72.53783
532.90        72.57963
533.34        72.60487
533.78        72.62283
534.22        72.63172
534.66        72.62624
535.09        72.59829
535.53        72.56913
535.97        72.52921
536.41        72.48425
536.85        72.43797
537.28        72.39149
537.72        72.35893
538.16        72.35424
538.60        72.38576
539.04        72.45057
539.47        72.46861
539.91        72.51751
540.35        72.60119
540.79        72.43172
541.22        71.96371
541.66        72.65947
542.10         72.1644
542.54        72.21645
542.97        72.13562
543.41        72.14508
543.85        72.21865
544.29        72.30292
544.72        72.37114
545.16        72.37199
545.60        72.28428
546.04        72.16827
546.47        72.05715
546.91        71.91107
547.35        71.79575
547.79         71.9307
548.22        72.21396
548.66        72.33219
549.10        72.25049
549.53        72.18678
549.97        72.18191
550.41        72.17835
550.84        72.18911
551.28        72.25031
551.72        72.32516
552.15         72.3326
552.59        72.28074
553.03        72.18027
553.46        72.06791
553.90        72.05371
554.34        72.13239
554.77        72.28139
555.21        72.43089
555.65        72.47742
556.08        72.31779
556.52        72.17266
556.96        72.05215
557.39        71.97826
557.83        71.97169
558.27        71.97476
558.70        71.97343
559.14        71.96561
559.57        71.93172
560.01        71.96131
560.45        72.01324
560.88        71.91621
561.32        71.77997
561.75        71.77765
562.19         71.9136
562.63        72.08069
563.06        72.18745
563.50        71.99421
563.93        71.60056
564.37          71.556
564.80        71.82513
565.24        72.00571
565.68        72.03109
566.11        72.08584
566.55        72.18491
566.98        72.12727
567.42         71.9892
567.85         72.0628
568.29        72.32224
568.72        72.26254
569.16        71.98995
569.60        72.02057
570.03        72.35276
570.47        72.49786
570.90        72.46063
571.34        73.01558
571.77        72.72047
572.21        72.67305
572.64        72.65691
573.08        72.55987
573.51        72.05441
573.95        72.21104
574.38        72.75432
574.82         72.5771
