SpectraSmart Spectrum 2.9.0.0
--------- Device Information -----------
Spectrum Name :  反射率_0
Saving Time :  2024/04/27 23:43:47
Spectro-Module Model Name : SE2030-DUVN
Spectro-Module Serial Number : OS361AC55029948
Wavelength Start : 200
Wavelength End : 1025
Wavelength Unit : Wavelength(nm)
Spectrum Unit : Reflectance(%)
-----------Spectrum Setting ------------
Integration Time : 20ms
Average : 10
Boxcar : 0
Background removal :  enabled
linearity correction :  enabled
SC :  disabled
Intensity correction :  disabled
DWT denoise :  enabled
savitzky-golay :  disabled
FFT :  disabled
Running average :  disabled
Kalman :  disabled
High pass :  disabled
---------------BEGIN--------------------
Wavelength(nm)             Reflectance(%)
200.29               0
200.75        74.63972
201.21        75.34473
201.67        72.85551
202.13        71.06603
202.58        70.02958
203.04        69.33056
203.50        69.07648
203.96        69.61621
204.42        70.82351
204.88        72.44939
205.34        74.26203
205.80         76.3658
206.26        78.85938
206.72        81.77795
207.18        84.71946
207.64        84.38682
208.10        79.95104
208.55        75.66994
209.01        71.10067
209.47         64.1248
209.93        51.10774
210.39        19.43473
210.85       -74.37939
211.31       -187.0454
211.77        -51.1866
212.23        38.23713
212.69        69.20687
213.14        77.17165
213.60        73.49738
214.06        59.61247
214.52        33.02283
214.98        12.04665
215.44         18.2898
215.90        35.31331
216.36        49.24417
216.81        55.42912
217.27        55.79042
217.73        53.54847
218.19        49.84422
218.65        45.92651
219.11        42.55669
219.57        39.16344
220.02         35.9873
220.48        35.39011
220.94        37.45432
221.40        41.13419
221.86        45.65351
222.32        50.28723
222.77        54.55084
223.23        58.17635
223.69        60.32964
224.15        59.98371
224.61         57.3107
225.06        52.62322
225.52        47.51838
225.98        44.95579
226.44        45.47398
226.90        47.38132
227.36        49.21352
227.81        49.80825
228.27        49.08873
228.73        47.39161
229.19        44.73182
229.65        41.35434
230.10        37.68792
230.56         34.2525
231.02        31.30759
231.48        29.18711
231.93         27.9348
232.39        27.54611
232.85        28.21281
233.31        30.18233
233.77        33.17674
234.22        36.89619
234.68        40.38585
235.14        42.60907
235.60        43.44137
236.05        43.07078
236.51        42.27308
236.97        42.61989
237.43        44.68604
237.88        48.12785
238.34         51.6956
238.80        54.56054
239.26        56.78893
239.71        58.88528
240.17         61.6576
240.63        65.94048
241.08        70.38996
241.54        72.92514
242.00        73.82973
242.46        74.18686
242.91        74.55936
243.37          74.707
243.83        75.50291
244.28         80.0687
244.74        88.48997
245.20        95.33846
245.66        97.44344
246.11         96.2643
246.57        92.61408
247.03        84.78706
247.48        72.09612
247.94        61.63145
248.40         62.3831
248.85        71.34046
249.31        82.14783
249.77        88.90916
250.22        91.44172
250.68        91.96084
251.14        91.73029
251.59         91.8459
252.05        92.63242
252.51        93.52688
252.96        93.70332
253.42         92.1431
253.88        88.83897
254.33        85.54522
254.79        83.42554
255.25        81.75522
255.70        80.17445
256.16        79.24295
256.62        79.15399
257.07        80.21216
257.53         82.2457
257.99        84.11159
258.44        84.92871
258.90        84.54329
259.35        82.72725
259.81        80.42541
260.27        77.77997
260.72         75.0477
261.18        72.81133
261.63        70.71341
262.09        68.98769
262.55        67.36885
263.00        65.73042
263.46        64.28246
263.91        62.99788
264.37        62.26414
264.83        61.95073
265.28        61.83363
265.74        61.71253
266.19        61.07166
266.65        59.94514
267.11        58.42693
267.56        56.71877
268.02        55.26077
268.47          54.122
268.93        53.21422
269.38        52.39239
269.84        51.46673
270.30        50.37418
270.75        49.18585
271.21        47.98667
271.66         46.8318
272.12        45.76953
272.57        44.74005
273.03        43.73409
273.48        42.65874
273.94        41.57141
274.39        40.46554
274.85        39.47595
275.31        38.69006
275.76        38.08198
276.22         37.6377
276.67        37.20312
277.13        36.67285
277.58        35.97771
278.04        35.22988
278.49        34.45188
278.95        33.80261
279.40        33.25627
279.86        32.81941
280.31        32.43788
280.77        32.16508
281.22        31.93925
281.68        31.79838
282.13        31.63801
282.59        31.37214
283.04        30.97251
283.50        30.49407
283.95        30.02735
284.41         29.7603
284.86        29.70934
285.32        29.84378
285.77        30.03299
286.22        30.12974
286.68        30.12203
287.13         30.0216
287.59        29.95226
288.04        30.02091
288.50         30.2703
288.95        30.60676
289.41        30.95659
289.86        31.15809
290.32        31.21423
290.77        31.19222
291.22        31.17624
291.68        31.27586
292.13        31.53332
292.59        31.95318
293.04         32.5651
293.50        33.43962
293.95        34.56028
294.40        35.90971
294.86        37.41084
295.31         38.9287
295.77        40.43184
296.22        41.92705
296.68         43.4454
297.13        45.01341
297.58        46.63431
298.04        48.28196
298.49        49.94502
298.95        51.66801
299.40        53.45827
299.85        55.33462
300.31        57.29698
300.76        59.26881
301.21        61.22777
301.67        63.19324
302.12        65.13095
302.58        67.09814
303.03         69.0619
303.48        71.02789
303.94        73.03185
304.39        75.03269
304.84        77.05461
305.30         79.1187
305.75        81.14677
306.20        83.12325
306.66        85.06037
307.11        86.90197
307.57        88.71425
308.02        90.46997
308.47        92.17542
308.93        93.82563
309.38        95.32817
309.83        96.65762
310.29        97.84374
310.74         98.8961
311.19        99.87937
311.65        100.8635
312.10        101.8368
312.55        102.7824
313.00        103.7165
313.46         104.674
313.91        105.6288
314.36        106.5813
314.82        107.4468
315.27        108.0803
315.72        108.4645
316.18        108.6746
316.63        108.8039
317.08        109.0444
317.53        109.4535
317.99         109.969
318.44        110.5684
318.89        111.1811
319.35        111.7646
319.80        112.3464
320.25        112.8649
320.70        113.2311
321.16         113.421
321.61        113.4656
322.06        113.4588
322.51        113.5756
322.97        113.8415
323.42        114.2564
323.87        114.6937
324.32        114.9595
324.78        114.9925
325.23        114.8984
325.68        114.7837
326.13        114.8543
326.59        115.1357
327.04        115.6093
327.49        116.1518
327.94        116.6007
328.39        116.9065
328.85        117.0913
329.30        117.2714
329.75        117.4703
330.20         117.718
330.66        117.9535
331.11        118.2777
331.56        118.7349
332.01         119.333
332.46        120.0543
332.92        120.7469
333.37        121.3106
333.82        121.6386
334.27        121.7714
334.72        121.8185
335.17        121.9722
335.63        122.2708
336.08        122.7374
336.53         123.272
336.98        123.7491
337.43        124.1363
337.88        124.4766
338.34        124.8324
338.79        125.3618
339.24        126.0633
339.69        126.8718
340.14         127.672
340.59        128.2886
341.05        128.6771
341.50        128.9067
341.95        129.0479
342.40        129.2304
342.85        129.5037
343.30        129.8269
343.75        130.2047
344.20        130.6418
344.66        131.1262
345.11        131.6564
345.56         132.157
346.01        132.4978
346.46        132.6574
346.91        132.6718
347.36        132.6486
347.81        132.7596
348.26        133.0404
348.72         133.438
349.17        133.8471
349.62        134.1244
350.07        134.2206
350.52        134.1746
350.97        134.0448
351.42        133.9225
351.87        133.8392
352.32        133.7762
352.77        133.6814
353.22         133.479
353.67        133.1532
354.13        132.7311
354.58        132.2727
355.03        131.9383
355.48        131.7404
355.93        131.6212
356.38        131.4197
356.83         130.884
357.28        129.9836
357.73        128.8331
358.18        127.6131
358.63        126.5983
359.08        125.8667
359.53        125.3334
359.98        124.9239
360.43         124.517
360.88        124.0534
361.33        123.5607
361.78         123.005
362.23        122.3241
362.68        121.5071
363.13          120.57
363.58        119.5744
364.03        118.5437
364.48        117.6538
364.93        116.7932
365.38        115.9454
365.83        115.0057
366.28        113.9615
366.73        112.8438
367.18        111.7669
367.63        110.9105
368.08        110.3074
368.53        109.9069
368.98        109.5425
369.43        108.9457
369.88        108.0575
370.33        106.9525
370.78        105.8218
371.23        104.9824
371.68        104.5028
372.13         104.273
372.58        104.0989
373.03        103.6667
373.48        102.8974
373.93        101.9078
374.38        100.8376
374.83        99.89895
375.28         99.1594
375.72        98.52749
376.17        98.00243
376.62        97.51524
377.07        97.03468
377.52        96.57354
377.97        96.08859
378.42        95.56079
378.87        94.99548
379.32        94.30663
379.77        93.50571
380.22        93.12114
380.67         92.3494
381.11        91.83183
381.56        91.32677
382.01        90.86495
382.46        90.44871
382.91        90.09881
383.36        89.78732
383.81        89.44196
384.26         89.0497
384.71         88.6172
385.15        88.18992
385.60        87.90565
386.05        87.75521
386.50         87.6917
386.95        87.60857
387.40        87.34985
387.85        86.89391
388.29        86.25207
388.74        85.62305
389.19        85.08415
389.64        84.64858
390.09        84.25811
390.54         83.8809
390.98        83.45277
391.43        83.03445
391.88         82.6618
392.33        82.29159
392.78        81.99075
393.23        81.79697
393.67        81.31892
394.12        80.73765
394.57        81.30053
395.02        81.56328
395.47        81.33173
395.91        80.35207
396.36        79.85027
396.81        79.90186
397.26        79.85189
397.71        79.64376
398.15         79.4455
398.60        79.32841
399.05        79.08543
399.50        78.78215
399.95         78.7524
400.39        78.88912
400.84        78.57739
401.29        77.90865
401.74         77.4453
402.18        77.31804
402.63        77.44461
403.08        77.69589
403.53        77.71413
403.97        77.44458
404.42        77.12901
404.87        76.83237
405.32        76.60339
405.76        76.45314
406.21        76.30197
406.66        76.17034
407.11        76.16813
407.55        76.22533
408.00        76.22231
408.45        76.09692
408.90        75.41597
409.34         74.4737
409.79        74.45634
410.24        75.20069
410.68        75.44228
411.13        75.09647
411.58        74.90421
412.03        74.92687
412.47        74.92206
412.92        74.86964
413.37        74.85035
413.81         74.8102
414.26        74.72826
414.71        74.58183
415.15        74.39422
415.60        74.18251
416.05        74.05154
416.49        74.03231
416.94        74.08325
417.39         74.1618
417.83        74.19644
418.28        74.15926
418.73        74.05837
419.17        73.93014
419.62        73.83916
420.07        73.81416
420.51        73.83454
420.96        73.86542
421.41        73.85946
421.85        73.78289
422.30         73.5349
422.74        73.21749
423.19        73.45621
423.64        74.09734
424.08        74.25097
424.53        73.81905
424.98        73.66016
425.42        73.84009
425.87        73.60654
426.31        73.09047
426.76        73.38149
427.21        74.30929
427.65        74.25523
428.10         73.2274
428.54          73.623
428.99        73.40475
429.44        73.72028
429.88         73.8301
430.33        73.55613
430.77        73.01721
431.22        73.12928
431.66        73.79018
432.11        73.96286
432.56        73.69691
433.00        73.79566
433.45        74.07328
433.89        74.14108
434.34        74.26742
434.78        73.01904
435.23        73.12215
435.67        73.37156
436.12        74.37329
436.57        74.46679
437.01         73.8027
437.46        73.59742
437.90        74.43563
438.35        74.38292
438.79         74.7432
439.24         74.6534
439.68        74.51947
440.13        74.29082
440.57        74.10155
441.02        74.29381
441.46        74.72386
441.91        74.88793
442.35        74.70313
442.80        74.75274
443.24        74.96482
443.69        74.93849
444.13        74.71753
444.58        74.66293
445.02        74.76994
445.47          74.939
445.91        75.09756
446.36        75.17847
446.80         75.1397
447.24        75.11852
447.69        74.90606
448.13        75.01283
448.58        75.29995
449.02        75.34927
449.47        75.19228
449.91        75.18259
450.36        75.34577
450.80        75.42868
451.25        75.44371
451.69        75.49664
452.13        75.57661
452.58         75.5968
453.02        75.52333
453.47        75.37633
453.91        75.15807
454.36        74.88327
454.80        74.56347
455.24         74.2969
455.69        74.14596
456.13        73.86497
456.58         73.5609
457.02        73.74269
457.46        74.13673
457.91        73.95987
458.35        73.50058
458.79        73.18301
459.24        73.12264
459.68        72.97736
460.13        72.80208
460.57        72.52068
461.01        72.47655
461.46        72.44083
461.90        72.33367
462.34        72.35409
462.79        72.75702
463.23         72.6427
463.68        72.19064
464.12        71.85098
464.56        71.75848
465.01        71.94305
465.45        72.13363
465.89        72.17504
466.34        72.06672
466.78        71.39474
467.22        70.34793
467.67        71.03699
468.11        71.12974
468.55        71.26166
468.99        70.77323
469.44        70.66614
469.88         70.9363
470.32        71.03369
470.77        70.92704
471.21        70.80035
471.65        70.65775
472.10        70.46925
472.54        70.24454
472.98        70.07512
473.42        69.99008
473.87        69.88511
474.31        69.75577
474.75        69.95249
475.20        70.30626
475.64        70.17487
476.08        69.69167
476.52         69.4751
476.97        69.49973
477.41         69.9179
477.85        70.14423
478.29        69.59018
478.74        69.64916
479.18        69.33366
479.62        69.43092
480.06         69.3737
480.50        69.26004
480.95        69.24718
481.39        69.26626
481.83        69.50137
482.27        68.96818
482.72        69.57235
483.16        69.21777
483.60        69.18214
484.04        69.33456
484.48        69.29394
484.93        69.28801
485.37        69.52614
485.81        69.44089
486.25        69.70379
486.69        70.10992
487.14        69.26617
487.58        69.20249
488.02        69.31287
488.46        69.01508
488.90        69.30605
489.34        68.99706
489.79        68.10882
490.23        68.72984
490.67        68.64756
491.11        68.54636
491.55        68.45435
491.99        68.39615
492.43        68.33865
492.88        68.25576
493.32        68.16952
493.76        68.08331
494.20        68.07383
494.64        68.15012
495.08        68.24261
495.52         68.3518
495.96        68.56251
496.41        68.71394
496.85        68.86022
497.29        67.97348
497.73        67.94756
498.17        68.36922
498.61         68.5107
499.05        68.28761
499.49        68.06466
499.93        67.96914
500.37        68.01237
500.82        68.10802
501.26        68.23952
501.70        68.47524
502.14        67.59296
502.58        68.07037
503.02        68.03013
503.46        67.91607
503.90        67.91724
504.34        67.94331
504.78        67.98215
505.22        67.98188
505.66        67.84963
506.10        67.63101
506.54        67.57249
506.98        67.70988
507.42        67.64181
507.86        67.86295
508.30        67.89761
508.74        67.88814
509.18        67.83416
509.62        67.76677
510.06        67.72607
510.50        67.71937
510.94        67.73624
511.38        67.76082
511.82        67.76929
512.26        67.75314
512.70        67.72459
513.14        67.69241
513.58        67.64304
514.02          67.577
514.46        67.54387
514.90        67.55874
515.34        67.40694
515.78        67.47842
516.22        67.45696
516.66        67.45912
517.10         67.4746
517.54        67.50123
517.98        67.53238
518.42        67.54803
518.86        67.52812
519.30        67.46924
519.74        67.37995
520.18        67.28357
520.62        67.21516
521.06        67.18697
521.50        67.19526
521.93         67.2275
522.37        67.24752
522.81        67.25143
523.25        67.24172
523.69        67.23789
524.13        67.27216
524.57        67.34367
525.01        67.43453
525.45        67.50483
525.89        67.49393
526.32        67.38973
526.76        67.23352
527.20          67.062
527.64        66.95123
528.08        66.92466
528.52        66.92807
528.96        66.95835
529.40        67.08163
529.83        67.24188
530.27        67.28773
530.71        67.21722
531.15        67.17783
531.59        67.17555
532.03        67.11852
532.46        67.01369
532.90         66.9416
533.34        66.90751
533.78        66.89571
534.22        66.89407
534.66         66.8817
535.09        66.84364
535.53        66.80534
535.97        66.76514
536.41        66.73351
536.85        66.71434
537.28        66.70936
537.72        66.70749
538.16        66.68382
538.60        66.64001
539.04        66.59142
539.47        66.53367
539.91         66.5528
540.35        66.64581
540.79        66.70535
541.22         66.6583
541.66         66.9325
542.10        66.66135
542.54        66.54964
542.97          66.394
543.41        66.33102
543.85        66.36279
544.29        66.46662
544.72        66.58041
545.16        66.61989
545.60        66.55434
546.04        66.41177
546.47        66.24172
546.91         66.1439
547.35        66.13535
547.79        66.16106
548.22        66.17474
548.66        66.19962
549.10        66.20223
549.53        66.15615
549.97        66.09389
550.41        66.09297
550.84        66.16103
551.28        66.25821
551.72        66.35161
552.15        66.39359
552.59        66.38635
553.03        66.33731
553.46        66.26456
553.90        66.19282
554.34        66.11259
554.77        66.10783
555.21         66.2076
555.65         65.9157
556.08        66.18482
556.52        65.98578
556.96        65.70992
557.39        65.67834
557.83        65.83889
558.27        66.17493
558.70        65.87985
559.14        65.80284
559.57         65.7428
560.01        65.79957
560.45        65.91293
560.88        65.86513
561.32        65.74419
561.75        65.69994
562.19        65.77059
562.63        65.94174
563.06        66.12016
563.50        66.01192
563.93        65.67508
564.37        65.58609
564.80         65.7321
565.24        65.83115
565.68        65.84946
566.11        65.90726
566.55         66.0187
566.98         66.0722
567.42         66.0755
567.85        66.12513
568.29        66.24594
568.72        66.10799
569.16        65.78362
569.60        65.97174
570.03        66.10104
570.47         65.9374
570.90        66.12081
571.34        66.32704
571.77         66.5341
572.21        66.16506
572.64        66.52853
573.08        66.24361
573.51         65.9777
573.95        66.15559
574.38        66.52859
574.82        66.71483
