SpectraSmart Spectrum 2.9.0.0
--------- Device Information -----------
Spectrum Name :  反射率_0
Saving Time :  2024/04/27 23:39:18
Spectro-Module Model Name : SE2030-DUVN
Spectro-Module Serial Number : OS361AC55029948
Wavelength Start : 200
Wavelength End : 1025
Wavelength Unit : Wavelength(nm)
Spectrum Unit : Reflectance(%)
-----------Spectrum Setting ------------
Integration Time : 20ms
Average : 10
Boxcar : 0
Background removal :  enabled
linearity correction :  enabled
SC :  disabled
Intensity correction :  disabled
DWT denoise :  enabled
savitzky-golay :  disabled
FFT :  disabled
Running average :  disabled
Kalman :  disabled
High pass :  disabled
---------------BEGIN--------------------
Wavelength(nm)             Reflectance(%)
200.29               0
200.75        64.81108
201.21        75.49796
201.67         83.4884
202.13        84.95848
202.58        81.80999
203.04        76.16035
203.50         71.8297
203.96        74.10757
204.42        81.87569
204.88        91.64537
205.34        99.35124
205.80        101.3742
206.26        97.19202
206.72        85.83345
207.18        66.71587
207.64        53.17887
208.10        56.99623
208.55        69.57156
209.01        78.89061
209.47        81.16118
209.93        76.24677
210.39        58.75007
210.85       0.6304185
211.31       -81.75919
211.77       -5.817011
212.23        50.23588
212.69        70.53158
213.14        76.10372
213.60        73.84876
214.06        65.57882
214.52        49.98362
214.98          37.943
215.44        41.99244
215.90        51.88673
216.36          59.902
216.81        63.69348
217.27        64.27091
217.73        63.48539
218.19        61.44494
218.65        57.85147
219.11        52.90778
219.57        46.43164
220.02        39.56157
220.48        36.88961
220.94        39.40644
221.40        45.05111
221.86        51.63112
222.32         57.0354
222.77        60.75885
223.23        63.21094
223.69        64.03986
224.15        62.64843
224.61        59.24781
225.06        53.95834
225.52        48.35001
225.98        45.46139
226.44        45.87459
226.90         47.8802
227.36         49.9295
227.81        50.79381
228.27        50.39659
228.73        49.07671
229.19        46.81638
229.65        43.77035
230.10         40.2824
230.56         36.8331
231.02        33.68583
231.48        31.21939
231.93        29.47421
232.39        28.43623
232.85        28.31791
233.31        29.37165
233.77        31.40615
234.22         34.2739
234.68        36.94795
235.14        38.25733
235.60        38.03229
236.05        36.31808
236.51        34.36415
236.97        34.80326
237.43        38.46513
237.88        44.65874
238.34        50.80441
238.80        54.31567
239.26        54.65358
239.71        51.56402
240.17        45.55923
240.63        43.31556
241.08        49.81167
241.54        59.61595
242.00        67.18243
242.46        70.84543
242.91        71.69804
243.37        70.06947
243.83        64.92747
244.28        57.89402
244.74        57.30495
245.20        63.31506
245.66        68.83186
246.11        70.92862
246.57        70.47694
247.03        68.35207
247.48        65.50294
247.94        66.85992
248.40        74.75388
248.85        84.74771
249.31        92.52457
249.77        95.29549
250.22        94.33187
250.68        91.74487
251.14        88.95088
251.59         86.9827
252.05        85.71579
252.51        84.02274
252.96        81.34448
253.42        78.56581
253.88        76.46936
254.33        75.73557
254.79        74.91889
255.25        71.75934
255.70        66.80359
256.16        61.73154
256.62        58.47578
257.07        59.15366
257.53        62.81962
257.99         67.0418
258.44        69.87994
258.90         70.1803
259.35        68.03547
259.81        64.93903
260.27        61.52775
260.72        58.57357
261.18        56.60102
261.63        55.04301
262.09        53.94233
262.55        52.97962
263.00          51.993
263.46        51.16801
263.91        50.42743
264.37        49.98856
264.83        49.74036
265.28        49.54639
265.74        49.27699
266.19         48.5743
266.65        47.48885
267.11        46.09541
267.56        44.59167
268.02        43.39058
268.47        42.55311
268.93        41.99214
269.38        41.54335
269.84        40.97173
270.30        40.19906
270.75         39.2906
271.21        38.33583
271.66        37.41943
272.12        36.58983
272.57        35.78305
273.03        34.96869
273.48        34.03184
273.94        33.02645
274.39        31.97873
274.85        31.04149
275.31        30.34554
275.76        29.87704
276.22          29.591
276.67        29.33861
277.13        28.99738
277.58        28.49586
278.04         27.9344
278.49        27.31515
278.95        26.74479
279.40        26.20955
279.86        25.73572
280.31        25.31969
280.77        25.06672
281.22        24.93985
281.68        24.94742
282.13         24.9803
282.59        24.92609
283.04        24.75014
283.50        24.49392
283.95        24.23751
284.41        24.13806
284.86        24.20659
285.32        24.41297
285.77        24.62623
286.22        24.69226
286.68        24.60531
287.13        24.38698
287.59        24.19663
288.04        24.20185
288.50        24.45264
288.95         24.8497
289.41         25.2625
289.86        25.45198
290.32        25.40145
290.77        25.19902
291.22        24.99327
291.68        24.99474
292.13         25.2589
292.59        25.74892
293.04        26.40282
293.50        27.14381
293.95        27.93675
294.40        28.82463
294.86        29.83554
295.31        30.99746
295.77        32.32162
296.22        33.76703
296.68        35.30244
297.13        36.85554
297.58        38.39267
298.04        39.90965
298.49        41.41234
298.95        42.95938
299.40        44.56214
299.85        46.21585
300.31        47.91061
300.76        49.56921
301.21        51.17598
301.67        52.76337
302.12         54.3133
302.58        55.88102
303.03        57.44931
303.48        59.02202
303.94        60.64749
304.39        62.31843
304.84        64.05082
305.30        65.84465
305.75        67.59872
306.20        69.24412
306.66        70.78044
307.11        72.17877
307.57        73.52016
308.02        74.82011
308.47        76.10275
308.93        77.35674
309.38        78.50561
309.83        79.52416
310.29        80.43182
310.74        81.23112
311.19        81.97555
311.65        82.72309
312.10        83.45697
312.55        84.16341
313.00        84.83394
313.46        85.46129
313.91        86.03098
314.36        86.57059
314.82        87.05074
315.27         87.4186
315.72        87.67222
316.18        87.83348
316.63        87.97667
317.08        88.25594
317.53        88.69762
317.99        89.25603
318.44         89.8126
318.89        90.14769
319.35        90.21669
319.80        90.09819
320.25        89.93536
320.70        89.96837
321.16        90.24563
321.61        90.70266
322.06        91.22195
322.51        91.61983
322.97        91.82574
323.42        91.93448
323.87        91.97556
324.32        92.01701
324.78        92.07745
325.23        92.15496
325.68        92.26812
326.13        92.47857
326.59        92.76615
327.04        93.16615
327.49        93.57331
327.94         93.8393
328.39        93.92895
328.85        93.84604
329.30         93.7543
329.75        93.80859
330.20        94.06693
330.66        94.46651
331.11        94.95364
331.56        95.32911
332.01        95.55104
332.46        95.66238
332.92        95.74724
333.37        96.08218
333.82        96.66837
334.27         97.4234
334.72        98.17652
335.17        98.65678
335.63        98.77617
336.08        98.67744
336.53         98.4881
336.98        98.45893
337.43        98.68333
337.88        99.10065
338.34        99.64217
338.79        100.2371
339.24        100.8203
339.69        101.4063
340.14        101.9873
340.59        102.5421
341.05        103.0668
341.50        103.5777
341.95        104.0255
342.40        104.3626
342.85        104.6002
343.30        104.7437
343.75        104.9479
344.20        105.4583
344.66        106.2995
345.11        107.3776
345.56        108.4166
346.01        108.9716
346.46        108.9584
346.91        108.5317
347.36        107.9816
347.81        107.7592
348.26        107.9787
348.72        108.5004
349.17        109.1416
349.62        109.6256
350.07        109.8579
350.52        109.9325
350.97          109.91
351.42        109.8776
351.87        109.8718
352.32        109.8521
352.77        109.8143
353.22          109.77
353.67        109.7157
354.13        109.6656
354.58        109.5871
355.03        109.4821
355.48        109.3393
355.93        109.1532
356.38        108.8959
356.83        108.5262
357.28        108.0451
357.73        107.4787
358.18         106.872
358.63        106.2906
359.08        105.7602
359.53         105.273
359.98        104.8193
360.43        104.3809
360.88        103.9425
361.33        103.4948
361.78         103.036
362.23        102.5643
362.68        102.0711
363.13        101.5547
363.58        100.9759
364.03        100.2733
364.48        99.45754
364.93        98.56637
365.38        97.67878
365.83          96.915
366.28        96.30248
366.73        95.79997
367.18        95.36588
367.63        94.92756
368.08        94.45483
368.53        93.97154
368.98        93.44949
369.43        92.84505
369.88        92.15868
370.33        91.39402
370.78        90.63201
371.23        90.01065
371.68         89.5566
372.13        89.23438
372.58        88.94018
373.03        88.49927
373.48        87.87387
373.93        87.12504
374.38        86.35581
374.83        85.72339
375.28        85.26971
375.72        84.92862
376.17        84.66037
376.62        84.34013
377.07        83.92773
377.52        83.43832
377.97         82.9263
378.42        82.47616
378.87        82.10308
379.32        81.78986
379.77        81.43627
380.22        80.88776
380.67        80.13158
381.11        79.23041
381.56        78.35768
382.01          77.806
382.46         77.6429
382.91        77.77618
383.36        78.00578
383.81        78.01636
384.26        77.72591
384.71        77.22542
385.15        76.64175
385.60        76.23461
386.05        76.04634
386.50        75.99074
386.95        75.96677
387.40        75.83035
387.85        75.54797
388.29        75.13497
388.74        74.73864
389.19        74.38418
389.64        74.07502
390.09        73.76579
390.54        73.43951
390.98        73.06223
391.43        72.68918
391.88        72.34705
392.33        71.99805
392.78        71.67439
393.23        71.41073
393.67        70.95481
394.12        70.45905
394.57        70.83582
395.02        70.90464
395.47        70.87243
395.91        70.44946
396.36        70.24346
396.81        70.28326
397.26        70.24355
397.71        70.09793
398.15        69.94096
398.60        69.84323
399.05         69.6068
399.50        69.32462
399.95        69.35407
400.39        69.58891
400.84        69.47681
401.29        69.00585
401.74        68.45116
402.18         67.9704
402.63        67.78288
403.08        67.86768
403.53        67.84251
403.97        67.67934
404.42        67.66235
404.87        67.76062
405.32        67.80354
405.76        67.76398
406.21        67.65913
406.66         67.5021
407.11        67.41617
407.55        67.38913
408.00        67.16637
408.45        66.81129
408.90        66.56419
409.34        66.46232
409.79         66.4772
410.24        66.55853
410.68        66.62356
411.13        66.64468
411.58        66.66912
412.03        66.69968
412.47        66.73054
412.92        66.73682
413.37        66.73169
413.81        66.70473
414.26        66.69614
414.71        66.69592
415.15        66.72021
415.60        66.74023
416.05        66.76035
416.49        66.78591
416.94        66.80666
417.39        66.83762
417.83        66.90026
418.28        66.98593
418.73        67.06645
419.17        67.12856
419.62        67.15689
420.07        67.15991
420.51        67.15562
420.96        67.12782
421.41        67.06386
421.85        66.95582
422.30        66.67854
422.74        66.36464
423.19        66.71226
423.64        67.55347
424.08        67.89276
424.53        67.61559
424.98         67.5959
425.42          67.881
425.87        67.80963
426.31        67.50072
426.76        67.67348
427.21        68.23934
427.65        68.45186
428.10         68.3224
428.54        68.34573
428.99         68.5383
429.44        68.93649
429.88        69.32549
430.33        68.75708
430.77        67.61208
431.22        67.71084
431.66        68.88884
432.11         69.3818
432.56        69.15996
433.00        69.46869
433.45        70.02437
433.89        70.18318
434.34        70.13805
434.78        68.72632
435.23        68.59235
435.67        69.82584
436.12        70.61928
436.57        70.89772
437.01         70.1899
437.46        69.91019
437.90        70.53584
438.35        71.34791
438.79        71.12059
439.24        71.21202
439.68        71.29183
440.13        71.29809
440.57        71.26444
441.02        71.57247
441.46        72.07294
441.91        71.90639
442.35        71.24555
442.80        71.53654
443.24        72.54509
443.69        72.62787
444.13        71.85567
444.58        71.74264
445.02        72.16363
445.47         72.4364
445.91        72.45937
446.36        72.55874
446.80        72.70461
447.24        72.81272
447.69        72.76923
448.13        72.91043
448.58        73.12043
449.02        72.97816
449.47        72.60196
449.91         72.4976
450.36        72.72313
450.80        72.98348
451.25        73.21734
451.69        73.42325
452.13        73.55427
452.58        73.54419
453.02         73.4363
453.47        73.34074
453.91        73.27215
454.36        73.30737
454.80        73.34076
455.24        73.02443
455.69        72.49644
456.13        72.13101
456.58        72.09422
457.02        72.15856
457.46         72.8587
457.91        72.71702
458.35        72.28437
458.79        72.08606
459.24        72.24102
459.68        72.26357
460.13        72.15416
460.57        71.93641
461.01        71.97209
461.46        71.65012
461.90        71.55973
462.34        71.55615
462.79        72.00715
463.23        71.91129
463.68        71.56178
464.12        71.35355
464.56        71.38488
465.01        71.60076
465.45        71.75134
465.89        71.57865
466.34        71.19591
466.78        70.75186
467.22         70.3065
467.67        70.90203
468.11        70.55086
468.55        70.65783
468.99         70.6283
469.44        70.68957
469.88        70.82027
470.32        70.87695
470.77        70.84933
471.21        70.78026
471.65        70.66907
472.10        70.51167
472.54        70.32637
472.98        70.19383
473.42        70.13537
473.87        70.12231
474.31        70.09534
474.75        70.15409
475.20        70.24187
475.64        70.09445
476.08        69.74426
476.52        69.70634
476.97        70.02763
477.41         69.8848
477.85        69.92656
478.29        70.52504
478.74         69.7934
479.18        69.73211
479.62        69.82349
480.06        69.86624
480.50        69.88412
480.95        69.93324
481.39        69.90363
481.83        70.24916
482.27        69.93367
482.72        69.69907
483.16        69.60468
483.60        69.48612
484.04        69.43163
484.48        69.55541
484.93        69.94736
485.37         69.7582
485.81        70.22209
486.25         70.2262
486.69        70.50793
487.14        69.98767
487.58        70.00821
488.02        70.11347
488.46        70.44536
488.90        70.43577
489.34        69.49274
489.79        68.71259
490.23        69.39629
490.67          69.492
491.11        69.36263
491.55        69.25861
491.99        69.21574
492.43        69.22713
492.88        69.26988
493.32        69.27989
493.76        69.25381
494.20        69.29651
494.64        69.41688
495.08        69.56565
495.52        69.70892
495.96        69.79361
496.41        69.80276
496.85        69.75369
497.29        69.64795
497.73        69.61571
498.17        69.56215
498.61         69.5729
499.05        69.58788
499.49        69.57789
499.93        69.58031
500.37        69.53111
500.82        69.40159
501.26        69.52261
501.70        69.95486
502.14        69.10309
502.58        69.48925
503.02        69.41436
503.46        69.33562
503.90        69.33389
504.34        69.33224
504.78        69.38024
505.22        69.41148
505.66        69.36862
506.10        69.29546
506.54        69.22089
506.98        69.12541
507.42        69.40945
507.86        69.39386
508.30        69.23632
508.74        69.39223
509.18        69.34812
509.62        69.30392
510.06        69.26086
510.50        69.23483
510.94        69.20666
511.38        69.17757
511.82        69.16586
512.26        69.16948
512.70        69.18987
513.14        69.21468
513.58        69.19564
514.02        69.12586
514.46         69.0679
514.90        69.05836
515.34        68.91245
515.78        69.03447
516.22        69.08397
516.66        69.16239
517.10        69.23215
517.54        69.28285
517.98        69.32101
518.42        69.32446
518.86        69.26917
519.30        69.15924
519.74        69.00709
520.18        68.86654
520.62        68.82065
521.06        68.88692
521.50        69.04358
521.93        69.23708
522.37        69.36306
522.81         69.3966
523.25        69.35688
523.69        69.28754
524.13        69.26084
524.57        69.29158
525.01         69.3542
525.45        69.40189
525.89        69.36255
526.32        69.22202
526.76        69.02991
527.20        68.83695
527.64        68.72979
528.08        68.73038
528.52        68.80002
528.96        68.91132
529.40        69.03461
529.83        69.13551
530.27        69.20732
530.71        69.22964
531.15         69.2085
531.59        69.14549
532.03        69.02524
532.46        68.88428
532.90        68.81537
533.34        68.83009
533.78        68.90963
534.22        68.99994
534.66        69.01591
535.09        68.93166
535.53        68.79081
535.97         68.6405
536.41        68.57094
536.85        68.60133
537.28        68.70666
537.72         68.8235
538.16        68.84119
538.60        68.74249
539.04        68.58221
539.47        68.41347
539.91        68.35414
540.35        68.40903
540.79         68.5527
541.22        68.71938
541.66        68.81185
542.10        68.80315
542.54        68.72977
542.97        68.62697
543.41        68.58868
543.85        68.61624
544.29        68.67723
544.72        68.73998
545.16        68.76959
545.60        68.73948
546.04        68.74013
546.47        68.75204
546.91        68.59354
547.35        68.35194
547.79        68.37498
548.22        68.59602
548.66        68.72672
549.10        68.69784
549.53        68.57619
549.97        68.42194
550.41        68.36391
550.84        68.42117
551.28        68.50517
551.72        68.57573
552.15        68.60307
552.59        68.59314
553.03        68.54779
553.46        68.47021
553.90        68.42861
554.34        68.41803
554.77        68.40057
555.21        68.38667
555.65        68.46465
556.08        68.52366
556.52        68.59011
556.96        68.59858
557.39        68.58666
557.83        68.54596
558.27        68.35049
558.70        68.08704
559.14        67.97483
559.57        68.02751
560.01        68.26911
560.45        68.57438
560.88        68.57772
561.32        68.37404
561.75        68.37291
562.19        68.57976
562.63        68.60895
563.06        68.45753
563.50        68.36049
563.93        68.32255
564.37        68.31557
564.80        68.31348
565.24        68.33208
565.68        68.34349
566.11        68.35583
566.55        68.39317
566.98        68.34205
567.42        68.26212
567.85        68.38038
568.29        68.67162
568.72        68.64156
569.16        68.37917
569.60        68.40251
570.03         68.7302
570.47        68.54557
570.90        68.72319
571.34        68.82625
571.77         68.9926
572.21        68.66541
572.64        69.11526
573.08        68.57654
573.51        68.34933
573.95        68.62267
574.38        68.80723
574.82        68.70579
