SpectraSmart Spectrum 2.9.0.0
--------- Device Information -----------
Spectrum Name :  反射率_0
Saving Time :  2024/04/28 00:00:34
Spectro-Module Model Name : SE2030-DUVN
Spectro-Module Serial Number : OS361AC55029948
Wavelength Start : 200
Wavelength End : 1025
Wavelength Unit : Wavelength(nm)
Spectrum Unit : Reflectance(%)
-----------Spectrum Setting ------------
Integration Time : 20ms
Average : 10
Boxcar : 0
Background removal :  enabled
linearity correction :  enabled
SC :  disabled
Intensity correction :  disabled
DWT denoise :  enabled
savitzky-golay :  disabled
FFT :  disabled
Running average :  disabled
Kalman :  disabled
High pass :  disabled
---------------BEGIN--------------------
Wavelength(nm)             Reflectance(%)
200.29               0
200.75        84.09726
201.21        95.03911
201.67        102.0646
202.13        104.0546
202.58         102.742
203.04        99.72392
203.50        96.14849
203.96        94.22391
204.42         94.2104
204.88        95.02293
205.34        96.04283
205.80        96.79619
206.26        97.15095
206.72        97.30099
207.18         96.6925
207.64        94.09974
208.10        90.73354
208.55         88.7489
209.01        87.22479
209.47        85.26051
209.93        81.78154
210.39        73.50705
210.85        50.95664
211.31        34.36292
211.77        74.77484
212.23        94.89722
212.69        100.6422
213.14        101.6777
213.60        99.59603
214.06        94.32126
214.52        83.96508
214.98        72.98882
215.44        70.52599
215.90        73.25907
216.36        76.84121
216.81        79.20383
217.27        80.48531
217.73        81.67667
218.19        82.27114
218.65        81.05728
219.11        77.82547
219.57        72.54635
220.02        66.41208
220.48         63.9647
220.94        66.17951
221.40        70.95164
221.86        76.01669
222.32        79.17947
222.77        80.22383
223.23        80.10625
223.69         78.7919
224.15         75.9679
224.61        71.72694
225.06        65.82712
225.52        59.97716
225.98         57.4885
226.44        58.66891
226.90        61.56147
227.36        63.99095
227.81         64.1013
228.27        61.96626
228.73        58.11372
229.19        53.19605
229.65        48.87886
230.10        46.03166
230.56        44.55758
231.02        43.93644
231.48         43.4784
231.93        42.90665
232.39        42.54747
232.85        42.65574
233.31        43.55424
233.77        45.18597
234.22        47.40198
234.68        49.48714
235.14        50.67832
235.60        50.91608
236.05        50.29167
236.51         49.8359
236.97        51.56339
237.43        55.93529
237.88        62.23129
238.34        68.34873
238.80        72.57641
239.26        74.76208
239.71        75.20586
240.17        73.91639
240.63        73.10368
241.08        74.65758
241.54         77.0119
242.00        78.80298
242.46        79.42022
242.91        79.13493
243.37        77.80431
243.83        75.82949
244.28        77.77648
244.74        88.09518
245.20        99.40176
245.66        105.0367
246.11        106.4728
246.57        105.5737
247.03        101.4594
247.48         93.3864
247.94        84.66966
248.40        81.46994
248.85        83.69441
249.31        88.77732
249.77        93.43016
250.22        96.80032
250.68        99.60488
251.14        102.0735
251.59        104.8311
252.05        108.3964
252.51        112.6574
252.96        116.8228
253.42        117.8564
253.88        114.0379
254.33        107.9938
254.79         102.296
255.25        96.69745
255.70        91.07122
256.16        86.26138
256.62         83.2428
257.07        83.21053
257.53        85.59979
257.99        88.46961
258.44        90.15466
258.90        89.87366
259.35        87.50938
259.81        84.42657
260.27        81.06799
260.72         78.0513
261.18        75.92946
261.63        74.05253
262.09        72.57862
262.55        71.15639
263.00        69.61628
263.46        68.24984
263.91        66.86974
264.37        65.65942
264.83         64.5592
265.28        63.48808
265.74        62.57063
266.19        61.69801
266.65        60.92342
267.11        60.17641
267.56        59.37105
268.02        58.49933
268.47        57.50986
268.93        56.44333
269.38        55.34142
269.84        54.31491
270.30        53.37589
270.75        52.48533
271.21        51.59113
271.66        50.55197
272.12        49.37278
272.57        48.06836
273.03        46.75681
273.48        45.52056
273.94        44.46039
274.39        43.51321
274.85        42.69263
275.31        41.90875
275.76        41.11697
276.22         40.3765
276.67        39.66675
277.13        39.08065
277.58        38.55474
278.04        38.10336
278.49         37.6029
278.95        37.01574
279.40        36.27708
279.86        35.48422
280.31        34.66292
280.77        33.98824
281.22        33.44653
281.68        33.05397
282.13        32.71435
282.59        32.35386
283.04        31.93552
283.50        31.51612
283.95        31.15123
284.41        30.97152
284.86        30.97399
285.32        31.13088
285.77        31.33368
286.22         31.4779
286.68        31.55339
287.13        31.55042
287.59        31.55705
288.04        31.62495
288.50        31.79424
288.95        31.99916
289.41        32.20599
289.86        32.30978
290.32        32.32706
290.77        32.29899
291.22        32.29752
291.68        32.41364
292.13        32.67546
292.59        33.09422
293.04        33.67197
293.50        34.43584
293.95        35.37056
294.40        36.47888
294.86        37.73595
295.31        39.08981
295.77        40.52775
296.22        42.03007
296.68        43.59423
297.13        45.18864
297.58        46.79672
298.04        48.41286
298.49        50.02341
298.95        51.66942
299.40        53.36334
299.85        55.11977
300.31        56.97109
300.76        58.89629
301.21        60.87967
301.67        62.92308
302.12        64.94093
302.58        66.91196
303.03        68.78937
303.48        70.60332
303.94        72.43814
304.39         74.3278
304.84        76.31056
305.30        78.38126
305.75        80.42273
306.20        82.35883
306.66        84.19336
307.11        85.90218
307.57        87.58464
308.02        89.26168
308.47        90.95596
308.93        92.64605
309.38        94.23122
309.83        95.67558
310.29        96.99429
310.74        98.18615
311.19        99.30123
311.65        100.3867
312.10        101.4204
312.55        102.3922
313.00         103.304
313.46        104.1706
313.91        104.9776
314.36        105.7445
314.82        106.4437
315.27        107.0217
315.72        107.4756
316.18         107.842
316.63        108.1624
317.08        108.5434
317.53        109.0116
317.99        109.5303
318.44        110.0678
318.89        110.5418
319.35        110.9262
319.80        111.2574
320.25        111.5443
320.70        111.8111
321.16        112.0579
321.61        112.2886
322.06        112.5244
322.51        112.8138
322.97        113.1442
323.42        113.5456
323.87        113.9353
324.32        114.1975
324.78        114.2927
325.23        114.2932
325.68        114.2776
326.13        114.4099
326.59        114.7034
327.04        115.1608
327.49        115.6659
327.94        116.0645
328.39        116.3106
328.85        116.4119
329.30        116.5084
329.75        116.6672
330.20        116.9262
330.66        117.2267
331.11        117.5977
331.56         117.962
332.01         118.308
332.46        118.6488
332.92        118.9672
333.37        119.3951
333.82        119.8849
334.27        120.4131
334.72        120.9157
335.17        121.2966
335.63        121.5116
336.08        121.6541
336.53        121.7781
336.98        122.0224
337.43        122.4284
337.88        122.9601
338.34        123.5434
338.79        124.1101
339.24        124.6097
339.69        125.0744
340.14        125.5191
340.59        125.9687
341.05        126.4349
341.50        126.9058
341.95        127.3839
342.40        127.8983
342.85        128.4457
343.30        129.0054
343.75        129.5435
344.20         130.004
344.66         130.373
345.11        130.6627
345.56        130.8706
346.01        130.9926
346.46        131.0449
346.91          131.04
347.36         131.043
347.81        131.1492
348.26        131.3751
348.72        131.7002
349.17        132.0418
349.62         132.287
350.07        132.3991
350.52        132.4027
350.97        132.3511
351.42        132.3344
351.87        132.3702
352.32         132.421
352.77        132.4276
353.22        132.3059
353.67         132.032
354.13        131.6411
354.58        131.1556
355.03        130.6763
355.48         130.228
355.93         129.793
356.38        129.3114
356.83         128.686
357.28        127.9091
357.73          127.03
358.18        126.1431
358.63        125.3848
359.08        124.7869
359.53         124.309
359.98        123.8675
360.43        123.3327
360.88        122.6617
361.33        121.8751
361.78        121.0417
362.23        120.2681
362.68        119.5752
363.13        118.9468
363.58        118.2874
364.03        117.3658
364.48        116.3004
364.93        115.0626
365.38        113.8281
365.83         112.803
366.28        112.0341
366.73        111.4459
367.18        110.9436
367.63        110.3754
368.08        109.6907
368.53        108.9437
368.98        108.1449
369.43        107.3094
369.88        106.4599
370.33        105.5852
370.78        104.7498
371.23        104.0665
371.68        103.5475
372.13        103.1538
372.58        102.7925
373.03        102.3064
373.48         101.654
373.93        100.8883
374.38        100.0616
374.83         99.2556
375.28        98.50844
375.72        97.78444
376.17         97.1397
376.62        96.59013
377.07        96.12914
377.52        95.73618
377.97        95.37608
378.42        94.98928
378.87        94.55627
379.32        94.09915
379.77        93.59663
380.22        93.01649
380.67         92.3636
381.11        91.64838
381.56         90.9548
382.01        90.43729
382.46        90.13064
382.91        89.99469
383.36        89.90226
383.81         89.6488
384.26        89.18463
384.71        88.56567
385.15        87.89428
385.60        87.39451
386.05        87.09554
386.50        86.93774
386.95        86.81342
387.40        86.56124
387.85        86.15825
388.29        85.62281
388.74        85.14995
389.19        84.81481
389.64        84.61705
390.09        84.47211
390.54        84.32687
390.98        84.08417
391.43        83.78411
391.88        83.47655
392.33        83.09417
392.78        82.65508
393.23        82.21736
393.67        81.47465
394.12        80.69435
394.57        81.12809
395.02           81.41
395.47        81.56954
395.91        81.20506
396.36        81.06269
396.81        81.13557
397.26        80.97151
397.71        80.61969
398.15        80.29732
398.60        80.09783
399.05          79.927
399.50        79.78075
399.95        79.52748
400.39        79.19469
400.84        79.09883
401.29          79.172
401.74        78.72298
402.18        77.92003
402.63        77.75903
403.08        78.18653
403.53        78.24963
403.97        77.90246
404.42        77.70623
404.87        77.66524
405.32        77.60771
405.76        77.52866
406.21        77.33283
406.66         77.0912
407.11        77.14092
407.55        77.62346
408.00        77.30896
408.45        76.41362
408.90        75.80038
409.34        75.66336
409.79        75.95497
410.24        76.46477
410.68        76.67519
411.13         76.4999
411.58        76.25304
412.03        76.05956
412.47        75.99754
412.92        76.08452
413.37        76.30611
413.81        76.52766
414.26        76.61079
414.71        76.50454
415.15        76.27861
415.60         75.9973
416.05        75.83942
416.49        75.86089
416.94        75.99329
417.39        76.16109
417.83        76.24494
418.28        76.20363
418.73        76.06319
419.17        75.88329
419.62        75.76282
420.07         75.7447
420.51        75.79984
420.96        75.87482
421.41        75.90999
421.85        75.86951
422.30        75.60999
422.74        75.26376
423.19        75.62004
423.64        76.47765
424.08         76.6538
424.53        76.07101
424.98        75.88143
425.42        76.16193
425.87        76.02278
426.31        75.58692
426.76        75.83048
427.21        76.57204
427.65        76.57917
428.10        75.92396
428.54         75.6872
428.99        75.93526
429.44        76.19414
429.88        76.32031
430.33        76.14211
430.77        75.75253
431.22         75.7729
431.66         76.1787
432.11        76.60678
432.56        77.01986
433.00        77.19267
433.45        76.90999
433.89        77.01322
434.34         77.5918
434.78        76.07254
435.23        76.04356
435.67        76.37216
436.12        77.40652
436.57        77.75315
437.01         77.3931
437.46        77.04536
437.90        77.17078
438.35        78.09541
438.79        77.30994
439.24        77.30102
439.68        77.34579
440.13        77.42665
440.57        77.51671
441.02        77.83096
441.46        78.19549
441.91        78.00565
442.35        77.38776
442.80        77.31744
443.24        77.72382
443.69        77.93916
444.13        77.89241
444.58        77.96471
445.02         78.1254
445.47        78.21921
445.91        78.25552
446.36        78.32568
446.80        78.41042
447.24        78.51307
447.69          78.704
448.13        78.66228
448.58        79.25095
449.02        79.23068
449.47        78.93994
449.91        78.79386
450.36        78.84722
450.80        78.81366
451.25        78.70928
451.69        78.68672
452.13        78.73779
452.58        78.75729
453.02        78.74545
453.47        78.74277
453.91        78.72992
454.36        78.79882
454.80         78.8641
455.24        78.54523
455.69        77.95735
456.13        77.61641
456.58        77.70001
457.02        77.34159
457.46        77.87365
457.91        77.83466
458.35        77.36337
458.79        77.15617
459.24        77.15382
459.68        77.04591
460.13         76.8753
460.57         76.6142
461.01        76.63918
461.46        76.46227
461.90         76.5404
462.34        76.35765
462.79        76.86275
463.23         76.7151
463.68        76.26363
464.12         75.9073
464.56        75.77973
465.01        76.02194
465.45        76.34367
465.89        76.36255
466.34        76.15376
466.78         75.7873
467.22        75.25436
467.67        76.08439
468.11         75.2565
468.55        75.27833
468.99        75.25777
469.44        75.28921
469.88        75.34833
470.32        75.41935
470.77        75.48499
471.21        75.47039
471.65        75.36469
472.10        75.20413
472.54        74.98677
472.98        74.80333
473.42        74.69013
473.87        74.50112
474.31        74.25356
474.75        74.44347
475.20        74.89492
475.64        74.68314
476.08        73.91363
476.52         73.7343
476.97        74.22654
477.41        74.17038
477.85        74.19236
478.29        74.73109
478.74        74.18465
479.18        73.55912
479.62        74.16293
480.06         74.1414
480.50        74.07715
480.95         73.9315
481.39        73.62109
481.83        74.36983
482.27        73.98254
482.72        73.67559
483.16        74.12618
483.60        73.78609
484.04        73.89697
484.48        73.74282
484.93        73.81827
485.37        73.74837
485.81        73.95691
486.25        74.21651
486.69        74.80562
487.14        73.60829
487.58        73.21783
488.02         73.8515
488.46        73.73007
488.90        74.26537
489.34        73.09624
489.79        73.19212
490.23         73.2758
490.67        73.42293
491.11        73.35965
491.55         73.2399
491.99        73.12222
492.43        73.09021
492.88        73.16782
493.32        73.29174
493.76        73.36488
494.20        73.39619
494.64        73.40067
495.08        73.13242
495.52        72.75686
495.96        73.13999
496.41        74.04724
496.85        73.96646
497.29        73.04594
497.73        72.87543
498.17        73.45588
498.61        73.62159
499.05        73.32333
499.49        73.02416
499.93        72.82114
500.37        72.85359
500.82        73.14806
501.26        72.76507
501.70        73.71395
502.14        72.90211
502.58        73.49885
503.02        73.43881
503.46        73.19614
503.90        72.91982
504.34         72.6044
504.78        72.47892
505.22        72.52712
505.66        72.61098
506.10        72.70256
506.54        72.82943
506.98         72.9587
507.42        73.11752
507.86        73.20569
508.30        73.16596
508.74        73.20127
509.18        73.11934
509.62        73.01308
510.06        72.92538
510.50        72.87436
510.94        72.85285
511.38        72.84408
511.82        72.82081
512.26        72.77444
512.70        72.71721
513.14        72.67242
513.58        72.64732
514.02        72.64394
514.46        72.70885
514.90        72.82652
515.34        72.71508
515.78        72.78457
516.22        72.70538
516.66        72.64386
517.10        72.65643
517.54         72.7523
517.98        72.90038
518.42         73.0332
518.86        73.05361
519.30        72.94382
519.74        72.74723
520.18        72.52461
520.62        72.36909
521.06        72.31064
521.50        72.31992
521.93        72.38902
522.37        72.48831
522.81        72.60303
523.25        72.73579
523.69        72.84987
524.13        72.88659
524.57         72.8379
525.01        72.71918
525.45        72.57563
525.89        72.48355
526.32        72.45806
526.76        72.49267
527.20        72.55546
527.64        72.60203
528.08        72.61565
528.52        72.60594
528.96        72.58488
529.40        72.56983
529.83        72.55816
530.27        72.55779
530.71        72.54129
531.15        72.47871
531.59        72.36963
532.03        72.22761
532.46        72.08885
532.90        72.03303
533.34        72.06578
533.78        72.16045
534.22        72.26701
534.66         72.3087
535.09        72.25941
535.53        72.16755
535.97        72.05164
536.41        71.95792
536.85        71.90523
537.28         71.8829
537.72        71.89388
538.16        71.93386
538.60        71.99799
539.04        72.09601
539.47        72.18587
539.91        72.26064
540.35        72.29728
540.79        72.28313
541.22        72.20468
541.66         72.2193
542.10        72.08015
542.54        71.97945
542.97        71.85593
543.41        71.84087
543.85        71.93866
544.29        71.89352
544.72        72.07468
545.16         72.0921
545.60        72.04094
546.04        71.93913
546.47        71.82278
546.91        71.72686
547.35        71.67278
547.79         71.7127
548.22        71.78891
548.66        71.79909
549.10        71.73381
549.53        71.72681
549.97        71.79977
550.41        71.87048
550.84         71.9266
551.28        72.05785
551.72        72.21816
552.15         72.1897
552.59        71.95724
553.03        71.99045
553.46        71.60725
553.90        71.58947
554.34        71.71497
554.77        71.98615
555.21        72.28835
555.65         72.2988
556.08        72.19593
556.52        71.90531
556.96        71.59111
557.39        71.45802
557.83        71.52985
558.27        71.57603
558.70        71.56996
559.14        71.62641
559.57        71.70509
560.01         71.7853
560.45        71.83555
560.88         71.7588
561.32        71.64439
561.75        71.65107
562.19        71.77335
562.63        71.76713
563.06        71.62991
563.50        71.52805
563.93        71.47994
564.37        71.50383
564.80        71.56946
565.24        71.68993
565.68        71.81937
566.11        71.87641
566.55        71.88506
566.98        71.89294
567.42        71.91354
567.85        71.86714
568.29        71.82054
568.72        71.71621
569.16        71.60983
569.60         71.6934
570.03        71.97903
570.47        71.78555
570.90        71.86436
571.34        72.32281
571.77         72.0674
572.21         71.9041
572.64        72.19176
573.08        71.52043
573.51        71.23871
573.95        71.54146
574.38        72.07559
574.82         71.7115
