SpectraSmart Spectrum 2.9.0.0
--------- Device Information -----------
Spectrum Name :  反射率_0
Saving Time :  2024/04/27 23:43:59
Spectro-Module Model Name : SE2030-DUVN
Spectro-Module Serial Number : OS361AC55029948
Wavelength Start : 200
Wavelength End : 1025
Wavelength Unit : Wavelength(nm)
Spectrum Unit : Reflectance(%)
-----------Spectrum Setting ------------
Integration Time : 20ms
Average : 10
Boxcar : 0
Background removal :  enabled
linearity correction :  enabled
SC :  disabled
Intensity correction :  disabled
DWT denoise :  enabled
savitzky-golay :  disabled
FFT :  disabled
Running average :  disabled
Kalman :  disabled
High pass :  disabled
---------------BEGIN--------------------
Wavelength(nm)             Reflectance(%)
200.29               0
200.75        43.89415
201.21        78.45211
201.67        101.1697
202.13        107.0827
202.58        102.2291
203.04        92.15207
203.50        80.11008
203.96        71.54229
204.42        67.98809
204.88        67.06632
205.34        67.55946
205.80        68.58424
206.26        69.80102
206.72         71.8139
207.18        74.42694
207.64        74.63789
208.10        71.47011
208.55        68.10204
209.01        64.66548
209.47        60.51383
209.93        53.61248
210.39        37.33496
210.85       -9.765256
211.31       -61.81264
211.77        9.442328
212.23        53.61091
212.69        68.44748
213.14        72.24371
213.60        70.00139
214.06        62.76897
214.52        48.67435
214.98        35.80457
215.44        36.24638
215.90        42.88178
216.36        49.71097
216.81        54.87714
217.27        58.67228
217.73        62.32718
218.19        64.98872
218.65        64.59821
219.11        60.64357
219.57        53.41779
220.02        44.06321
220.48        37.75067
220.94        36.63447
221.40          39.097
221.86        43.86478
222.32        49.48601
222.77        55.00444
223.23        60.17441
223.69        63.74023
224.15        64.23769
224.61        61.77455
225.06        56.62956
225.52        50.53022
225.98        46.91198
226.44        46.63578
226.90        48.07011
227.36        49.43663
227.81        49.14967
228.27        47.13054
228.73        43.84106
229.19        39.80062
229.65        36.31264
230.10        34.03831
230.56        32.92893
231.02        32.46013
231.48        31.96862
231.93        31.25563
232.39        30.65384
232.85        30.49554
233.31        31.22731
233.77        32.79976
234.22        34.98243
234.68        37.08604
235.14        38.43027
235.60        38.91645
236.05        38.60609
236.51        38.23531
236.97        39.15367
237.43        41.73544
237.88        45.66586
238.34         49.3997
238.80         51.6712
239.26        52.30532
239.71        51.21573
240.17        49.04323
240.63        49.73453
241.08        55.34868
241.54        62.02709
242.00        66.81065
242.46        69.29581
242.91         70.4264
243.37        70.47543
243.83        69.53273
244.28        69.13659
244.74        71.51006
245.20        74.89651
245.66        76.53264
246.11        75.87024
246.57        73.20041
247.03        68.34061
247.48        61.25583
247.94        57.00816
248.40        60.69353
248.85         68.8507
249.31        78.26006
249.77        86.45125
250.22        92.65586
250.68        97.41833
251.14        100.5207
251.59        102.0194
252.05        102.3742
252.51        101.1161
252.96        98.33422
253.42        96.52802
253.88        96.44153
254.33        96.83599
254.79        96.20409
255.25        92.30591
255.70        85.91857
256.16        79.52014
256.62        74.46342
257.07        72.36412
257.53        73.04797
257.99         74.4959
258.44        75.76093
258.90        76.63531
259.35        76.58801
259.81        76.30038
260.27        75.27245
260.72        72.97973
261.18        70.15469
261.63        66.92957
262.09        64.14151
262.55         62.2187
263.00        61.02105
263.46         60.3978
263.91        59.97753
264.37        59.66492
264.83        59.26742
265.28        58.79716
265.74        58.20621
266.19        57.16123
266.65        55.75526
267.11        54.03325
267.56        52.22791
268.02        50.83615
268.47        49.92606
268.93        49.38628
269.38        49.01455
269.84        48.51661
270.30        47.78188
270.75        46.88115
271.21        45.88018
271.66        44.82475
272.12        43.76928
272.57        42.66168
273.03        41.52953
273.48        40.34233
273.94        39.18501
274.39        38.05932
274.85        37.09207
275.31        36.35585
275.76        35.81828
276.22         35.4576
276.67        35.13017
277.13        34.73946
277.58        34.20623
278.04        33.62267
278.49        32.96913
278.95        32.34178
279.40        31.71681
279.86        31.13345
280.31        30.59072
280.77        30.21467
281.22        29.96511
281.68         29.8529
282.13        29.76211
282.59        29.58213
283.04        29.27646
283.50        28.90638
283.95        28.54046
284.41         28.3296
284.86        28.28347
285.32        28.36872
285.77        28.49474
286.22        28.57451
286.68          28.599
287.13        28.56198
287.59        28.52794
288.04        28.51318
288.50        28.55766
288.95         28.6202
289.41        28.69932
289.86        28.74371
290.32        28.77596
290.77        28.81468
291.22        28.91142
291.68        29.12887
292.13         29.4803
292.59        29.97809
293.04        30.60335
293.50        31.35037
293.95        32.20146
294.40        33.16617
294.86        34.25719
295.31        35.48328
295.77        36.84956
296.22        38.33078
296.68        39.88796
297.13        41.43037
297.58        42.92815
298.04        44.38573
298.49        45.84534
298.95        47.42565
299.40        49.14706
299.85        50.99457
300.31        52.91077
300.76        54.73789
301.21        56.44369
301.67        58.08562
302.12        59.70086
302.58        61.43793
303.03        63.28983
303.48        65.23144
303.94        67.25125
304.39         69.2439
304.84        71.21519
305.30         73.2084
305.75        75.17973
306.20        77.15437
306.66        79.15412
307.11        81.11153
307.57        83.06639
308.02        84.95943
308.47        86.78719
308.93        88.55141
309.38        90.18551
309.83        91.69923
310.29         93.1219
310.74        94.44009
311.19        95.68182
311.65         96.8623
312.10        97.95273
312.55        98.95393
313.00         99.8988
313.46        100.8468
313.91        101.7939
314.36        102.7496
314.82         103.644
315.27        104.3535
315.72        104.8643
316.18        105.2367
316.63        105.5718
317.08        106.0718
317.53        106.7774
317.99        107.6102
318.44        108.4756
318.89        109.1911
319.35        109.6983
319.80        110.0645
320.25        110.3213
320.70        110.5298
321.16        110.7147
321.61        110.8751
322.06        111.0541
322.51        111.3383
322.97        111.7177
323.42        112.2059
323.87        112.7036
324.32        113.0578
324.78        113.2166
325.23        113.2756
325.68        113.2793
326.13        113.3366
326.59        113.4679
327.04        113.6904
327.49        114.0114
327.94        114.4824
328.39        115.0929
328.85        115.7882
329.30        116.5304
329.75        117.0713
330.20        117.3501
330.66        117.3911
331.11        117.3709
331.56        117.4627
332.01        117.7475
332.46        118.1832
332.92        118.6945
333.37        119.3062
333.82        119.9296
334.27        120.5735
334.72        121.2193
335.17        121.8357
335.63        122.3781
336.08         122.895
336.53         123.339
336.98        123.6953
337.43        123.9774
337.88        124.2096
338.34        124.4323
338.79        124.7677
339.24        125.2243
339.69        125.7764
340.14        126.3974
340.59        127.0344
341.05          127.66
341.50        128.2962
341.95        128.8901
342.40        129.3806
342.85        129.7634
343.30        130.0379
343.75        130.2986
344.20        130.7057
344.66        131.2848
345.11        131.9789
345.56         132.637
346.01         133.011
346.46        133.0583
346.91         132.875
347.36         132.631
347.81        132.5845
348.26           132.8
348.72        133.1955
349.17        133.6579
349.62        134.0326
350.07        134.2542
350.52        134.3626
350.97         134.381
351.42        134.3412
351.87        134.2662
352.32        134.1561
352.77        133.9987
353.22         133.785
353.67        133.5189
354.13        133.2085
354.58        132.9005
355.03         132.731
355.48        132.6962
355.93        132.7395
356.38        132.6816
356.83        132.2448
357.28        131.3898
357.73        130.2287
358.18        128.9594
358.63        127.8872
359.08        127.1025
359.53        126.5253
359.98        126.0619
360.43        125.5579
360.88        124.9544
361.33         124.293
361.78        123.6012
362.23        122.9085
362.68        122.2214
363.13        121.5348
363.58        120.8164
364.03        119.9342
364.48        119.0414
364.93        118.0508
365.38         117.065
365.83        116.1674
366.28        115.3751
366.73        114.6524
367.18        113.9625
367.63         113.246
368.08        112.4858
368.53         111.715
368.98        110.9174
369.43        110.0653
369.88        109.1676
370.33        108.2264
370.78        107.3344
371.23         106.645
371.68        106.1758
372.13        105.8735
372.58        105.5904
373.03        105.0851
373.48         104.302
373.93        103.3205
374.38        102.2715
374.83        101.3603
375.28        100.6495
375.72        100.0636
376.17        99.57745
376.62        99.07761
377.07        98.52785
377.52        97.95143
377.97        97.38179
378.42         96.8653
378.87        96.41108
379.32         96.0078
379.77        95.58725
380.22        95.04768
380.67        94.37733
381.11        93.61117
381.56         92.8696
382.01        92.36354
382.46        92.13877
382.91        92.13046
383.36        92.17389
383.81        92.00892
384.26        91.57543
384.71        90.95294
385.15        90.26675
385.60        89.77927
386.05        89.52624
386.50        89.41998
386.95        89.35273
387.40        89.16714
387.85        88.82624
388.29        88.34296
388.74        87.86971
389.19         87.4119
389.64        86.97443
390.09        86.51058
390.54        86.04467
390.98        85.61913
391.43        85.31407
391.88        85.09823
392.33        84.86832
392.78         84.6629
393.23        84.46739
393.67        83.79547
394.12        82.96159
394.57        83.35098
395.02        83.86563
395.47        83.86671
395.91        83.11813
396.36        82.78696
396.81        82.92247
397.26        82.89241
397.71        82.63432
398.15        82.35137
398.60        82.13512
399.05        81.68376
399.50        81.18504
399.95        81.27956
400.39        81.79411
400.84        81.80608
401.29         81.2633
401.74        80.59596
402.18        80.02109
402.63        79.85707
403.08        80.05368
403.53        80.01081
403.97        79.69536
404.42        79.55913
404.87        79.59259
405.32        79.57653
405.76        79.47901
406.21        79.33656
406.66        79.16888
407.11        79.04392
407.55        78.94872
408.00        78.80351
408.45         78.5915
408.90        78.07154
409.34        77.41017
409.79        77.28964
410.24        77.62479
410.68        77.73463
411.13        77.56939
411.58        77.52357
412.03        77.61635
412.47        77.69769
412.92        77.72874
413.37         77.7607
413.81        77.75034
414.26        77.69986
414.71        77.59231
415.15        77.44981
415.60        77.28425
416.05        77.19048
416.49        77.19832
416.94        77.27301
417.39        77.37742
417.83        77.44652
418.28        77.45148
418.73        77.39161
419.17        77.29846
419.62        77.22904
420.07        77.20634
420.51        77.21683
420.96        77.21631
421.41        77.12472
421.85        76.91491
422.30         76.5506
422.74        76.16361
423.19        76.32433
423.64        76.91859
424.08        77.26522
424.53        77.20357
424.98        77.17393
425.42        77.35368
425.87        77.08442
426.31        76.57929
426.76        76.60771
427.21         77.0718
427.65         77.0735
428.10        76.63145
428.54        76.50744
428.99        76.74808
429.44        76.94114
429.88        77.00629
430.33        76.99813
430.77        76.87852
431.22        76.86733
431.66        76.95384
432.11        77.02264
432.56        77.12968
433.00         77.1954
433.45         77.0534
433.89        77.15461
434.34        77.52367
434.78        76.45068
435.23        76.59001
435.67        76.52715
436.12        77.87907
436.57         78.0819
437.01        77.48746
437.46        77.54432
437.90        77.62998
438.35        77.89529
438.79        77.53388
439.24        77.48074
439.68        77.60397
440.13         77.9343
440.57        78.32894
441.02        78.59415
441.46        78.61995
441.91        78.18322
442.35        77.50117
442.80        77.63985
443.24        78.40018
443.69        78.52817
444.13        78.02877
444.58        77.95947
445.02         78.3027
445.47         78.4925
445.91        78.47971
446.36        78.52663
446.80        78.61756
447.24        78.61295
447.69        78.56212
448.13          78.696
448.58        78.94164
449.02        78.86261
449.47        78.54657
449.91        78.44881
450.36        78.61504
450.80         78.7603
451.25        78.85297
451.69        78.93717
452.13        78.98206
452.58        78.91416
453.02        78.75584
453.47        78.58504
453.91        78.40583
454.36          78.307
454.80        78.22465
455.24        77.84069
455.69        77.30132
456.13        77.05874
456.58        77.19529
457.02        77.15623
457.46        77.53589
457.91        77.34037
458.35        77.10912
458.79        76.93067
459.24        76.90717
459.68        76.84244
460.13         76.7742
460.57        76.41385
461.01        76.09601
461.46        76.04403
461.90        75.79964
462.34        75.31827
462.79        75.86732
463.23        75.77309
463.68        75.49313
464.12        75.35448
464.56        75.39691
465.01        75.50052
465.45        75.48264
465.89        75.38915
466.34        75.27997
466.78        74.93532
467.22        74.40964
467.67        74.99457
468.11        74.74094
468.55        74.79424
468.99        74.59444
469.44        74.53779
469.88        74.61515
470.32        74.61131
470.77        74.52057
471.21        74.41132
471.65        74.28942
472.10        74.16231
472.54        74.00244
472.98        73.85746
473.42        73.74762
473.87        73.53422
474.31        73.26787
474.75        73.47985
475.20        74.00352
475.64        73.94552
476.08        73.37134
476.52        73.19118
476.97        73.44373
477.41        73.27377
477.85        73.38396
478.29        73.05671
478.74        73.71038
479.18        72.88027
479.62        73.03376
480.06        72.81501
480.50        72.86267
480.95        72.92973
481.39        72.90497
481.83        72.93127
482.27        73.12484
482.72        72.45874
483.16        72.77163
483.60        72.62799
484.04         72.5203
484.48        72.62174
484.93         73.0861
485.37        72.69638
485.81        73.07201
486.25        73.46275
486.69        73.86086
487.14        73.18388
487.58        72.71706
488.02        72.82803
488.46        72.73699
488.90        73.23848
489.34        72.13916
489.79         71.4578
490.23        72.27304
490.67        72.20443
491.11        71.78983
491.55        71.73689
491.99        72.03246
492.43        72.11732
492.88        71.94075
493.32        71.77258
493.76        71.64835
494.20         71.5996
494.64        71.65871
495.08        71.73212
495.52        71.79311
495.96        72.00003
496.41        72.25852
496.85        72.07965
497.29        71.56396
497.73        71.55021
498.17        71.87833
498.61        71.86723
499.05        71.49798
499.49        71.42986
499.93        71.67368
500.37        71.73057
500.82        71.53545
501.26        71.50491
501.70         71.7812
502.14        70.98654
502.58        71.65551
503.02        71.66771
503.46        71.46948
503.90        71.37395
504.34        71.32671
504.78        71.31826
505.22        71.30626
505.66        71.20342
506.10        71.06301
506.54        71.03616
506.98         71.1285
507.42        71.14421
507.86        71.65574
508.30        71.14504
508.74         71.5123
509.18        71.35144
509.62        71.22819
510.06        71.16492
510.50        71.18394
510.94        71.24862
511.38         71.3091
511.82        71.33438
512.26        71.30631
512.70        71.24577
513.14        71.16998
513.58        71.07698
514.02        70.97372
514.46        70.90832
514.90        70.90478
515.34        70.75059
515.78         70.8559
516.22        70.88728
516.66        70.94854
517.10        70.99824
517.54        71.02827
517.98        71.03965
518.42        71.03453
518.86        71.02998
519.30        71.03024
519.74        71.03084
520.18        71.03003
520.62        71.02582
521.06        71.01851
521.50        71.01004
521.93        71.00799
522.37        71.00874
522.81        71.01639
523.25        71.02728
523.69        71.03235
524.13        71.01756
524.57        70.98137
525.01        70.93045
525.45        70.87394
525.89        70.82551
526.32        70.78493
526.76        70.76301
527.20         70.7556
527.64        70.76386
528.08        70.78498
528.52        70.81472
528.96         70.8481
529.40        70.87768
529.83        70.89215
530.27        70.90327
530.71        70.89612
531.15        70.85976
531.59        70.79369
532.03        70.70119
532.46        70.59341
532.90        70.51103
533.34         70.4583
533.78        70.43195
534.22        70.41374
534.66        70.37312
535.09         70.2972
535.53        70.21754
535.97         70.1487
536.41        70.12842
536.85        70.16496
537.28        70.24818
537.72        70.35036
538.16        70.41954
538.60        70.44172
539.04        70.43629
539.47        70.40826
539.91        70.41539
540.35        70.44932
540.79        70.49929
541.22        70.51008
541.66        70.48406
542.10        70.28502
542.54        70.04962
542.97        69.81927
543.41        69.75738
543.85        69.87045
544.29        70.11089
544.72        70.36721
545.16         70.4788
545.60        70.38839
546.04         70.1994
546.47        69.98355
546.91        69.72877
547.35        69.53155
547.79        69.67475
548.22        70.01463
548.66        70.06834
549.10        69.82329
549.53        69.68581
549.97         69.7123
550.41        69.73543
550.84        69.76817
551.28        69.90948
551.72        70.09885
552.15        70.18568
552.59        70.15983
553.03         70.0423
553.46        69.88438
553.90        69.81601
554.34        69.84457
554.77        69.95847
555.21        70.06772
555.65        70.03721
556.08         69.7837
556.52         69.5201
556.96        69.31385
557.39         69.3604
557.83        69.62746
558.27        69.76664
558.70        69.74203
559.14        69.77771
559.57        69.84382
560.01        69.82388
560.45        69.71793
560.88         69.5944
561.32        69.53662
561.75        69.49965
562.19        69.50823
562.63        69.61235
563.06        69.73036
563.50        69.60004
563.93        69.27683
564.37        69.17204
564.80        69.28146
565.24        69.40563
565.68        69.48734
566.11        69.56255
566.55          69.643
566.98        69.62649
567.42         69.5628
567.85        69.64217
568.29        69.85561
568.72        69.74054
569.16         69.3888
569.60        69.41442
570.03        69.85901
570.47        69.68204
570.90        69.68164
571.34        70.38674
571.77        70.20292
572.21        69.97937
572.64         70.0622
573.08        70.02521
573.51        69.64615
573.95        69.76012
574.38        70.07814
574.82        70.29662
