SpectraSmart Spectrum 2.9.0.0
--------- Device Information -----------
Spectrum Name :  反射率_0
Saving Time :  2024/04/28 00:01:12
Spectro-Module Model Name : SE2030-DUVN
Spectro-Module Serial Number : OS361AC55029948
Wavelength Start : 200
Wavelength End : 1025
Wavelength Unit : Wavelength(nm)
Spectrum Unit : Reflectance(%)
-----------Spectrum Setting ------------
Integration Time : 20ms
Average : 10
Boxcar : 0
Background removal :  enabled
linearity correction :  enabled
SC :  disabled
Intensity correction :  disabled
DWT denoise :  enabled
savitzky-golay :  disabled
FFT :  disabled
Running average :  disabled
Kalman :  disabled
High pass :  disabled
---------------BEGIN--------------------
Wavelength(nm)             Reflectance(%)
200.29               0
200.75        73.29939
201.21        81.29248
201.67        81.73224
202.13        77.55354
202.58        70.64694
203.04        62.06305
203.50        54.97511
203.96         54.2784
204.42        59.52303
204.88        67.66268
205.34        75.57444
205.80        81.05711
206.26        84.35295
206.72        86.29295
207.18        87.25288
207.64        87.75015
208.10        87.89102
208.55        87.83453
209.01        86.58857
209.47        83.57776
209.93        77.21649
210.39        61.20551
210.85        13.03669
211.31       -47.24301
211.77        20.52568
212.23        66.64978
212.69        82.49454
213.14        85.78806
213.60        81.80133
214.06        70.96172
214.52        51.42709
214.98        36.88288
215.44        42.52225
215.90        55.44934
216.36        65.91294
216.81          70.896
217.27          71.863
217.73        71.19971
218.19         68.8241
218.65        64.09935
219.11        57.10951
219.57        47.26465
220.02        36.86676
220.48        33.40583
220.94        38.49781
221.40        48.86401
221.86        59.22181
222.32        64.34602
222.77        64.40722
223.23        61.66487
223.69        58.04418
224.15        55.34039
224.61        53.81764
225.06        52.59359
225.52        51.83031
225.98        51.54693
226.44        51.56179
226.90         51.7143
227.36        51.70351
227.81        51.13599
228.27        49.94884
228.73        48.16675
229.19        45.62233
229.65          42.337
230.10        38.64007
230.56        35.07549
231.02        32.19497
231.48        30.70446
231.93         30.5611
232.39        31.55721
232.85        33.22408
233.31        34.90194
233.77        36.39987
234.22        37.96301
234.68         39.4272
235.14        40.81427
235.60        42.21725
236.05        43.50846
236.51        45.28238
236.97        48.36232
237.43         52.6679
237.88        57.86234
238.34        62.47445
238.80        65.60232
239.26        67.29727
239.71        67.54939
240.17        66.72273
240.63        67.52004
241.08        71.21483
241.54         75.4146
242.00        78.05623
242.46        78.38123
242.91        76.61505
243.37        71.65311
243.83        61.70628
244.28        51.88163
244.74        57.95767
245.20        75.94009
245.66        89.57996
246.11        95.21169
246.57        95.79534
247.03        91.63036
247.48        83.35526
247.94        78.73809
248.40        84.52876
248.85        96.38808
249.31        106.1541
249.77        107.0261
250.22        101.3841
250.68        93.65083
251.14        87.51482
251.59        85.98548
252.05        89.28218
252.51        96.94162
252.96        107.4808
253.42        113.1856
253.88        109.2502
254.33        100.6722
254.79        93.48104
255.25        89.83961
255.70        88.69159
256.16        89.00113
256.62        90.10167
257.07        91.53316
257.53        93.21355
257.99        94.48906
258.44        94.57806
258.90        93.38699
259.35        90.77644
259.81        87.85493
260.27        84.82739
260.72        82.07232
261.18        80.13817
261.63        78.42214
262.09        77.23587
262.55        76.38297
263.00        75.61427
263.46        75.07864
263.91        74.34772
264.37        73.32169
264.83        71.92665
265.28        70.25739
265.74        68.60341
266.19         67.0119
266.65        65.60658
267.11        64.26965
267.56        62.98104
268.02        61.84502
268.47        60.80963
268.93        59.88391
269.38         58.9739
269.84        57.96769
270.30        56.82701
270.75        55.57986
271.21        54.27727
271.66        52.94039
272.12        51.62637
272.57        50.30057
273.03        49.04851
273.48        47.90101
273.94        46.93324
274.39        46.08651
274.85        45.37221
275.31        44.68852
275.76        43.97933
276.22        43.29782
276.67        42.59759
277.13        41.95269
277.58        41.29819
278.04        40.66426
278.49        39.96738
278.95        39.23173
279.40        38.40649
279.86        37.58845
280.31        36.75999
280.77        36.03545
281.22        35.39522
281.68        34.88073
282.13        34.45912
282.59        34.14969
283.04        33.91629
283.50        33.77806
283.95        33.69581
284.41        33.66346
284.86        33.64763
285.32        33.66402
285.77        33.69249
286.22        33.76407
286.68        33.89042
287.13        34.01343
287.59        34.14044
288.04        34.19634
288.50        34.20813
288.95        34.16949
289.41        34.12924
289.86        34.09819
290.32        34.12175
290.77        34.19516
291.22        34.35666
291.68        34.64445
292.13        35.06847
292.59        35.66936
293.04        36.42824
293.50        37.34011
293.95        38.38781
294.40        39.56748
294.86        40.92524
295.31        42.52608
295.77        44.36727
296.22        46.38947
296.68        48.45699
297.13        50.32272
297.58        51.93139
298.04        53.35411
298.49        54.73001
298.95        56.33834
299.40        58.24306
299.85        60.38679
300.31        62.68657
300.76        64.93289
301.21        67.05751
301.67        69.12794
302.12        71.13391
302.58         73.1716
303.03        75.22264
303.48        77.28624
303.94        79.39602
304.39        81.50755
304.84        83.64591
305.30        85.82732
305.75        87.99424
306.20        90.16911
306.66        92.35955
307.11         94.4911
307.57        96.55702
308.02        98.40756
308.47        100.0425
308.93        101.5112
309.38        102.8224
309.83        104.1151
310.29        105.4511
310.74        106.7765
311.19        108.0842
311.65        109.3252
312.10        110.4403
312.55        111.4473
313.00        112.3676
313.46        113.2424
313.91         114.065
314.36        114.8461
314.82        115.5432
315.27        116.0848
315.72        116.4711
316.18        116.7521
316.63        117.0065
317.08        117.3984
317.53         117.961
317.99        118.6349
318.44        119.3396
318.89        119.9129
319.35        120.3057
319.80        120.5786
320.25        120.7705
320.70         120.957
321.16        121.1573
321.61        121.3624
322.06        121.5881
322.51        121.8769
322.97        122.2067
323.42        122.6097
323.87        122.9997
324.32        123.2518
324.78        123.3242
325.23        123.3038
325.68        123.2505
326.13        123.3013
326.59        123.4723
327.04        123.7776
327.49        124.1681
327.94        124.6018
328.39        125.0517
328.85        125.4892
329.30        125.9528
329.75        126.3144
330.20        126.5514
330.66        126.6435
331.11        126.7313
331.56        126.9178
332.01         127.249
332.46        127.6995
332.92        128.1571
333.37        128.6005
333.82        128.9389
334.27        129.2035
334.72         129.455
335.17        129.7941
335.63        130.2175
336.08        130.7561
336.53        131.3154
336.98        131.7941
337.43        132.1672
337.88        132.4678
338.34        132.7422
338.79        133.1333
339.24        133.6432
339.69        134.2228
340.14        134.8123
340.59         135.315
341.05         135.708
341.50        136.0506
341.95          136.34
342.40        136.5883
342.85        136.8161
343.30        137.0006
343.75        137.2399
344.20        137.6946
344.66        138.3727
345.11        139.2129
345.56        139.9932
346.01         140.354
346.46        140.2369
346.91          139.77
347.36        139.2184
347.81        138.9936
348.26        139.1905
348.72        139.6775
349.17        140.2628
349.62        140.6626
350.07        140.7809
350.52         140.711
350.97        140.5141
351.42        140.2845
351.87        140.0633
352.32        139.8074
352.77         139.529
353.22        139.2609
353.67        138.9979
354.13        138.7474
354.58         138.439
355.03        138.0198
355.48        137.4704
355.93        136.8037
356.38        136.0444
356.83        135.2325
357.28        134.3889
357.73        133.5236
358.18        132.6332
358.63        131.7034
359.08        130.7493
359.53        129.7987
359.98        128.9009
360.43        128.1266
360.88        127.4819
361.33         126.926
361.78        126.4123
362.23        125.8608
362.68        125.2279
363.13        124.5351
363.58        123.7642
364.03        122.7862
364.48         121.785
364.93        120.6579
365.38        119.4879
365.83        118.3215
366.28        117.1914
366.73        116.0928
367.18        115.0869
367.63        114.2656
368.08         113.631
368.53        113.1531
368.98        112.7014
369.43         112.061
369.88        111.1828
370.33        110.1236
370.78         109.011
371.23        108.0648
371.68        107.3413
372.13        106.7652
372.58        106.2485
373.03        105.6494
373.48        104.9226
373.93        104.1254
374.38        103.2814
374.83        102.4177
375.28        101.5572
375.72        100.6743
376.17        99.84273
376.62        99.10946
377.07        98.48217
377.52        97.93774
377.97        97.44093
378.42        96.93177
378.87         96.3927
379.32        95.84859
379.77        95.28683
380.22         94.6852
380.67        94.04497
381.11        93.36839
381.56        92.71487
382.01        92.20094
382.46        91.85288
382.91        91.64196
383.36        91.46648
383.81        91.16104
384.26         90.6892
384.71        90.09987
385.15        89.47604
385.60        89.01423
386.05         88.7295
386.50        88.55535
386.95         88.4089
387.40         88.1665
387.85        87.80674
388.29        87.34216
388.74        86.90164
389.19        86.46017
389.64        86.01825
390.09        85.53125
390.54        85.06919
390.98        84.73801
391.43        84.60374
391.88         84.6156
392.33        84.56898
392.78        84.30024
393.23        83.80939
393.67        82.84802
394.12        81.77026
394.57        81.89046
395.02         81.8815
395.47        82.04667
395.91         81.6519
396.36        81.52274
396.81        81.55534
397.26        81.42689
397.71        81.14531
398.15        80.88354
398.60         80.7454
399.05        80.45739
399.50        80.12831
399.95        80.21115
400.39        80.55516
400.84        80.45356
401.29        79.90103
401.74         79.2292
402.18        78.65833
402.63        78.57526
403.08        78.85694
403.53        78.75543
403.97          78.216
404.42        77.73094
404.87        77.41852
405.32        77.23128
405.76        77.16512
406.21        77.29945
406.66        77.50274
407.11         77.3449
407.55        76.86055
408.00        76.67155
408.45        76.77641
408.90        76.24242
409.34        75.32122
409.79        75.40424
410.24        76.29406
410.68        76.61593
411.13        76.26656
411.58        75.98254
412.03        75.85466
412.47        75.73849
412.92        75.64307
413.37        75.60696
413.81        75.59018
414.26        75.60192
414.71        75.61131
415.15        75.63522
415.60        75.62306
416.05        75.55887
416.49        75.44703
416.94        75.28121
417.39          75.104
417.83        74.98249
418.28        74.92202
418.73        74.88658
419.17        74.86169
419.62        74.82646
420.07        74.78769
420.51        74.76342
420.96        74.72689
421.41         74.6601
421.85        74.54541
422.30        74.21146
422.74        73.81902
423.19        74.17204
423.64        75.03603
424.08        75.26775
424.53        74.82262
424.98        74.27912
425.42        74.80762
425.87        74.63295
426.31         74.1881
426.76        74.35197
427.21        74.97503
427.65        74.96275
428.10        74.40005
428.54        74.25064
428.99        74.55637
429.44         74.9795
429.88        75.28741
430.33        74.92244
430.77        74.06764
431.22        73.86879
431.66        74.28069
432.11        74.37909
432.56        74.25521
433.00        74.55888
433.45        74.99236
433.89        75.44444
434.34        75.92635
434.78        74.43671
435.23        74.00841
435.67        74.91675
436.12        75.32875
436.57        75.45813
437.01         74.7468
437.46        74.51559
437.90        74.68843
438.35        75.73692
438.79        75.36051
439.24        75.48369
439.68        75.46696
440.13        75.42909
440.57        75.41553
441.02        75.47137
441.46        75.55492
441.91        75.62618
442.35        75.61409
442.80        75.52473
443.24         75.9096
443.69        75.96854
444.13        75.79919
444.58        76.23722
445.02         75.9091
445.47        75.95232
445.91         76.0158
446.36        75.90142
446.80        75.52256
447.24        76.19747
447.69        75.85498
448.13        75.80671
448.58        76.42937
449.02        76.43037
449.47        76.16558
449.91         76.0389
450.36         76.1173
450.80        76.09531
451.25        75.99225
451.69        75.96609
452.13         76.0078
452.58        76.01399
453.02        75.97546
453.47        75.91629
453.91        75.82249
454.36        75.79245
454.80         75.7455
455.24        75.39884
455.69         74.9068
456.13        74.58471
456.58        74.52494
457.02        74.70897
457.46        75.03111
457.91         74.8037
458.35        74.39466
458.79         74.1618
459.24        74.20809
459.68          74.188
460.13        74.13084
460.57        73.90705
461.01        73.85306
461.46        73.95495
461.90        73.62349
462.34        73.75183
462.79        73.61237
463.23        73.40334
463.68        73.04435
464.12        72.89789
464.56          72.978
465.01        73.07564
465.45        73.01631
465.89         73.0042
466.34        73.06975
466.78        72.68662
467.22        71.88401
467.67        72.71926
468.11        72.14617
468.55        72.29128
468.99        72.21124
469.44        72.17269
469.88        72.14561
470.32        72.02296
470.77        71.85004
471.21         71.6975
471.65        71.58762
472.10        71.52651
472.54         71.4584
472.98        71.39079
473.42        71.33482
473.87        71.15954
474.31        70.82724
474.75        71.14069
475.20        71.83596
475.64        71.62905
476.08        70.66244
476.52          70.421
476.97        71.00109
477.41        70.99378
477.85        71.01239
478.29        71.52564
478.74        71.35966
479.18        70.57266
479.62        70.89226
480.06        70.71803
480.50        70.68945
480.95         70.7313
481.39        70.73603
481.83        70.89196
482.27        70.91563
482.72        70.30426
483.16        70.55224
483.60        70.37132
484.04         70.1698
484.48        70.19742
484.93        70.76286
485.37        70.09713
485.81        71.05993
486.25        71.54496
486.69        72.42703
487.14        71.04697
487.58        70.37426
488.02        70.45155
488.46        70.75555
488.90        70.62846
489.34        70.45557
489.79        69.68311
490.23        70.20921
490.67         70.0953
491.11         69.8704
491.55        69.80576
491.99        69.88805
492.43        69.90154
492.88        69.81558
493.32        69.76886
493.76        69.75694
494.20        69.78693
494.64        69.87309
495.08        69.92304
495.52        69.94192
495.96        70.13866
496.41        70.40936
496.85        70.25919
497.29        69.77174
497.73        69.62522
498.17        69.72993
498.61        69.84007
499.05         69.8439
499.49        69.78231
499.93        69.71546
500.37        69.65797
500.82        69.58788
501.26        69.75304
501.70        70.20795
502.14        69.40135
502.58          69.858
503.02        69.82885
503.46        69.77192
503.90        69.78752
504.34        69.77289
504.78        69.77798
505.22         69.7632
505.66        69.52873
506.10        69.18129
506.54        69.26648
506.98         69.7193
507.42        69.64758
507.86         69.6124
508.30        69.41799
508.74        69.60703
509.18        69.59299
509.62        69.48235
510.06        69.38846
510.50         69.3189
510.94        69.23886
511.38        69.17429
511.82        69.17892
512.26        69.25517
512.70         69.3877
513.14         69.5078
513.58        69.54595
514.02        69.49279
514.46        69.29102
514.90        68.97437
515.34        69.08253
515.78        68.88557
516.22        68.96143
516.66        69.05946
517.10        69.15536
517.54         69.2236
517.98        69.28459
518.42        69.33385
518.86        69.33586
519.30         69.2891
519.74        69.21554
520.18        69.13897
520.62        69.05553
521.06        68.99909
521.50        69.06596
521.93        69.21161
522.37        69.25531
522.81        69.18243
523.25        69.07388
523.69        68.98071
524.13        68.95518
524.57        69.01121
525.01        69.12608
525.45        69.24812
525.89        69.29783
526.32        69.24973
526.76        69.14188
527.20        69.00996
527.64        68.91959
528.08        68.88934
528.52        68.89783
528.96        68.92269
529.40        68.92888
529.83        68.90144
530.27           68.87
530.71        68.83685
531.15        68.81253
531.59        68.80164
532.03          68.796
532.46        68.79563
532.90        68.82503
533.34        68.87502
533.78        68.93729
534.22        68.98864
534.66        68.98623
535.09          68.929
535.53          68.843
535.97        68.74002
536.41        68.64848
536.85        68.58302
537.28        68.54224
537.72        68.53574
538.16        68.56754
538.60        68.63492
539.04        68.74394
539.47        68.85397
539.91        68.94308
540.35        68.98331
540.79        68.99247
541.22        68.96454
541.66        68.90282
542.10        68.81143
542.54        68.69315
542.97        68.56622
543.41        68.49656
543.85        68.48177
544.29        68.51699
544.72        68.55504
545.16          68.547
545.60        68.46628
546.04        68.34579
546.47        68.23328
546.91        68.16138
547.35        68.16096
547.79         68.3335
548.22        68.56593
548.66        68.58751
549.10        68.39619
549.53        68.26944
549.97        68.26134
550.41        68.25258
550.84        68.23845
551.28        68.36514
551.72        68.58837
552.15        68.57687
552.59        68.27367
553.03        68.53489
553.46        68.10771
553.90        68.04532
554.34        67.92873
554.77        68.38014
555.21        68.39914
555.65        68.31664
556.08        68.32909
556.52        68.24067
556.96        68.20445
557.39        68.17474
557.83         68.1862
558.27        68.21397
558.70        68.24715
559.14        68.28793
559.57        68.30782
560.01        68.35282
560.45        68.39044
560.88         68.3066
561.32        68.18192
561.75        68.14702
562.19        68.21569
562.63        68.22894
563.06        68.18576
563.50        68.15765
563.93        68.14308
564.37        68.24519
564.80        68.39275
565.24        68.40331
565.68        68.29767
566.11        68.29391
566.55        68.42434
566.98        68.51931
567.42        68.57089
567.85        68.61945
568.29        68.69572
568.72        68.59689
569.16        68.38247
569.60         68.4308
570.03        68.78607
570.47        68.51534
570.90        68.42087
571.34        69.17043
571.77        68.94342
572.21        68.70136
572.64        68.91856
573.08          68.845
573.51        68.16698
573.95        68.45589
574.38        69.36376
574.82        68.98241
