SpectraSmart Spectrum 2.9.0.0
--------- Device Information -----------
Spectrum Name :  反射率_0
Saving Time :  2024/04/28 00:06:43
Spectro-Module Model Name : SE2030-DUVN
Spectro-Module Serial Number : OS361AC55029948
Wavelength Start : 200
Wavelength End : 1025
Wavelength Unit : Wavelength(nm)
Spectrum Unit : Reflectance(%)
-----------Spectrum Setting ------------
Integration Time : 20ms
Average : 10
Boxcar : 0
Background removal :  enabled
linearity correction :  enabled
SC :  disabled
Intensity correction :  disabled
DWT denoise :  enabled
savitzky-golay :  disabled
FFT :  disabled
Running average :  disabled
Kalman :  disabled
High pass :  disabled
---------------BEGIN--------------------
Wavelength(nm)             Reflectance(%)
200.29               0
200.75        36.88603
201.21        15.70309
201.67        4.642631
202.13        7.735894
202.58        20.11979
203.04        37.33957
203.50        56.26513
203.96        70.70573
204.42         78.4454
204.88        82.20948
205.34        83.43938
205.80        83.38481
206.26        82.39642
206.72         79.1115
207.18        72.69042
207.64        66.29858
208.10        64.37936
208.55        66.71042
209.01        67.99378
209.47        65.22078
209.93        56.42093
210.39        33.17089
210.85       -38.09541
211.31       -129.2569
211.77       -29.63087
212.23        38.45683
212.69        63.11702
213.14        71.47948
213.60         72.5273
214.06        69.35637
214.52        61.07875
214.98        52.71407
215.44        51.85539
215.90        54.09553
216.36        56.52007
216.81        58.05238
217.27        58.53534
217.73        58.98464
218.19        58.15484
218.65        53.47903
219.11         44.5017
219.57        31.44522
220.02        17.21059
220.48        11.17202
220.94        15.91353
221.40        27.02898
221.86        39.56844
222.32        48.74508
222.77        53.95805
223.23        56.81689
223.69        57.35052
224.15        55.24164
224.61        50.94835
225.06        44.42841
225.52         38.1308
225.98        36.60184
226.44        39.96273
226.90        45.31508
227.36        50.03547
227.81        52.20374
228.27         51.9982
228.73         50.1605
229.19        47.07623
229.65        43.68038
230.10        40.58942
230.56        37.95398
231.02        35.80381
231.48         34.2255
231.93        33.12988
232.39        32.61296
232.85        32.73668
233.31        33.53095
233.77        34.85349
234.22        36.66275
234.68        38.23324
235.14        38.78831
235.60        38.20325
236.05        36.40995
236.51        34.43969
236.97        34.46988
237.43        37.20995
237.88         42.2146
238.34        47.10862
238.80        49.39028
239.26        48.38354
239.71        43.40623
240.17        34.97679
240.63        31.30364
241.08         38.8803
241.54        51.32332
242.00        61.10992
242.46        65.67586
242.91         66.2492
243.37        62.82286
243.83        53.48831
244.28        41.81332
244.74        42.70427
245.20        54.83863
245.66        64.49138
246.11        66.20586
246.57         61.1625
247.03        49.74566
247.48        31.58924
247.94        18.29652
248.40        22.86821
248.85        37.90601
249.31        55.19925
249.77        68.54593
250.22        76.80766
250.68        81.91595
251.14        84.04409
251.59        83.03245
252.05          78.951
252.51        70.35818
252.96        56.91542
253.42        45.57941
253.88        42.37742
254.33        45.79237
254.79        50.11613
255.25        50.53217
255.70        47.77681
256.16        44.35691
256.62        42.41603
257.07        44.10385
257.53        48.47169
257.99        53.17863
258.44        56.50149
258.90        57.40935
259.35        56.04394
259.81          53.714
260.27        51.01535
260.72        48.64676
261.18        47.04665
261.63        45.71906
262.09        44.66474
262.55        43.57327
263.00        42.33439
263.46        41.16323
263.91        40.04766
264.37        39.23725
264.83        38.67489
265.28        38.23938
265.74        37.82888
266.19        37.17249
266.65        36.29493
267.11        35.25797
267.56        34.16373
268.02        33.26227
268.47        32.58097
268.93        32.05415
269.38         31.6286
269.84        31.23975
270.30         30.8389
270.75        30.43506
271.21        29.96475
271.66        29.29356
272.12        28.43267
272.57        27.40175
273.03        26.34906
273.48        25.43994
273.94        24.76896
274.39         24.2692
274.85        23.90193
275.31        23.54726
275.76          23.157
276.22        22.77669
276.67         22.4082
277.13        22.11773
277.58        21.87355
278.04        21.68226
278.49        21.45119
278.95        21.13942
279.40        20.70641
279.86        20.22348
280.31        19.74663
280.77        19.44819
281.22        19.31939
281.68        19.33753
282.13        19.38041
282.59        19.29924
283.04        19.06788
283.50        18.74622
283.95         18.4405
284.41        18.33252
284.86        18.43936
285.32        18.70022
285.77        18.98519
286.22        19.13211
286.68        19.12413
287.13        18.99281
287.59        18.85138
288.04         18.8063
288.50        18.90809
288.95        19.09174
289.41        19.30891
289.86        19.45452
290.32        19.52474
290.77        19.55877
291.22        19.61585
291.68        19.77507
292.13        20.05628
292.59        20.45292
293.04        20.94402
293.50        21.51465
293.95         22.1539
294.40        22.88766
294.86        23.72562
295.31        24.67215
295.77        25.73713
296.22        26.89859
296.68        28.16678
297.13        29.52949
297.58        30.96869
298.04        32.46769
298.49        33.98472
298.95        35.49293
299.40        36.99735
299.85        38.52155
300.31        40.12395
300.76        41.83784
301.21        43.66412
301.67        45.58427
302.12        47.51578
302.58        49.40923
303.03         51.2272
303.48        53.00449
303.94        54.81791
304.39        56.70943
304.84        58.71178
305.30        60.81163
305.75        62.91275
306.20        64.94971
306.66        66.91714
307.11         68.7827
307.57        70.61816
308.02        72.42321
308.47        74.20927
308.93        75.96408
309.38        77.59357
309.83        79.05162
310.29        80.36201
310.74        81.53451
311.19         82.6605
311.65        83.85491
312.10        85.10516
312.55        86.37476
313.00        87.60268
313.46        88.70565
313.91        89.65026
314.36        90.48138
314.82        91.21405
315.27        91.86541
315.72        92.45169
316.18        92.98076
316.63        93.47451
317.08        94.00852
317.53        94.59573
317.99        95.21074
318.44        95.81747
318.89        96.32549
319.35        96.71155
319.80        97.01561
320.25        97.26038
320.70        97.49299
321.16        97.72449
321.61        97.95538
322.06        98.20818
322.51        98.52876
322.97        98.90385
323.42        99.35931
323.87        99.80813
324.32        100.1227
324.78        100.2627
325.23        100.2979
325.68        100.3095
326.13        100.4653
326.59        100.7812
327.04        101.2469
327.49          101.76
327.94        102.1843
328.39        102.4771
328.85         102.654
329.30        102.8068
329.75        102.9432
330.20        103.0905
330.66        103.2083
331.11        103.3967
331.56        103.7065
332.01        104.1558
332.46        104.7334
332.92        105.3268
333.37        105.8778
333.82        106.2943
334.27        106.5935
334.72        106.8385
335.17         107.146
335.63        107.5271
336.08        108.0097
336.53        108.5023
336.98        108.8957
337.43        109.1728
337.88        109.3798
338.34        109.6069
338.79        110.0469
339.24         110.718
339.69        111.5584
340.14        112.4474
340.59        113.1907
341.05        113.7316
341.50        114.1329
341.95        114.4578
342.40        114.8278
342.85        115.2823
343.30        115.7714
343.75        116.2819
344.20        116.7963
344.66        117.3003
345.11        117.8021
345.56        118.2545
346.01         118.569
346.46        118.7439
346.91        118.8184
347.36        118.8823
347.81        119.0783
348.26        119.4329
348.72        119.8893
349.17        120.3829
349.62        120.8298
350.07        121.1825
350.52        121.4616
350.97        121.6257
351.42        121.6088
351.87        121.4243
352.32        121.1093
352.77        120.7628
353.22        120.5454
353.67         120.487
354.13        120.5372
354.58        120.6129
355.03        120.6375
355.48        120.5616
355.93        120.4085
356.38        120.1096
356.83          119.56
357.28        118.7714
357.73        117.7974
358.18        116.7972
358.63        116.0172
359.08        115.5174
359.53         115.236
359.98        115.0531
360.43        114.7686
360.88        114.3168
361.33        113.7419
361.78         113.108
362.23        112.5178
362.68        111.9942
363.13        111.5019
363.58        110.9727
364.03        110.2619
364.48        109.4346
364.93        108.4801
365.38        107.5051
365.83        106.6302
366.28        105.8906
366.73        105.2559
367.18         104.673
367.63        104.0541
368.08        103.3784
368.53          102.68
368.98        101.9983
369.43        101.3936
369.88        100.8778
370.33        100.4179
370.78        99.98217
371.23        99.52782
371.68        99.02959
372.13        98.48776
372.58        97.89839
373.03        97.25998
373.48        96.58007
373.93        95.87023
374.38        95.13625
374.83        94.38227
375.28        93.62341
375.72        92.85828
376.17        92.16096
376.62        91.56937
377.07        91.08874
377.52        90.69074
377.97        90.33783
378.42        89.97353
378.87        89.57351
379.32        89.14988
379.77        88.69013
380.22        88.17365
380.67        87.60472
381.11        86.99914
381.56         86.3965
382.01        85.87665
382.46         85.4734
382.91        85.17741
383.36        84.96066
383.81        84.77162
384.26        84.58239
384.71        84.38797
385.15         84.1769
385.60        83.99453
386.05        83.81626
386.50        83.62724
386.95        83.37868
387.40        83.00735
387.85        82.52468
388.29        81.92622
388.74        81.38503
389.19        80.95046
389.64        80.62431
390.09        80.35398
390.54        80.11466
390.98        79.83832
391.43        79.55306
391.88        79.33368
392.33        79.11845
392.78        78.78029
393.23        78.33503
393.67        78.08036
394.12        77.20057
394.57        77.68295
395.02        77.90343
395.47        77.88562
395.91        77.30634
396.36        77.03796
396.81        77.11553
397.26        77.04398
397.71        76.80003
398.15        76.52889
398.60         76.3201
399.05        76.01749
399.50        75.68309
399.95        75.57465
400.39        75.63948
400.84        75.40997
401.29        74.93193
401.74        74.69157
402.18        74.68777
402.63        74.49518
403.08        74.14005
403.53         73.9297
403.97        73.87787
404.42        73.85151
404.87        73.81963
405.32        73.81664
405.76        73.81499
406.21        73.76078
406.66        73.65105
407.11        73.59274
407.55        73.54729
408.00        73.27086
408.45        72.82788
408.90        72.37138
409.34        72.02087
409.79        72.02264
410.24        72.28071
410.68         72.3941
411.13        72.31174
411.58        72.26688
412.03        72.27254
412.47        72.25678
412.92        72.19811
413.37        72.12595
413.81        72.04459
414.26        72.02148
414.71        72.04615
415.15        72.12614
415.60        72.19987
416.05         72.2216
416.49        72.18537
416.94        72.09646
417.39        72.00453
417.83          71.986
418.28        72.04485
418.73        72.13301
419.17        72.21841
419.62        72.25507
420.07        72.24255
420.51         72.2113
420.96        72.14279
421.41        72.02747
421.85        71.86018
422.30        71.48505
422.74        71.06081
423.19        71.39758
423.64        72.29853
424.08        72.59877
424.53        72.17186
424.98        72.04303
425.42        72.25982
425.87        72.02148
426.31        71.48055
426.76        71.53572
427.21        72.08222
427.65        72.15971
428.10        71.78033
428.54        71.72771
428.99        72.04175
429.44        72.28272
429.88        72.35281
430.33        72.32333
430.77        72.14325
431.22         71.9616
431.66        71.83353
432.11        71.81197
432.56        72.05279
433.00        72.45753
433.45        72.65573
433.89        73.10851
434.34        73.87629
434.78         71.9393
435.23        71.66393
435.67        72.75259
436.12        73.37721
436.57        73.70695
437.01        73.08971
437.46         72.7178
437.90        73.02638
438.35        74.12083
438.79        73.54049
439.24        73.59435
439.68        73.58949
440.13        73.44741
440.57          73.255
441.02        73.62982
441.46        74.35683
441.91         74.2529
442.35         73.4836
442.80         73.6179
443.24        74.47383
443.69        74.57581
444.13        73.96413
444.58        73.85385
445.02        74.22061
445.47        74.39458
445.91        74.33807
446.36        74.38303
446.80        74.50791
447.24        74.57236
447.69        74.60503
448.13        74.71165
448.58        74.86952
449.02        74.90961
449.47        74.84982
449.91        74.81094
450.36        74.82236
450.80         74.7806
451.25        74.72888
451.69        74.76113
452.13        74.86875
452.58        74.95497
453.02        74.98849
453.47        74.96548
453.91        74.87041
454.36        74.80036
454.80        74.69621
455.24        74.32903
455.69        73.83741
456.13        73.44904
456.58        73.32739
457.02        73.33843
457.46        74.08171
457.91        73.71783
458.35        72.90543
458.79        72.45819
459.24        72.50171
459.68        72.44791
460.13        72.29316
460.57        72.00558
461.01         71.9164
461.46         71.9296
461.90        71.53476
462.34        71.81612
462.79        72.06834
463.23        71.99362
463.68        71.53713
464.12         71.3433
464.56        71.44758
465.01        71.61462
465.45        71.63319
465.89        71.46004
466.34        71.21417
466.78        70.83952
467.22        70.38158
467.67        71.14094
468.11        70.94171
468.55        70.87107
468.99        70.38984
469.44        70.20955
469.88        70.35135
470.32        70.43474
470.77        70.40585
471.21        70.33598
471.65        70.20284
472.10        69.99165
472.54        69.74648
472.98        69.57388
473.42        69.49728
473.87        69.50338
474.31        69.48818
474.75        69.40687
475.20        69.29866
475.64        68.96304
476.08        69.13183
476.52        69.05647
476.97        68.95478
477.41        68.89868
477.85        68.72293
478.29        68.94801
478.74        68.98103
479.18        68.70749
479.62        68.93624
480.06         68.9122
480.50         68.9201
480.95        68.91199
481.39        68.84297
481.83        68.82982
482.27        68.78271
482.72        68.50785
483.16        68.57901
483.60        68.42326
484.04        68.23788
484.48        68.19995
484.93         68.3931
485.37        68.44347
485.81        68.67329
486.25        69.07301
486.69        69.97781
487.14        69.87589
487.58        69.03336
488.02        68.83237
488.46        68.52837
488.90        68.60781
489.34        68.71559
489.79        67.82208
490.23        68.45108
490.67         68.1059
491.11         67.6734
491.55        67.60734
491.99        67.88705
492.43        67.97298
492.88        67.81185
493.32        67.77338
493.76        67.84013
494.20        67.87854
494.64        67.89429
495.08        67.84639
495.52         67.7877
495.96        67.94929
496.41        68.24822
496.85        68.29082
497.29        68.06346
497.73        67.90348
498.17        67.76456
498.61        67.84167
499.05        68.02792
499.49        67.93674
499.93        67.62339
500.37        67.49262
500.82        67.53326
501.26        67.41199
501.70        67.68417
502.14        66.96053
502.58         67.5409
503.02        67.60605
503.46        67.50857
503.90        67.50314
504.34        67.50992
504.78        67.54247
505.22        67.55918
505.66        67.42255
506.10        67.21729
506.54         67.2507
506.98        67.47527
507.42        67.53204
507.86        67.71799
508.30        67.27666
508.74        67.66904
509.18        67.61833
509.62        67.54235
510.06         67.4907
510.50        67.47713
510.94        67.46747
511.38        67.44063
511.82        67.40322
512.26        67.35112
512.70        67.28589
513.14        67.21124
513.58        67.16525
514.02        67.15971
514.46        67.12335
514.90        67.01771
515.34        67.15446
515.78        66.94485
516.22        66.87051
516.66        66.79459
517.10        66.78941
517.54        66.85934
517.98        66.98686
518.42        67.13408
518.86        67.22353
519.30         67.2369
519.74        67.19772
520.18        67.13083
520.62         67.0761
521.06        67.04993
521.50        67.04082
521.93        67.05367
522.37        67.08363
522.81        67.12943
523.25        67.18587
523.69        67.23775
524.13        67.25959
524.57        67.24362
525.01        67.19626
525.45        67.11847
525.89        67.01347
526.32        66.88444
526.76        66.75008
527.20        66.62689
527.64        66.54832
528.08        66.52033
528.52        66.53028
528.96        66.56467
529.40        66.59924
529.83        66.61774
530.27         66.6407
530.71        66.64631
531.15        66.61102
531.59         66.5364
532.03        66.42802
532.46        66.32349
532.90        66.30695
533.34        66.38338
533.78        66.52528
534.22        66.67415
534.66        66.74042
535.09         66.6964
535.53        66.59039
535.97        66.45365
536.41        66.35184
536.85        66.30647
537.28        66.30096
537.72        66.32114
538.16        66.33477
538.60        66.33479
539.04        66.34705
539.47        66.35592
539.91        66.37351
540.35        66.38206
540.79        66.38692
541.22        66.38013
541.66        66.35827
542.10         66.3216
542.54         66.2805
542.97        66.22917
543.41        66.19576
543.85        66.16808
544.29        66.13997
544.72        66.11763
545.16        66.11745
545.60        66.12314
546.04        66.21156
546.47        66.32897
546.91        66.21697
547.35        65.95914
547.79        65.97446
548.22        66.20045
548.66        66.30392
549.10        66.22377
549.53        66.06297
549.97        65.88916
550.41        65.81828
550.84        65.86199
551.28        65.97005
551.72         66.1069
552.15        66.14192
552.59        66.05537
553.03        66.26423
553.46        66.05113
553.90        66.06442
554.34        66.08957
554.77         66.0767
555.21        66.02973
555.65         66.1123
556.08        66.18677
556.52        66.11954
556.96         65.9196
557.39        65.82627
557.83        65.87592
558.27        65.94034
558.70        65.99094
559.14         66.0134
559.57         65.9832
560.01        65.98614
560.45        65.99062
560.88        65.87674
561.32        65.73952
561.75        65.66727
562.19        65.70535
562.63        65.88091
563.06         66.0983
563.50        66.06187
563.93        65.80278
564.37        65.72111
564.80        65.81386
565.24        65.89924
565.68        65.94289
566.11        65.97217
566.55        66.00204
566.98        66.01723
567.42        66.02746
567.85        65.99474
568.29        65.98049
568.72        65.89772
569.16        65.80482
569.60        65.94409
570.03        66.25839
570.47        66.13358
570.90        66.33371
571.34         66.7635
571.77        66.68763
572.21        66.56563
572.64        66.57855
573.08        66.49061
573.51        66.19329
573.95        66.47086
574.38        66.78033
574.82        66.81679
