SpectraSmart Spectrum 2.9.0.0
--------- Device Information -----------
Spectrum Name :  反射率_0
Saving Time :  2024/04/27 23:50:03
Spectro-Module Model Name : SE2030-DUVN
Spectro-Module Serial Number : OS361AC55029948
Wavelength Start : 200
Wavelength End : 1025
Wavelength Unit : Wavelength(nm)
Spectrum Unit : Reflectance(%)
-----------Spectrum Setting ------------
Integration Time : 20ms
Average : 10
Boxcar : 0
Background removal :  enabled
linearity correction :  enabled
SC :  disabled
Intensity correction :  disabled
DWT denoise :  enabled
savitzky-golay :  disabled
FFT :  disabled
Running average :  disabled
Kalman :  disabled
High pass :  disabled
---------------BEGIN--------------------
Wavelength(nm)             Reflectance(%)
200.29               0
200.75        99.52084
201.21        102.9424
201.67        103.8989
202.13        103.2267
202.58        101.3532
203.04        99.07262
203.50        96.62457
203.96        94.87531
204.42        94.05514
204.88         93.7101
205.34        93.68913
205.80        93.93552
206.26        94.23573
206.72        94.39529
207.18        93.75255
207.64        90.82088
208.10         86.9017
208.55        84.86556
209.01        82.95718
209.47        79.30667
209.93        71.97486
210.39        53.88375
210.85        3.432095
211.31       -38.13412
211.77        49.67535
212.23        95.70119
212.69        109.8775
213.14        113.5899
213.60        112.1111
214.06        105.7332
214.52        92.05799
214.98        77.04368
215.44        73.24065
215.90        76.78521
216.36        81.30094
216.81        83.49042
217.27        83.67761
217.73        83.22604
218.19        82.44033
218.65        81.47797
219.11        80.49521
219.57        79.18681
220.02        77.36433
220.48        76.13201
220.94        75.61722
221.40        75.63255
221.86        76.15814
222.32        77.14586
222.77        78.20862
223.23        79.01604
223.69        79.11237
224.15        77.85889
224.61        75.23434
225.06        71.41673
225.52        67.04335
225.98        63.47834
226.44        61.57956
226.90        60.79633
227.36          60.741
227.81        61.02388
228.27        61.46041
228.73        62.02691
229.19        62.21808
229.65        61.07809
230.10         58.4417
230.56        55.08292
231.02        51.73178
231.48        49.44868
231.93         48.3945
232.39        48.30273
232.85        49.04522
233.31        50.49109
233.77        52.38943
234.22        54.71944
234.68          56.832
235.14        57.96515
235.60        58.03653
236.05        57.11052
236.51        55.91722
236.97        56.07156
237.43        58.12574
237.88        61.74437
238.34        65.45668
238.80        68.05875
239.26        69.45425
239.71        70.02603
240.17        70.32825
240.63        72.63996
241.08         77.3584
241.54        81.59721
242.00        84.49265
242.46        86.87993
242.91        89.91022
243.37        94.73917
243.83        104.1935
244.28        118.4877
244.74        124.7935
245.20        119.2489
245.66        111.2125
246.11        106.1838
246.57        103.2059
247.03         100.006
247.48        96.96957
247.94        97.34265
248.40        103.0312
248.85        112.1448
249.31        119.3994
249.77        120.1619
250.22         116.219
250.68        110.4136
251.14        105.6895
251.59        104.7285
252.05        107.7525
252.51        114.4154
252.96        122.9927
253.42        125.9467
253.88        119.4633
254.33        108.7505
254.79        100.0478
255.25        95.18751
255.70        92.75282
256.16         91.7795
256.62        91.34081
257.07        90.75491
257.53        90.34415
257.99        89.83909
258.44        88.62464
258.90        86.69854
259.35        83.82653
259.81        80.81033
260.27        77.96486
260.72        75.79596
261.18        74.66333
261.63        73.87223
262.09        73.29607
262.55        72.27193
263.00        70.67107
263.46        68.92263
263.91        67.11667
264.37        65.82842
264.83        65.01792
265.28        64.43397
265.74        63.97112
266.19        63.21802
266.65        62.20995
267.11        61.01952
267.56        59.72136
268.02        58.54799
268.47        57.51571
268.93        56.57409
269.38        55.70639
269.84        54.93744
270.30         54.2294
270.75        53.56373
271.21        52.84189
271.66        51.84635
272.12        50.57995
272.57         49.0816
273.03        47.54154
273.48        46.16087
273.94        45.07685
274.39        44.19749
274.85        43.50474
275.31        42.85812
275.76        42.18821
276.22        41.55799
276.67        40.94442
277.13         40.4403
277.58        39.97653
278.04         39.5677
278.49        39.06942
278.95        38.42011
279.40        37.56519
279.86        36.62941
280.31        35.68659
280.77        34.98275
281.22         34.5094
281.68          34.248
282.13        34.06395
282.59        33.83674
283.04        33.50602
283.50        33.13646
283.95        32.76856
284.41        32.51447
284.86        32.37712
285.32        32.34675
285.77        32.33936
286.22        32.29004
286.68        32.19842
287.13        32.04024
287.59        31.91463
288.04         31.8853
288.50        31.98879
288.95        32.16228
289.41        32.32455
289.86        32.29499
290.32        32.09033
290.77         31.7844
291.22        31.52965
291.68        31.54011
292.13        31.85929
292.59        32.44231
293.04        33.21515
293.50         34.0879
293.95        35.00497
294.40        35.99959
294.86        37.06473
295.31        38.17793
295.77        39.34953
296.22        40.56207
296.68        41.83904
297.13        43.19271
297.58        44.62423
298.04        46.12508
298.49         47.6783
298.95        49.30872
299.40        51.01307
299.85        52.79479
300.31        54.65991
300.76        56.55165
301.21        58.44381
301.67         60.3469
302.12        62.19262
302.58        63.98011
303.03        65.68639
303.48        67.35677
303.94        69.08401
304.39        70.91711
304.84        72.89293
305.30        74.98514
305.75        77.10126
306.20        79.19762
306.66         81.2611
307.11        83.24776
307.57         85.1514
308.02        86.83644
308.47        88.31236
308.93        89.62127
309.38        90.80704
309.83        92.04863
310.29        93.40751
310.74         94.8167
311.19        96.22483
311.65         97.5117
312.10        98.60431
312.55        99.54524
313.00        100.3821
313.46        101.2004
313.91        102.0084
314.36        102.7918
314.82        103.5147
315.27        104.1161
315.72        104.5896
316.18        104.9869
316.63        105.3365
317.08        105.7182
317.53        106.1562
317.99        106.6157
318.44        107.1023
318.89         107.598
319.35        108.0814
319.80        108.5624
320.25        108.9872
320.70        109.2777
321.16        109.4169
321.61        109.4524
322.06        109.4596
322.51        109.5759
322.97        109.8204
323.42        110.1888
323.87        110.6082
324.32        110.9746
324.78        111.2346
325.23        111.4596
325.68        111.6414
326.13        111.7978
326.59        111.9158
327.04        112.0322
327.49        112.1621
327.94        112.3745
328.39        112.6846
328.85        113.0517
329.30         113.485
329.75        113.8208
330.20        114.0263
330.66        114.1053
331.11        114.2124
331.56        114.4794
332.01        114.9509
332.46        115.5787
332.92        116.2215
333.37        116.7967
333.82        117.1973
334.27        117.4654
334.72        117.6721
335.17        117.9385
335.63        118.2821
336.08        118.7324
336.53        119.2176
336.98        119.6678
337.43        120.0632
337.88        120.4239
338.34        120.7904
338.79        121.2833
339.24         121.893
339.69         122.577
340.14        123.2313
340.59        123.6921
341.05        123.9327
341.50        124.0295
341.95        124.0758
342.40        124.2371
342.85        124.5608
343.30        124.9789
343.75        125.4768
344.20        126.0266
344.66        126.5984
345.11        127.2045
345.56        127.7226
346.01         127.952
346.46        127.8793
346.91        127.5693
347.36        127.2541
347.81        127.2974
348.26        127.7634
348.72        128.5357
349.17        129.3655
349.62        129.8745
350.07        129.9526
350.52        129.7074
350.97        129.3031
351.42        129.0055
351.87        128.8961
352.32        128.8974
352.77         128.901
353.22        128.7461
353.67        128.3958
354.13        127.9222
354.58        127.4083
355.03        127.0404
355.48        126.8456
355.93        126.7497
356.38        126.6053
356.83        126.1897
357.28        125.4603
357.73        124.5052
358.18        123.4612
358.63        122.5322
359.08        121.7864
359.53         121.179
359.98        120.6446
360.43        120.0792
360.88        119.4446
361.33        118.7574
361.78         118.076
362.23        117.4828
362.68          116.98
363.13        116.5439
363.58        116.0468
364.03        115.2244
364.48        114.1721
364.93        112.8827
365.38        111.5694
365.83        110.5092
366.28        109.7673
366.73        109.2537
367.18        108.8378
367.63        108.3061
368.08        107.5945
368.53         106.778
368.98        105.9029
369.43         105.041
369.88        104.2269
370.33        103.4272
370.78        102.6724
371.23        102.0214
371.68        101.4733
372.13        101.0117
372.58        100.5645
373.03        100.0087
373.48        99.31546
373.93        98.52151
374.38        97.68639
374.83        96.90408
375.28        96.20668
375.72        95.55569
376.17        94.96478
376.62        94.38306
377.07        93.79623
377.52        93.20641
377.97        92.63723
378.42        92.12395
378.87        91.66601
379.32        91.25238
379.77        90.81332
380.22        90.24052
380.67        89.52086
381.11        88.69619
381.56        87.87354
382.01        87.24306
382.46        86.85998
382.91        86.67583
383.36        86.57938
383.81        86.39034
384.26        86.05773
384.71         85.6281
385.15        85.16633
385.60        84.83664
386.05        84.64618
386.50         84.5351
386.95        84.41828
387.40        84.17714
387.85        83.79425
388.29        83.27517
388.74        82.78008
389.19        82.33904
389.64        81.95676
390.09        81.57967
390.54        81.20736
390.98        80.84439
391.43        80.55514
391.88        80.30446
392.33        80.00086
392.78        79.74474
393.23        79.51794
393.67        78.75192
394.12        77.76484
394.57        78.14211
395.02        78.53218
395.47        78.56728
395.91        77.90763
396.36        77.64053
396.81        77.78676
397.26        77.73875
397.71        77.47477
398.15        77.19625
398.60         76.9894
399.05        76.68144
399.50        76.34205
399.95        76.19783
400.39        76.19462
400.84        75.99746
401.29        75.61418
401.74        75.20225
402.18        74.85992
402.63        74.72777
403.08         74.7767
403.53         74.7147
403.97        74.52288
404.42        74.42429
404.87         74.3831
405.32         74.2923
405.76        74.13001
406.21        73.83466
406.66         73.5163
407.11        73.49927
407.55        73.71604
408.00         73.8248
408.45        73.72643
408.90        73.11675
409.34        72.26076
409.79        72.21199
410.24        72.83784
410.68        73.01528
411.13        72.68148
411.58        72.52074
412.03        72.58861
412.47        72.65102
412.92        72.68097
413.37        72.75248
413.81        72.81727
414.26        72.86198
414.71        72.86199
415.15        72.83601
415.60        72.76739
416.05        72.70077
416.49        72.65725
416.94        72.61774
417.39        72.59271
417.83        72.59569
418.28        72.61694
418.73        72.63377
419.17        72.64807
419.62        72.66495
420.07        72.69335
420.51        72.74018
420.96        72.76276
421.41         72.7028
421.85        72.54095
422.30        72.17816
422.74        71.77473
423.19        72.05003
423.64        72.85852
424.08        73.25765
424.53        73.07701
424.98        73.08305
425.42        73.30073
425.87        73.02018
426.31        72.44983
426.76        72.60461
427.21        73.36085
427.65        73.54444
428.10         73.1328
428.54        73.07024
428.99        73.40862
429.44        73.57253
429.88        73.52951
430.33        73.62426
430.77        73.74168
431.22        73.71404
431.66        73.61296
432.11        73.72427
432.56        74.11322
433.00        74.49007
433.45        74.49016
433.89        74.36205
434.34        74.42579
434.78        72.90304
435.23        73.48349
435.67         74.4883
436.12        74.87694
436.57        75.01314
437.01        74.54221
437.46        74.35797
437.90        74.67641
438.35        75.50459
438.79        75.23105
439.24        75.28864
439.68        75.23751
440.13        75.11707
440.57         75.0203
441.02        75.19764
441.46        75.53111
441.91        75.64336
442.35        75.52924
442.80         75.3689
443.24        76.06599
443.69        76.12069
444.13        75.81949
444.58        76.08775
445.02        76.12597
445.47        76.39676
445.91        76.61593
446.36        76.68233
446.80        76.51927
447.24        76.95222
447.69        76.51794
448.13        76.72764
448.58        77.05663
449.02        77.07265
449.47         76.8152
449.91        76.72006
450.36        76.84065
450.80        76.88185
451.25        76.86986
451.69        76.94438
452.13        77.08731
452.58        77.18933
453.02        77.21285
453.47        77.14258
453.91        76.96664
454.36        76.80422
454.80        76.61144
455.24        76.19356
455.69        75.73228
456.13        75.44807
456.58        75.41758
457.02        75.83015
457.46        76.32497
457.91        76.06048
458.35        75.41914
458.79        75.10075
459.24        75.22413
459.68        75.27193
460.13        75.24823
460.57        75.00607
461.01        74.76766
461.46         74.7877
461.90        74.55904
462.34        74.17084
462.79        74.49179
463.23        74.35368
463.68         74.1203
464.12        73.89156
464.56        73.78424
465.01        74.14924
465.45        74.62643
465.89        74.55155
466.34        74.06323
466.78        73.50088
467.22        72.94038
467.67        73.84806
468.11        73.36095
468.55        73.53629
468.99        73.49405
469.44        73.50996
469.88        73.55306
470.32        73.45134
470.77        73.24642
471.21        73.07356
471.65        72.95561
472.10        72.85602
472.54        72.75844
472.98        72.70456
473.42        72.69342
473.87        72.67641
474.31        72.61436
474.75        72.67323
475.20        72.75126
475.64        72.57671
476.08        72.23827
476.52        72.01054
476.97        71.87319
477.41        72.32767
477.85         72.1204
478.29        72.14806
478.74        72.82932
479.18        72.36802
479.62        72.41596
480.06        72.25028
480.50        72.31506
480.95        72.32541
481.39        72.21643
481.83        72.19655
482.27        72.27687
482.72        71.93774
483.16        72.17557
483.60        72.12508
484.04        72.04211
484.48        71.91653
484.93        72.01344
485.37        72.16216
485.81        72.28757
486.25        73.42694
486.69        74.01211
487.14        72.94846
487.58        71.75487
488.02        72.22408
488.46        72.11248
488.90        72.39513
489.34        71.96706
489.79        71.02241
490.23        71.91836
490.67        71.86913
491.11        71.63818
491.55        71.56318
491.99        71.65312
492.43        71.66048
492.88        71.54803
493.32        71.44851
493.76         71.3961
494.20        71.44503
494.64         71.5993
495.08        71.85538
495.52        72.14281
495.96        72.27307
496.41        72.13945
496.85        72.21933
497.29        71.47344
497.73        71.45119
498.17        71.68504
498.61        71.80714
499.05        71.68816
499.49        71.64011
499.93        71.68859
500.37        71.43977
500.82        70.97824
501.26        71.10634
501.70        71.87688
502.14        71.28078
502.58        71.83735
503.02        71.88918
503.46        71.88147
503.90        71.82755
504.34         71.6741
504.78        71.58041
505.22        71.48162
505.66        71.30995
506.10        71.19736
506.54        71.18433
506.98        71.07975
507.42        72.26908
507.86        71.34081
508.30        71.46551
508.74        71.63419
509.18        71.65627
509.62        71.51559
510.06        71.39648
510.50        71.34791
510.94        71.29113
511.38        71.23289
511.82        71.17664
512.26           71.12
512.70        71.07856
513.14        71.05329
513.58        71.01032
514.02        70.94656
514.46        70.92046
514.90        70.95801
515.34         70.8493
515.78        71.00371
516.22        71.07725
516.66        71.17592
517.10        71.26479
517.54        71.33509
517.98        71.38828
518.42        71.40776
518.86        71.38136
519.30         71.3101
519.74        71.19744
520.18        71.08083
520.62        71.01763
521.06        71.02155
521.50        71.08488
521.93         71.1642
522.37        71.17106
522.81        71.09464
523.25        70.95707
523.69        70.82297
524.13        70.79357
524.57        70.88598
525.01        71.06439
525.45        71.25002
525.89        71.32022
526.32        71.24179
526.76        71.06751
527.20        70.86667
527.64        70.75835
528.08        70.77154
528.52         70.8654
528.96        70.98409
529.40        71.04056
529.83        71.00619
530.27        70.92802
530.71        70.82905
531.15        70.75313
531.59        70.71454
532.03        70.69336
532.46        70.68285
532.90        70.69714
533.34         70.7267
533.78        70.77505
534.22        70.81552
534.66        70.80447
535.09        70.72899
535.53        70.62193
535.97        70.51423
536.41        70.47277
536.85        70.51161
537.28        70.61322
537.72         70.7348
538.16        70.79658
538.60        70.78176
539.04        70.72819
539.47        70.65397
539.91        70.62709
540.35        70.64388
540.79        70.69928
541.22        70.75397
541.66        70.75691
542.10        70.69363
542.54        70.58115
542.97        70.45804
543.41        70.42097
543.85        70.47395
544.29        70.60034
544.72        70.72202
545.16        70.75394
545.60        70.66315
546.04        70.47216
546.47        70.27512
546.91         70.2263
547.35           70.34
547.79        70.59197
548.22        70.84361
548.66        70.84608
549.10        70.61572
549.53        70.47702
549.97        70.47559
550.41        70.46583
550.84        70.46444
551.28        70.52496
551.72        70.63052
552.15        70.81407
552.59        70.97812
553.03        70.91813
553.46        70.41284
553.90         70.2726
554.34         70.4365
554.77        70.55411
555.21        70.57001
555.65        70.75739
556.08        70.90761
556.52        70.65656
556.96        70.12745
557.39        70.00078
557.83        70.28284
558.27        70.46795
558.70        70.49107
559.14        70.45684
559.57        70.38625
560.01        70.48814
560.45        70.68784
560.88        70.62857
561.32        70.40797
561.75        70.28751
562.19        70.32431
562.63        70.46577
563.06        70.62241
563.50        70.53893
563.93        70.26557
564.37        70.20353
564.80        70.37296
565.24        70.57192
565.68        70.73494
566.11        70.82513
566.55        70.84651
566.98        70.80962
567.42        70.76588
567.85        70.70513
568.29        70.71721
568.72        70.76764
569.16        70.86183
569.60        71.02347
570.03         71.2392
570.47        70.96485
570.90        71.12762
571.34        71.28452
571.77          71.255
572.21        71.32337
572.64        71.30233
573.08        71.28372
573.51        71.07297
573.95        71.20907
574.38        71.53915
574.82        71.19342
