SpectraSmart Spectrum 2.9.0.0
--------- Device Information -----------
Spectrum Name :  反射率_0
Saving Time :  2024/04/28 00:08:43
Spectro-Module Model Name : SE2030-DUVN
Spectro-Module Serial Number : OS361AC55029948
Wavelength Start : 200
Wavelength End : 1025
Wavelength Unit : Wavelength(nm)
Spectrum Unit : Reflectance(%)
-----------Spectrum Setting ------------
Integration Time : 20ms
Average : 10
Boxcar : 0
Background removal :  enabled
linearity correction :  enabled
SC :  disabled
Intensity correction :  disabled
DWT denoise :  enabled
savitzky-golay :  disabled
FFT :  disabled
Running average :  disabled
Kalman :  disabled
High pass :  disabled
---------------BEGIN--------------------
Wavelength(nm)             Reflectance(%)
200.29               0
200.75        27.03901
201.21         85.5672
201.67        125.0793
202.13        134.8044
202.58        125.3934
203.04        106.7093
203.50        85.69535
203.96        73.28033
204.42         71.3703
204.88        74.44408
205.34        79.04505
205.80        82.62161
206.26        84.74942
206.72        86.82015
207.18        88.28062
207.64        85.90155
208.10        80.23728
208.55        75.14858
209.01         70.8792
209.47        66.29314
209.93        59.10982
210.39         42.9958
210.85       -1.815452
211.31       -45.15284
211.77        27.37856
212.23        68.68258
212.69        82.35339
213.14        86.83698
213.60        87.01149
214.06        84.40069
214.52        77.46091
214.98        68.16799
215.44        63.68797
215.90        63.12007
216.36        64.68682
216.81        67.38982
217.27        70.71146
217.73        75.09261
218.19        79.08501
218.65        79.78527
219.11        76.35951
219.57        69.17539
220.02        60.01035
220.48        55.10135
220.94        56.54168
221.40        61.92243
221.86        68.30081
222.32         72.7803
222.77        74.93406
223.23        75.65385
223.69        75.37788
224.15        74.39291
224.61        72.80865
225.06        70.35349
225.52        67.33588
225.98        64.44508
226.44        62.36322
226.90        61.02888
227.36        60.20964
227.81        59.49149
228.27        58.68676
228.73        57.72403
229.19        56.37617
229.65        54.38605
230.10        51.83096
230.56        49.24488
231.02        46.89964
231.48        45.20559
231.93        44.18566
232.39        43.78799
232.85        44.06801
233.31        45.12928
233.77        46.82898
234.22        49.11095
234.68        51.29301
235.14        52.62161
235.60        53.00824
236.05        52.47843
236.51        51.91314
236.97        53.09023
237.43        56.46093
237.88        61.53072
238.34         66.3471
238.80        69.16265
239.26        69.67668
239.71        67.81303
240.17        63.86915
240.63        62.63668
241.08        67.51402
241.54        74.48051
242.00        79.84509
242.46        82.62875
242.91        83.73184
243.37        83.54383
243.83         81.5372
244.28        77.35637
244.74        73.67249
245.20        72.85409
245.66         73.3082
246.11           72.74
246.57        70.64107
247.03        67.41724
247.48        63.23801
247.94        61.42506
248.40        65.00133
248.85        71.26949
249.31        77.94812
249.77        83.58945
250.22        87.88631
250.68        91.13232
251.14         93.6475
251.59        96.14051
252.05        99.18702
252.51         102.773
252.96         106.577
253.42        108.7554
253.88        107.4493
254.33        103.9966
254.79        99.92566
255.25         94.7579
255.70        88.73456
256.16        83.08442
256.62        79.10535
257.07        78.33635
257.53         80.2815
257.99         82.9374
258.44        84.60288
258.90        84.41835
259.35        82.26456
259.81        79.45609
260.27        76.45059
260.72        73.86075
261.18        72.18755
261.63        70.77905
262.09        69.71539
262.55        68.59824
263.00        67.26847
263.46        66.02089
263.91        64.74791
264.37        63.72563
264.83         62.8846
265.28        62.09921
265.74        61.38608
266.19        60.50298
266.65        59.50523
267.11        58.39272
267.56         57.1997
268.02        56.09916
268.47        55.08936
268.93        54.15918
269.38         53.2739
269.84        52.41764
270.30        51.56706
270.75        50.72211
271.21        49.87018
271.66        48.93367
272.12        47.92287
272.57        46.80988
273.03        45.67819
273.48        44.56404
273.94         43.5597
274.39        42.63823
274.85        41.80796
275.31        40.97347
275.76        40.10102
276.22        39.23988
276.67        38.44589
277.13        37.91867
277.58         37.5914
278.04        37.43804
278.49        37.19516
278.95        36.61526
279.40        35.62635
279.86        34.42398
280.31        33.20436
280.77        32.38847
281.22        31.99928
281.68         31.9379
282.13        31.99527
282.59         31.9434
283.04        31.69884
283.50        31.36661
283.95        30.99911
284.41        30.72017
284.86        30.54672
285.32        30.45749
285.77         30.4072
286.22        30.38606
286.68        30.39886
287.13         30.4135
287.59        30.46783
288.04        30.53109
288.50        30.62567
288.95        30.71905
289.41        30.80673
289.86        30.82854
290.32        30.81349
290.77        30.78426
291.22        30.80529
291.68        30.96228
292.13        31.27174
292.59        31.73535
293.04        32.34299
293.50        33.10028
293.95        33.98867
294.40        35.02517
294.86        36.17687
295.31        37.38071
295.77        38.63541
296.22         39.9321
296.68        41.33114
297.13        42.89759
297.58        44.62744
298.04        46.48076
298.49        48.35492
298.95        50.15504
299.40        51.86251
299.85        53.52308
300.31        55.24115
300.76        57.11615
301.21        59.15789
301.67        61.32686
302.12        63.47116
302.58         65.4668
303.03        67.26078
303.48        68.94128
303.94         70.6572
304.39        72.53526
304.84        74.63444
305.30        76.90571
305.75        79.21409
306.20        81.45918
306.66        83.61678
307.11        85.65778
307.57        87.62901
308.02        89.46935
308.47        91.19636
308.93        92.82516
309.38        94.31748
309.83        95.73683
310.29        97.12782
310.74        98.45919
311.19        99.77605
311.65        101.1104
312.10        102.4198
312.55        103.6972
313.00        104.8887
313.46        105.9237
313.91        106.7767
314.36        107.4872
314.82        108.1074
315.27        108.7174
315.72        109.3434
316.18         109.983
316.63        110.5974
317.08        111.1641
317.53        111.6795
317.99        112.1506
318.44         112.609
318.89        113.0738
319.35        113.5449
319.80        114.0188
320.25        114.4637
320.70        114.8426
321.16        115.1335
321.61        115.3635
322.06        115.5614
322.51        115.7847
322.97        116.0333
323.42        116.3419
323.87        116.6473
324.32        116.8673
324.78        116.9725
325.23        117.0299
325.68        117.1122
326.13        117.3691
326.59        117.7992
327.04        118.4004
327.49        119.0325
327.94        119.5067
328.39        119.7693
328.85         119.836
329.30        119.8651
329.75        119.9553
330.20        120.1606
330.66        120.4139
331.11        120.7617
331.56        121.1483
332.01        121.5624
332.46        122.0172
332.92        122.4501
333.37        122.9154
333.82        123.3475
334.27        123.7464
334.72        124.1126
335.17        124.4582
335.63        124.7695
336.08        125.1126
336.53        125.4864
336.98        125.9381
337.43        126.4732
337.88        127.0687
338.34        127.6817
338.79        128.3024
339.24        128.8893
339.69        129.4518
340.14        129.9538
340.59        130.3404
341.05        130.6229
341.50        130.8428
341.95        131.0792
342.40        131.4762
342.85        132.0616
343.30        132.7711
343.75        133.5506
344.20        134.3059
344.66        134.9907
345.11        135.6239
345.56        136.1264
346.01        136.3755
346.46        136.3753
346.91        136.1689
347.36        135.9471
347.81        136.0091
348.26        136.4066
348.72        137.0494
349.17        137.7311
349.62        138.1373
350.07        138.1799
350.52        137.9582
350.97        137.6024
351.42        137.3223
351.87        137.1895
352.32         137.142
352.77        137.1232
353.22        137.0526
353.67        136.8977
354.13        136.6914
354.58        136.4339
355.03        136.1857
355.48        135.9412
355.93        135.6648
356.38        135.2788
356.83        134.6689
357.28        133.8319
357.73        132.8403
358.18        131.7932
358.63        130.8342
359.08        130.0173
359.53        129.3109
359.98        128.7085
360.43        128.1942
360.88         127.735
361.33        127.3131
361.78        126.8694
362.23        126.3005
362.68        125.5744
363.13        124.7323
363.58         123.798
364.03        122.7127
364.48        121.6848
364.93        120.5942
365.38        119.5309
365.83        118.5469
366.28        117.6543
366.73        116.8321
367.18        116.0729
367.63        115.3596
368.08        114.6747
368.53        114.0258
368.98        113.3456
369.43        112.5274
369.88        111.5633
370.33        110.4857
370.78        109.4233
371.23        108.5916
371.68        108.0317
372.13        107.6695
372.58        107.3715
373.03        106.9154
373.48        106.2389
373.93        105.4195
374.38        104.5221
374.83        103.6473
375.28         102.839
375.72        102.0458
376.17        101.3344
376.62        100.7389
377.07        100.2539
377.52        99.86087
377.97        99.48869
378.42        99.02069
378.87        98.43188
379.32        97.76019
379.77        97.04992
380.22        96.36773
380.67        95.73371
381.11        95.13097
381.56        94.56031
382.01        94.03886
382.46        93.57668
382.91        93.18555
383.36        92.83809
383.81        92.48055
384.26        92.09946
384.71        91.70275
385.15        91.31084
385.60        91.02325
386.05        90.82581
386.50        90.68062
386.95        90.52905
387.40        90.28952
387.85        89.94701
388.29         89.4828
388.74        89.03166
389.19        88.57216
389.64        88.10683
390.09        87.61515
390.54         87.1237
390.98        86.65876
391.43        86.29086
391.88        86.01653
392.33        85.76678
392.78        85.47784
393.23        85.16013
393.67        84.69041
394.12        84.24062
394.57        84.30631
395.02        84.23444
395.47        84.13641
395.91        83.82289
396.36        83.57442
396.81        83.40163
397.26        83.14812
397.71        82.85413
398.15         82.5954
398.60        82.45496
399.05        82.34818
399.50        82.25727
399.95        82.09592
400.39        81.86149
400.84        81.70322
401.29        81.59486
401.74        81.10035
402.18        80.38734
402.63        80.24123
403.08        80.58263
403.53        80.55939
403.97        80.12119
404.42         79.7735
404.87        79.57195
405.32        79.41613
405.76        79.29951
406.21        79.23301
406.66         79.1997
407.11        79.14717
407.55        79.06558
408.00        79.06774
408.45        79.08943
408.90        78.58173
409.34        77.74265
409.79        77.56718
410.24        77.97234
410.68        78.06397
411.13        77.79404
411.58        77.68545
412.03        77.75908
412.47        77.80592
412.92        77.78822
413.37        77.77938
413.81        77.74073
414.26        77.67926
414.71        77.57787
415.15        77.45001
415.60        77.30961
416.05        77.25689
416.49        77.31922
416.94        77.46075
417.39        77.62423
417.83         77.7153
418.28         77.7029
418.73        77.59377
419.17        77.45776
419.62        77.41516
420.07        77.50001
420.51        77.67291
420.96        77.83678
421.41        77.84842
421.85        77.66358
422.30         77.2144
422.74        76.67834
423.19        76.81072
423.64        77.45988
424.08        77.65097
424.53        77.24966
424.98        77.07194
425.42        77.15536
425.87        76.85839
426.31         76.3349
426.76        76.35493
427.21        76.82768
427.65        76.94004
428.10        76.68678
428.54        76.67594
428.99        76.94199
429.44        77.22665
429.88        77.40146
430.33        77.24602
430.77        76.82201
431.22        76.73546
431.66        77.00351
432.11        77.18227
432.56        77.30936
433.00        77.72221
433.45        78.13326
433.89         77.9117
434.34        78.10262
434.78        76.58622
435.23        76.82968
435.67        77.03336
436.12        78.10841
436.57        78.29758
437.01        77.82246
437.46        77.47488
437.90          77.758
438.35        78.63515
438.79        78.08817
439.24        78.09868
439.68        78.09754
440.13        77.97791
440.57        77.84315
441.02        78.27082
441.46        78.99689
441.91        79.02353
442.35        78.42419
442.80        78.21445
443.24        78.43067
443.69        78.81008
444.13         79.1689
444.58        79.32647
445.02        79.22292
445.47        78.99593
445.91        78.75172
446.36        78.64713
446.80        78.70708
447.24        78.83495
447.69        78.99938
448.13         79.2554
448.58        79.51822
449.02        79.48724
449.47        79.24921
449.91        79.17262
450.36        79.30849
450.80        79.41514
451.25        79.48071
451.69        79.56324
452.13        79.63374
452.58        79.61148
453.02        79.49532
453.47        79.32344
453.91        79.09936
454.36        78.93225
454.80        78.75632
455.24        78.31616
455.69         77.7841
456.13        77.44236
456.58        77.40053
457.02        77.69062
457.46        78.28028
457.91        78.03104
458.35         77.4024
458.79        77.07011
459.24        77.17469
459.68        77.12362
460.13        76.90427
460.57        76.66232
461.01        76.81055
461.46        76.33471
461.90        76.16315
462.34        76.52254
462.79        76.37022
463.23        76.25244
463.68        75.90305
464.12        75.95502
464.56        76.32125
465.01        76.52162
465.45        76.39015
465.89        76.18848
466.34        76.03114
466.78        75.67268
467.22        75.16443
467.67        75.72205
468.11         75.5198
468.55        75.37643
468.99        74.85733
469.44        74.64988
469.88        74.77197
470.32        74.84555
470.77        74.83021
471.21        74.81407
471.65        74.78493
472.10        74.74093
472.54        74.64178
472.98        74.53496
473.42        74.44239
473.87        74.17773
474.31        73.82302
474.75         74.0645
475.20        74.69619
475.64        74.57335
476.08        73.77993
476.52        73.49453
476.97        73.75745
477.41         73.5008
477.85        73.56734
478.29        73.39715
478.74         73.5993
479.18        73.41623
479.62        73.59325
480.06        73.57596
480.50        73.54848
480.95          73.664
481.39        73.47566
481.83        73.45631
482.27        73.72595
482.72        72.93015
483.16        73.48586
483.60        73.17787
484.04        73.17384
484.48        73.18051
484.93        73.54998
485.37        73.26793
485.81         73.5815
486.25        74.13718
486.69        74.86734
487.14        73.92803
487.58        73.09302
488.02        73.45683
488.46        73.43649
488.90         73.3999
489.34        72.89491
489.79        72.02005
490.23        72.86427
490.67        72.83068
491.11        72.54613
491.55        72.39911
491.99        72.42846
492.43        72.44164
492.88        72.41432
493.32        72.46403
493.76        72.52452
494.20        72.59682
494.64        72.67952
495.08         72.6754
495.52        72.62373
495.96        72.82007
496.41        73.16805
496.85        73.08806
497.29        72.63557
497.73        72.57214
498.17        72.77644
498.61        72.79415
499.05        72.56465
499.49        72.49986
499.93        72.61275
500.37        72.47498
500.82        72.10667
501.26         72.1881
501.70        72.78687
502.14        72.03631
502.58        72.51022
503.02        72.45999
503.46        72.34859
503.90        72.23906
504.34         72.1042
504.78        72.11184
505.22        72.23093
505.66        72.31058
506.10        72.33932
506.54        72.40796
506.98        72.50556
507.42         72.3914
507.86        72.67136
508.30        72.20429
508.74        72.36411
509.18        72.17823
509.62        72.03601
510.06        71.95238
510.50        71.94115
510.94        71.98289
511.38        72.04358
511.82         72.0985
512.26        72.12774
512.70        72.13839
513.14        72.12981
513.58        72.07433
514.02        71.97234
514.46        71.88443
514.90        71.83669
515.34        71.61883
515.78        71.65332
516.22         71.5993
516.66          71.592
517.10        71.63646
517.54         71.7282
517.98        71.85564
518.42        71.96374
518.86        71.97542
519.30        71.87876
519.74        71.70254
520.18        71.51399
520.62        71.41839
521.06        71.44476
521.50        71.56511
521.93         71.7364
522.37        71.87231
522.81        71.94585
523.25        71.96967
523.69        71.97424
524.13        71.98112
524.57        71.99263
525.01        72.04927
525.45        72.11768
525.89         71.8863
526.32        71.76633
526.76        71.46909
527.20        71.20098
527.64        71.08669
528.08        71.15395
528.52        71.34965
528.96        71.58286
529.40        71.72409
529.83        71.73507
530.27        71.65016
530.71        71.49728
531.15        71.40255
531.59        71.40517
532.03        71.19723
532.46         71.2671
532.90        71.24995
533.34        71.28157
533.78        71.34853
534.22        71.42043
534.66        71.43663
535.09        71.37505
535.53        71.27853
535.97        71.16879
536.41        71.10072
536.85        71.08918
537.28        71.11812
537.72        71.17146
538.16        71.21261
538.60        71.23183
539.04         71.2557
539.47        71.26199
539.91        71.25624
540.35        71.22385
540.79        71.17973
541.22        71.13011
541.66        71.09592
542.10        71.07963
542.54        71.07563
542.97        71.07548
543.41        71.10411
543.85        71.14446
544.29        71.19761
544.72        71.22845
545.16        71.20449
545.60        71.10333
546.04        70.97466
546.47        70.85827
546.91        70.71669
547.35        70.60634
547.79        70.77442
548.22        71.08544
548.66        71.09167
549.10        70.80524
549.53        70.66777
549.97        70.73167
550.41        70.75915
550.84        70.72733
551.28        70.86997
551.72        71.15679
552.15        71.14284
552.59         70.7612
553.03        71.31694
553.46        70.66728
553.90         70.6739
554.34        70.70524
554.77        70.74505
555.21        70.75557
555.65        70.80837
556.08        70.92468
556.52        70.71777
556.96        70.32239
557.39        70.30361
557.83        70.63561
558.27        70.73946
558.70        70.60442
559.14        70.60928
559.57        70.73525
560.01        70.83135
560.45         70.8469
560.88        70.75986
561.32        70.65248
561.75        70.53204
562.19        70.46973
562.63        70.58863
563.06        70.79959
563.50        70.74631
563.93        70.45966
564.37        70.38168
564.80        70.50184
565.24        70.60223
565.68        70.64158
566.11         70.6814
566.55        70.74152
566.98        70.74193
567.42        70.72398
567.85        70.79777
568.29        70.97678
568.72        70.94447
569.16        70.78517
569.60        70.87045
570.03        71.21506
570.47        71.07211
570.90        71.31698
571.34        71.45599
571.77        71.60802
572.21        71.23677
572.64        71.44193
573.08        71.14525
573.51        70.85972
573.95        71.06536
574.38        71.65333
574.82        71.54961
