SpectraSmart Spectrum 2.9.0.0
--------- Device Information -----------
Spectrum Name :  反射率_0
Saving Time :  2024/04/27 23:57:19
Spectro-Module Model Name : SE2030-DUVN
Spectro-Module Serial Number : OS361AC55029948
Wavelength Start : 200
Wavelength End : 1025
Wavelength Unit : Wavelength(nm)
Spectrum Unit : Reflectance(%)
-----------Spectrum Setting ------------
Integration Time : 20ms
Average : 10
Boxcar : 0
Background removal :  enabled
linearity correction :  enabled
SC :  disabled
Intensity correction :  disabled
DWT denoise :  enabled
savitzky-golay :  disabled
FFT :  disabled
Running average :  disabled
Kalman :  disabled
High pass :  disabled
---------------BEGIN--------------------
Wavelength(nm)             Reflectance(%)
200.29               0
200.75        64.84349
201.21        77.50629
201.67        83.49834
202.13        82.34132
202.58        76.71133
203.04        68.33724
203.50        61.53931
203.96        62.68659
204.42        70.78661
204.88        81.74825
205.34        91.25182
205.80        95.82644
206.26        95.19316
206.72        89.04762
207.18        76.56521
207.64        65.37376
208.10        64.17503
208.55        69.60358
209.01        72.91009
209.47         69.5041
209.93        56.66556
210.39        21.97414
210.85       -84.97122
211.31       -223.0177
211.77       -74.64412
212.23        27.28809
212.69        63.70543
213.14        74.42754
213.60        73.03806
214.06        63.08552
214.52        42.16531
214.98        22.77162
215.44        23.41773
215.90        32.97907
216.36        42.92692
216.81        50.81851
217.27        57.08338
217.73        63.58857
218.19        68.81686
218.65        69.19517
219.11        63.80142
219.57        53.11749
220.02        39.36214
220.48        30.76138
220.94        30.63231
221.40        36.00799
221.86        44.10738
222.32        52.00087
222.77        58.55019
223.23        64.11491
223.69         67.6065
224.15        67.63376
224.61        64.47335
225.06          58.498
225.52        51.71287
225.98        48.15208
226.44        48.64414
226.90          51.047
227.36        53.52436
227.81        54.61087
228.27        54.27655
228.73        53.04956
229.19         50.9244
229.65        48.02768
230.10        44.72087
230.56        41.42004
231.02        38.62243
231.48        37.06494
231.93        36.71001
232.39        37.33238
232.85        38.61143
233.31        40.09231
233.77        41.54511
234.22        43.11972
234.68        44.33752
235.14        44.70718
235.60        44.20036
236.05        42.72948
236.51        41.18016
236.97        41.43621
237.43        44.07241
237.88        48.66787
238.34        53.23066
238.80         55.8185
239.26        56.02858
239.71        53.71558
240.17        49.16501
240.63        47.19772
241.08        51.63944
241.54        58.49026
242.00        64.03606
242.46        67.33465
242.91        69.39249
243.37         71.2189
243.83        73.32507
244.28        74.64445
244.74        72.33926
245.20         67.6705
245.66        64.24358
246.11        62.40268
246.57        61.25318
247.03        61.19286
247.48        62.75644
247.94        66.56696
248.40        71.60916
248.85         76.3985
249.31        80.88024
249.77        85.70084
250.22         90.3468
250.68        93.81796
251.14        96.37369
251.59        98.73618
252.05        101.3289
252.51        104.3764
252.96        106.1447
253.42        102.3143
253.88        92.84398
254.33        82.55573
254.79        75.44943
255.25        71.75249
255.70        70.10985
256.16        69.94063
256.62        70.71709
257.07        72.01241
257.53         73.6423
257.99        74.96806
258.44        75.18385
258.90        74.05252
259.35        71.55483
259.81        68.66244
260.27        65.79917
260.72        63.56624
261.18        62.33176
261.63        61.44216
262.09         60.8627
262.55        60.12941
263.00        59.08852
263.46        58.04804
263.91        56.89321
264.37        55.84637
264.83        54.87372
265.28        53.88758
265.74        52.99938
266.19        52.13132
266.65        51.33437
267.11        50.57228
267.56        49.75537
268.02        48.84953
268.47        47.81962
268.93        46.71462
269.38        45.64075
269.84        44.79718
270.30        44.20024
270.75        43.76753
271.21        43.34728
271.66        42.65709
272.12        41.66516
272.57        40.43435
273.03        39.13799
273.48         37.9593
273.94         37.0204
274.39        36.22852
274.85        35.57661
275.31        34.96656
275.76        34.34562
276.22        33.76989
276.67        33.20552
277.13         32.6996
277.58        32.20066
278.04        31.73839
278.49        31.22923
278.95        30.67404
279.40        30.03027
279.86        29.37648
280.31        28.73948
280.77        28.27688
281.22        27.96704
281.68        27.80688
282.13        27.69452
282.59         27.5345
283.04        27.29124
283.50        27.01971
283.95        26.76606
284.41        26.63924
284.86        26.64154
285.32        26.74763
285.77        26.88865
286.22        27.00979
286.68        27.10349
287.13        27.14517
287.59        27.18096
288.04        27.20308
288.50        27.24436
288.95        27.27935
289.41        27.30462
289.86        27.26621
290.32        27.19543
290.77        27.11885
291.22        27.11793
291.68        27.30119
292.13         27.6852
292.59        28.26011
293.04        28.97356
293.50        29.76354
293.95        30.59877
294.40        31.51042
294.86        32.51616
295.31        33.63703
295.77          34.886
296.22        36.22625
296.68        37.66067
297.13         39.1646
297.58        40.71805
298.04        42.31892
298.49        43.92214
298.95        45.50785
299.40        47.08262
299.85         48.6724
300.31        50.35749
300.76        52.20006
301.21         54.1991
301.67        56.32529
302.12        58.44573
302.58        60.45506
303.03         62.2996
303.48        64.04246
303.94        65.80274
304.39        67.67493
304.84        69.70567
305.30        71.85561
305.75        74.00446
306.20        76.06573
306.66         78.0266
307.11        79.86582
307.57        81.63435
308.02        83.28596
308.47        84.83855
308.93        86.29569
309.38        87.63206
309.83        88.91833
310.29        90.19214
310.74        91.42408
311.19        92.60806
311.65        93.69958
312.10        94.65416
312.55        95.49319
313.00        96.25758
313.46        97.01949
313.91        97.78274
314.36        98.54568
314.82        99.25716
315.27        99.82935
315.72         100.247
316.18        100.5526
316.63        100.8081
317.08        101.1498
317.53        101.6079
317.99        102.1383
318.44        102.6728
318.89        103.0718
319.35        103.3057
319.80         103.437
320.25        103.5334
320.70        103.7124
321.16        103.9935
321.61        104.3425
322.06         104.733
322.51        105.1345
322.97         105.506
323.42        105.8992
323.87          106.23
324.32        106.3812
324.78        106.3273
325.23        106.1379
325.68         105.944
326.13        105.9951
326.59        106.3254
327.04        106.9179
327.49        107.5955
327.94        108.0944
328.39        108.3361
328.85        108.3546
329.30        108.3328
329.75        108.4332
330.20        108.7177
330.66        109.0928
331.11        109.5358
331.56        109.8939
332.01        110.1366
332.46        110.3134
332.92        110.4394
333.37         110.687
333.82        111.0376
334.27        111.4509
334.72        111.8897
335.17        112.2991
335.63        112.6345
336.08        112.9769
336.53        113.3002
336.98        113.6031
337.43        113.8966
337.88        114.1785
338.34        114.4789
338.79        114.9045
339.24         115.448
339.69        116.0815
340.14        116.7278
340.59        117.2588
341.05        117.6446
341.50        117.9351
341.95         118.177
342.40        118.4664
342.85        118.8323
343.30        119.2301
343.75        119.6619
344.20        120.1305
344.66        120.6234
345.11        121.1419
345.56        121.5979
346.01        121.8429
346.46        121.8655
346.91        121.7171
347.36        121.5568
347.81        121.6341
348.26        121.9915
348.72        122.5422
349.17        123.1244
349.62        123.4982
350.07        123.5908
350.52        123.4799
350.97        123.2424
351.42        123.0016
351.87        122.8112
352.32        122.6379
352.77         122.484
353.22        122.3587
353.67        122.2504
354.13        122.1647
354.58        122.0494
355.03        121.8788
355.48        121.6303
355.93         121.303
356.38        120.8698
356.83         120.292
357.28         119.584
357.73        118.7861
358.18        117.9652
358.63        117.2183
359.08         116.579
359.53        116.0251
359.98        115.5478
360.43        115.1295
360.88        114.7381
361.33        114.3517
361.78        113.9208
362.23        113.3648
362.68        112.6649
363.13        111.8623
363.58        110.9724
364.03        109.9773
364.48        108.9921
364.93        107.9756
365.38        107.0256
365.83         106.253
366.28        105.6678
366.73        105.2216
367.18        104.8311
367.63        104.3586
368.08        103.7576
368.53        103.0676
368.98        102.2915
369.43        101.4405
369.88        100.5425
370.33        99.60124
370.78         98.6999
371.23        97.97559
371.68        97.45177
372.13        97.08747
372.58        96.78996
373.03        96.39832
373.48        95.86302
373.93        95.23022
374.38        94.53407
374.83        93.83152
375.28        93.15037
375.72        92.45415
376.17        91.80445
376.62        91.23235
377.07        90.73789
377.52        90.30246
377.97        89.88764
378.42        89.42772
378.87        88.90873
379.32        88.36281
379.77        87.79075
380.22        87.18897
380.67        86.56878
381.11         85.9352
381.56        85.34956
382.01        84.92609
382.46        84.68798
382.91        84.60226
383.36        84.56693
383.81        84.41901
384.26         84.1142
384.71         83.6897
385.15        83.21043
385.60        82.84386
386.05         82.6041
386.50        82.44377
386.95        82.28859
387.40        82.02953
387.85        81.65553
388.29        81.17459
388.74        80.74233
389.19        80.38625
389.64        80.10413
390.09        79.83591
390.54        79.57437
390.98        79.29639
391.43        79.04935
391.88        78.84736
392.33         78.5834
392.78        78.21188
393.23         77.7716
393.67        76.99528
394.12        76.15157
394.57        76.41667
395.02        76.56161
395.47        76.53748
395.91        76.01298
396.36        75.75522
396.81        75.78066
397.26        75.65152
397.71        75.38048
398.15         75.1704
398.60        75.10672
399.05        74.96042
399.50        74.77625
399.95        74.83952
400.39        75.04328
400.84        74.85571
401.29        74.30685
401.74        73.78191
402.18        73.40816
402.63         73.2151
403.08        73.16485
403.53        73.00924
403.97        72.73281
404.42        72.54432
404.87        72.44635
405.32        72.38567
405.76        72.34869
406.21        72.26635
406.66        72.15224
407.11        72.21981
407.55        72.39181
408.00        72.22419
408.45        71.75894
408.90        71.29489
409.34        70.95026
409.79        70.87164
410.24        70.98533
410.68        70.97934
411.13        70.82136
411.58        70.72768
412.03        70.69788
412.47        70.63764
412.92         70.5232
413.37        70.39355
413.81        70.27927
414.26        70.28299
414.71         70.3933
415.15        70.59733
415.60        70.78629
416.05        70.83395
416.49        70.71355
416.94        70.45923
417.39        70.16346
417.83        69.96809
418.28        69.90269
418.73        69.90853
419.17        69.95081
419.62         69.9753
420.07        69.97181
420.51        69.96984
420.96        69.94269
421.41        69.85668
421.85        69.69413
422.30        69.33163
422.74        68.91619
423.19         69.1511
423.64        69.88656
424.08        70.18748
424.53        69.90091
424.98        69.80492
425.42        69.93732
425.87        69.57367
426.31        68.94163
426.76        69.03413
427.21        70.26936
427.65        70.23447
428.10        69.10172
428.54        69.57001
428.99        69.49044
429.44        69.84615
429.88        69.86496
430.33        69.75446
430.77        69.50754
431.22        69.35891
431.66        69.34406
432.11        69.45557
432.56        69.70679
433.00        69.73136
433.45        69.39864
433.89        69.54223
434.34        70.13567
434.78        69.23878
435.23        69.04161
435.67        69.08807
436.12        69.95486
436.57        69.94182
437.01        69.06583
437.46        69.84072
437.90        69.43992
438.35        69.99303
438.79        69.95596
439.24        70.03648
439.68        70.06583
440.13        70.00384
440.57        69.93904
441.02        70.30858
441.46        70.87946
441.91        70.65155
442.35        69.81762
442.80        69.71626
443.24        70.31033
443.69        70.52576
444.13        70.32006
444.58        70.32603
445.02        70.51453
445.47        70.60727
445.91        70.59996
446.36        70.63647
446.80        70.70209
447.24        70.82414
447.69        70.79767
448.13        70.96659
448.58        71.18973
449.02        71.09536
449.47        70.76961
449.91        70.63618
450.36        70.74549
450.80        70.83706
451.25        70.88602
451.69        70.93897
452.13        70.96652
452.58         70.8978
453.02        70.75362
453.47        70.60095
453.91        70.44373
454.36        70.38036
454.80        70.35752
455.24        70.00337
455.69        69.43475
456.13        69.20708
456.58        69.49682
457.02        69.07122
457.46        70.09269
457.91         69.8666
458.35        69.40846
458.79        69.13419
459.24        69.15746
459.68        69.06253
460.13        68.86259
460.57        68.53009
461.01        68.39022
461.46        68.37511
461.90        67.98444
462.34        68.24566
462.79        68.27383
463.23        68.36798
463.68        68.29517
464.12        68.16286
464.56        68.01022
465.01        67.98968
465.45        67.95823
465.89        67.78331
466.34        67.55212
466.78        67.35898
467.22        66.70132
467.67        67.67898
468.11        67.24083
468.55        67.33349
468.99        67.12257
469.44        67.04816
469.88        67.10622
470.32        67.07076
470.77        66.95348
471.21        66.83272
471.65         66.7188
472.10        66.61232
472.54        66.48292
472.98        66.36401
473.42        66.27451
473.87        66.09109
474.31        65.85553
474.75          66.063
475.20        66.54746
475.64        66.44189
476.08        65.83097
476.52        65.66123
476.97        65.97214
477.41        65.96272
477.85        66.07857
478.29        66.15276
478.74        65.78738
479.18        65.56212
479.62        66.15862
480.06        66.24067
480.50         66.0508
480.95         66.0101
481.39        66.11649
481.83        65.76564
482.27        66.19305
482.72        65.53938
483.16        65.89677
483.60        65.82323
484.04        65.81462
484.48        65.82524
484.93        66.04097
485.37        66.15965
485.81        66.38196
486.25        67.02199
486.69        67.74346
487.14        66.60316
487.58        66.05238
488.02        66.09081
488.46        66.48765
488.90        66.02547
489.34        65.91167
489.79        65.31895
490.23        65.71175
490.67        65.75992
491.11        65.73339
491.55         65.6692
491.99        65.57151
492.43        65.51813
492.88        65.50494
493.32        65.49156
493.76        65.48147
494.20        65.57327
494.64         65.7808
495.08        65.98666
495.52        66.16134
495.96        66.45494
496.41        66.75399
496.85        66.58313
497.29        66.05777
497.73        65.88092
498.17        65.98307
498.61        66.12623
499.05        66.16971
499.49        66.09568
499.93        65.96154
500.37        65.80011
500.82        65.65134
501.26        65.85325
501.70        66.42989
502.14        65.80561
502.58        66.34612
503.02        66.16694
503.46        66.20587
503.90        66.07269
504.34        65.89577
504.78        65.83936
505.22        65.87566
505.66        65.89191
506.10        65.90057
506.54        65.93362
506.98        65.96151
507.42        66.23158
507.86        66.32867
508.30         66.1647
508.74        66.25226
509.18         66.0937
509.62        65.92281
510.06        65.80582
510.50        65.77312
510.94         65.7969
511.38        65.83494
511.82        65.83291
512.26        65.77266
512.70        65.67484
513.14        65.57877
513.58        65.52047
514.02        65.50956
514.46        65.57845
514.90        65.69815
515.34        65.59122
515.78        65.62197
516.22        65.50248
516.66        65.39716
517.10        65.37714
517.54        65.45827
517.98        65.60966
518.42        65.75889
518.86        65.80074
519.30        65.71271
519.74        65.53277
520.18        65.33405
520.62        65.22924
521.06        65.24736
521.50        65.35412
521.93        65.49887
522.37        65.58523
522.81        65.59085
523.25        65.54155
523.69        65.47149
524.13        65.43356
524.57        65.43993
525.01        65.46797
525.45        65.49053
525.89        65.46804
526.32        65.38765
526.76        65.28275
527.20        65.17107
527.64        65.08585
528.08        65.03811
528.52        65.01449
528.96        65.01471
529.40        65.03823
529.83        65.07251
530.27        65.12895
530.71        65.17535
531.15        65.16959
531.59        65.10666
532.03        64.99915
532.46        64.87979
532.90        64.82486
533.34         64.8439
533.78        64.91486
534.22        65.00217
534.66         65.0507
535.09        65.03852
535.53        65.00253
535.97        64.94984
536.41        64.90714
536.85        64.88255
537.28         64.8653
537.72        64.85618
538.16        64.84886
538.60        64.84337
539.04        64.86014
539.47        64.86594
539.91        64.84486
540.35        64.78024
540.79        64.69231
541.22        64.60699
541.66        64.57497
542.10        64.60256
542.54        64.67242
542.97        64.74878
543.41        64.81194
543.85        64.84127
544.29        64.85365
544.72        64.84258
545.16        64.83311
545.60        64.81618
546.04        64.77673
546.47        64.73988
546.91        64.74844
547.35        64.79672
547.79        64.90638
548.22        64.99961
548.66        64.92059
549.10        64.69992
549.53        64.60487
549.97        64.66782
550.41        64.71774
550.84        64.75723
551.28        64.91184
551.72        65.11769
552.15        65.19639
552.59        65.14063
553.03        64.98974
553.46        64.81034
553.90        64.75163
554.34        64.82368
554.77        64.99741
555.21        65.18941
555.65        65.25954
556.08        65.11005
556.52        64.98039
556.96        64.89162
557.39        64.83114
557.83         64.8121
558.27        64.84125
558.70        64.89462
559.14        64.73267
559.57        64.69082
560.01        64.63567
560.45         64.6596
560.88         64.6888
561.32        64.75694
561.75        64.78774
562.19        64.80611
562.63         64.9025
563.06        65.01119
563.50        64.90466
563.93        64.67121
564.37        64.48142
564.80         64.8507
565.24        64.96101
565.68        64.94353
566.11        64.97878
566.55        65.08407
566.98        65.11645
567.42        65.09749
567.85        65.10175
568.29        65.17756
568.72         65.1774
569.16        65.14239
569.60         65.3058
570.03        65.52528
570.47        65.47555
570.90        65.50558
571.34        65.86109
571.77        65.89047
572.21        65.52426
572.64        65.70787
573.08        65.51772
573.51        65.31701
573.95        65.48254
574.38         65.8591
574.82        65.91067
