SpectraSmart Spectrum 2.9.0.0
--------- Device Information -----------
Spectrum Name :  反射率_0
Saving Time :  2024/04/27 23:57:32
Spectro-Module Model Name : SE2030-DUVN
Spectro-Module Serial Number : OS361AC55029948
Wavelength Start : 200
Wavelength End : 1025
Wavelength Unit : Wavelength(nm)
Spectrum Unit : Reflectance(%)
-----------Spectrum Setting ------------
Integration Time : 20ms
Average : 10
Boxcar : 0
Background removal :  enabled
linearity correction :  enabled
SC :  disabled
Intensity correction :  disabled
DWT denoise :  enabled
savitzky-golay :  disabled
FFT :  disabled
Running average :  disabled
Kalman :  disabled
High pass :  disabled
---------------BEGIN--------------------
Wavelength(nm)             Reflectance(%)
200.29               0
200.75        39.74334
201.21        68.21297
201.67         85.5575
202.13        87.86607
202.58        80.62841
203.04        68.32712
203.50        56.50791
203.96         53.4619
204.42        59.09875
204.88        68.60172
205.34        77.67842
205.80        83.07211
206.26         84.6917
206.72        83.26707
207.18        78.57217
207.64        73.66074
208.10        72.40331
208.55        73.80507
209.01        74.02736
209.47        71.03207
209.93        62.91324
210.39        42.10087
210.85       -21.14852
211.31       -102.2214
211.77       -14.36897
212.23          45.847
212.69        67.47791
213.14        74.28831
213.60        74.02733
214.06        69.36802
214.52        58.99109
214.98        48.75021
215.44        48.08549
215.90        51.65779
216.36        56.22177
216.81        61.07982
217.27        66.11749
217.73        72.22178
218.19        77.42099
218.65         77.6945
219.11        72.00221
219.57        60.92352
220.02        47.57636
220.48        41.62521
220.94        45.97447
221.40        56.22816
221.86        67.40686
222.32        74.71493
222.77        77.71572
223.23        78.33752
223.69        77.09299
224.15        74.18441
224.61        69.85605
225.06        63.67073
225.52        57.33554
225.98         54.3026
226.44        55.08265
226.90        57.87353
227.36        60.41271
227.81        60.73822
228.27         58.9418
228.73        55.59476
229.19        51.54008
229.65        48.68663
230.10        47.76965
230.56        48.39851
231.02         49.5898
231.48        50.13216
231.93        49.69112
232.39        48.79301
232.85        47.92948
233.31        47.79106
233.77        48.45133
234.22        49.68091
234.68        50.79083
235.14          50.992
235.60        50.15454
236.05        48.35284
236.51        46.49775
236.97        46.51118
237.43        49.02712
237.88        53.58426
238.34        58.17721
238.80        60.90076
239.26        61.34796
239.71        59.37914
240.17          55.263
240.63        53.61272
241.08        57.94798
241.54        64.49954
242.00        69.49428
242.46        71.68489
242.91        71.69447
243.37        69.37589
243.83        63.47544
244.28        55.65546
244.74        55.03988
245.20        62.07076
245.66        68.26048
246.11        69.94407
246.57        67.88904
247.03        62.32149
247.48        54.15133
247.94         52.0231
248.40         62.0979
248.85        78.14138
249.31        91.50711
249.77         95.8937
250.22         93.4884
250.68         88.2018
251.14        83.53618
251.59        82.46025
252.05        85.29503
252.51        91.48359
252.96        99.66414
253.42        103.6074
253.88        99.36902
254.33        91.21272
254.79        83.98158
255.25        78.99783
255.70        75.58483
256.16        73.44574
256.62        72.39794
257.07        72.49478
257.53        73.61476
257.99        74.86151
258.44        75.45933
258.90        75.21301
259.35        73.90373
259.81        72.34554
260.27        70.58718
260.72        68.77943
261.18        67.39267
261.63        66.02368
262.09        64.97166
262.55        64.11166
263.00         63.2786
263.46         62.6067
263.91        61.82923
264.37        60.99325
264.83        60.02122
265.28        58.92117
265.74        57.81843
266.19        56.60853
266.65        55.38036
267.11        54.10285
267.56        52.80901
268.02        51.66994
268.47        50.67673
268.93        49.81246
269.38        49.02951
269.84        48.28079
270.30        47.52665
270.75        46.77002
271.21        45.97226
271.66        45.02106
272.12        43.94127
272.57          42.743
273.03        41.56252
273.48        40.52704
273.94        39.72796
274.39        39.07183
274.85          38.556
275.31        38.07851
275.76        37.57788
276.22        37.11151
276.67        36.59948
277.13        36.04056
277.58        35.38693
278.04        34.69957
278.49        33.98418
278.95        33.37542
279.40        32.84336
279.86        32.42679
280.31        32.03875
280.77        31.67932
281.22        31.29526
281.68        30.93695
282.13        30.60476
282.59        30.35788
283.04         30.1714
283.50        30.04304
283.95        29.90677
284.41         29.7106
284.86        29.43712
285.32        29.14551
285.77        28.87481
286.22        28.72138
286.68        28.71442
287.13         28.7795
287.59         28.9131
288.04        29.03054
288.50        29.13484
288.95        29.21279
289.41        29.26982
289.86        29.26204
290.32        29.21896
290.77        29.15073
291.22        29.11773
291.68        29.20209
292.13        29.42324
292.59        29.79427
293.04        30.29823
293.50        30.92677
293.95         31.6647
294.40        32.52943
294.86         33.5273
295.31        34.65699
295.77        35.91948
296.22        37.28249
296.68        38.73058
297.13        40.21138
297.58        41.69846
298.04        43.18909
298.49        44.66498
298.95        46.15151
299.40        47.66039
299.85        49.20498
300.31        50.82692
300.76        52.52822
301.21        54.30215
301.67        56.14718
302.12        57.98454
302.58        59.78393
303.03        61.50975
303.48         63.2062
303.94         64.9482
304.39        66.76452
304.84        68.68741
305.30        70.69505
305.75        72.71233
306.20        74.71899
306.66         76.7093
307.11        78.63568
307.57        80.49052
308.02        82.14103
308.47        83.59211
308.93        84.88281
309.38        86.04966
309.83        87.25292
310.29        88.55115
310.74        89.88657
311.19        91.21381
311.65        92.42484
312.10        93.45471
312.55        94.34388
313.00        95.15041
313.46        95.97298
313.91        96.82253
314.36        97.68285
314.82        98.49302
315.27        99.15323
315.72        99.64295
316.18        100.0095
316.63         100.317
317.08         100.703
317.53        101.2001
317.99        101.7636
318.44        102.3256
318.89        102.7497
319.35        103.0034
319.80        103.1424
320.25        103.2376
320.70        103.4095
321.16        103.6805
321.61        104.0278
322.06        104.4018
322.51        104.7332
322.97        104.9805
323.42        105.2021
323.87        105.3896
324.32        105.5494
324.78        105.6753
325.23        105.8002
325.68        105.9292
326.13        106.1028
326.59        106.3048
327.04        106.5757
327.49        106.8759
327.94        107.1724
328.39        107.4538
328.85        107.6944
329.30        107.9641
329.75        108.2254
330.20        108.4775
330.66        108.6899
331.11        108.9361
331.56         109.218
332.01        109.5498
332.46        109.9301
332.92        110.2994
333.37        110.7045
333.82        111.0868
334.27        111.4475
334.72        111.8075
335.17        112.2052
335.63        112.6225
336.08        113.1022
336.53        113.5778
336.98        113.9861
337.43        114.3128
337.88        114.5728
338.34        114.8039
338.79        115.1264
339.24        115.5411
339.69        116.0144
340.14        116.4803
340.59        116.8286
341.05         117.043
341.50        117.1888
341.95        117.3071
342.40        117.4771
342.85        117.7279
343.30        118.0159
343.75        118.3797
344.20        118.8809
344.66         119.506
345.11        120.2269
345.56        120.8742
346.01        121.1754
346.46        121.0938
346.91         120.722
347.36        120.3011
347.81        120.2059
348.26        120.5182
348.72        121.1263
349.17        121.8184
349.62        122.2731
350.07        122.3912
350.52         122.263
350.97        122.0182
351.42         121.863
351.87        121.8537
352.32        121.9177
352.77        121.9476
353.22          121.79
353.67        121.4113
354.13        120.8789
354.58        120.2786
355.03        119.8062
355.48         119.496
355.93        119.2809
356.38         119.028
356.83        118.5289
357.28        117.7525
357.73        116.8007
358.18        115.7936
358.63        114.9081
359.08         114.204
359.53        113.6233
359.98        113.1522
360.43        112.7708
360.88        112.4401
361.33        112.1477
361.78        111.8131
362.23        111.3029
362.68        110.5884
363.13        109.7143
363.58        108.7471
364.03        107.7654
364.48        106.8795
364.93        106.0315
365.38        105.2415
365.83        104.5034
366.28        103.8094
366.73        103.1606
367.18        102.5478
367.63        101.9513
368.08        101.3573
368.53        100.7616
368.98        100.1361
369.43         99.4424
369.88        98.67895
370.33        97.86106
370.78        97.03775
371.23        96.29037
371.68         95.6399
372.13        95.06387
372.58        94.53156
373.03        93.98869
373.48        93.41834
373.93         92.8427
374.38        92.26155
374.83        91.66998
375.28         91.0728
375.72        90.45072
376.17        89.86423
376.62        89.34389
377.07        88.88972
377.52        88.47235
377.97        88.06225
378.42        87.61465
378.87        87.11687
379.32        86.59562
379.77        86.03532
380.22        85.40433
380.67        84.71322
381.11        83.98479
381.56        83.29999
382.01        82.80378
382.46        82.53171
382.91        82.44016
383.36        82.43058
383.81        82.34527
384.26        82.13012
384.71        81.81293
385.15        81.42558
385.60        81.08377
386.05        80.79325
386.50        80.52578
386.95        80.23674
387.40        79.86642
387.85        79.42249
388.29        78.90356
388.74        78.46225
389.19        78.12337
389.64        77.88101
390.09        77.68085
390.54         77.4965
390.98        77.27178
391.43        77.04275
391.88        76.82713
392.33        76.54877
392.78        76.19941
393.23        75.82281
393.67        75.16943
394.12        74.45419
394.57        74.73581
395.02        74.77026
395.47        74.70374
395.91        74.22607
396.36        74.00025
396.81        74.05289
397.26        74.04022
397.71        73.87487
398.15        73.61062
398.60        73.33389
399.05        72.76024
399.50           72.13
399.95         72.2435
400.39        72.90324
400.84        72.96378
401.29        72.37674
401.74        71.78816
402.18        71.39541
402.63        71.33453
403.08        71.53264
403.53        71.46688
403.97        71.10947
404.42        70.87871
404.87        70.77103
405.32        70.63073
405.76        70.45846
406.21        70.17635
406.66        69.85187
407.11        69.92345
407.55        70.26605
408.00        70.04827
408.45        69.35371
408.90        68.93539
409.34        68.88876
409.79        68.99556
410.24        69.14297
410.68        69.16978
411.13        69.03529
411.58        68.86605
412.03         68.7155
412.47        68.62589
412.92        68.59737
413.37         68.6312
413.81         68.6832
414.26        68.74091
414.71        68.77229
415.15         68.8012
415.60        68.79317
416.05        68.74734
416.49        68.67142
416.94        68.55838
417.39        68.42713
417.83        68.30612
418.28         68.1962
418.73        68.07681
419.17         67.9649
419.62        67.88873
420.07        67.86287
420.51        67.88855
420.96        67.91148
421.41        67.85715
421.85        67.69865
422.30        67.33334
422.74        66.91472
423.19        67.14661
423.64        67.88086
424.08        68.17477
424.53        67.88461
424.98        67.80902
425.42        67.98836
425.87        67.70977
426.31        67.15037
426.76        67.31339
427.21        68.02171
427.65        67.99187
428.10         67.3147
428.54        67.08199
428.99        67.33768
429.44        67.71029
429.88        67.96845
430.33        67.52279
430.77         66.6357
431.22        66.48152
431.66        67.24191
432.11        67.50315
432.56         67.3206
433.00        67.44111
433.45        67.61125
433.89        67.56429
434.34        67.48357
434.78        66.33875
435.23        65.92406
435.67        67.27499
436.12        67.97367
436.57        68.07848
437.01         67.0708
437.46        66.62153
437.90         67.2196
438.35        67.95113
438.79        67.78862
439.24        67.83875
439.68        67.81361
440.13        67.71841
440.57        67.62116
441.02        67.76345
441.46        68.06841
441.91        68.11068
442.35        67.88067
442.80         68.0742
443.24        68.54154
443.69        68.49562
444.13        67.99015
444.58         67.7593
445.02        67.80291
445.47        67.79508
445.91        67.72157
446.36        67.69302
446.80        67.68008
447.24        67.83314
447.69        67.83944
448.13        67.94946
448.58        68.05574
449.02        68.09893
449.47        68.09674
449.91        68.10392
450.36        68.14526
450.80        68.15582
451.25        68.14865
451.69        68.14838
452.13        68.14581
452.58         68.0839
453.02        67.96709
453.47        67.84294
453.91        67.71095
454.36        67.63306
454.80        67.54993
455.24        67.27657
455.69        66.92863
456.13        66.68445
456.58        66.61329
457.02        66.81091
457.46         67.0424
457.91        66.86435
458.35        66.54269
458.79        66.32378
459.24        66.31447
459.68        66.23581
460.13        66.10612
460.57        65.88614
461.01         65.9045
461.46        65.65824
461.90        65.51346
462.34        65.63962
462.79        65.70985
463.23        65.70702
463.68         65.5384
464.12        65.34232
464.56         65.2141
465.01        65.41017
465.45         65.6693
465.89        65.62662
466.34        65.33574
466.78        64.70155
467.22        63.88081
467.67        64.53851
468.11        64.49901
468.55         64.7282
468.99        64.54763
469.44        64.54974
469.88        64.71025
470.32        64.68141
470.77        64.48569
471.21        64.31792
471.65         64.1989
472.10        64.08137
472.54         63.9645
472.98        63.88871
473.42        63.85924
473.87        63.87768
474.31         63.8903
474.75        63.93985
475.20        63.97449
475.64         63.8864
476.08        63.70287
476.52        63.62636
476.97        63.64453
477.41        63.81804
477.85         63.6603
478.29        64.01317
478.74        63.42136
479.18        63.62503
479.62        63.60993
480.06        63.67017
480.50        63.64651
480.95        63.58472
481.39        63.41816
481.83        63.58858
482.27        63.70144
482.72         63.0466
483.16        63.50833
483.60        63.41319
484.04        63.30084
484.48         63.3362
484.93        63.81432
485.37        63.46217
485.81        64.07809
486.25        64.81973
486.69        65.35915
487.14        64.00009
487.58        64.02753
488.02        64.10157
488.46        63.78605
488.90        64.28682
489.34        63.59133
489.79        63.18326
490.23        63.37903
490.67        63.25959
491.11        63.08153
491.55        63.01184
491.99        63.07395
492.43        63.13333
492.88        63.17642
493.32        63.29143
493.76         63.4264
494.20         63.5387
494.64         63.6269
495.08        63.58224
495.52        63.48592
495.96        63.70223
496.41        64.12705
496.85        64.17078
497.29         63.8362
497.73        63.63304
498.17         63.5357
498.61        63.62309
499.05        63.79122
499.49        63.78192
499.93        63.62838
500.37        63.52777
500.82        63.46746
501.26        63.52925
501.70        63.80242
502.14        63.14278
502.58        63.68035
503.02        63.70783
503.46        63.58511
503.90        63.51595
504.34         63.4543
504.78        63.45065
505.22        63.47591
505.66        63.42128
506.10        63.30549
506.54        63.32148
506.98        63.48909
507.42        63.44396
507.86        63.65295
508.30        63.67374
508.74        63.64337
509.18        63.55801
509.62        63.45303
510.06        63.37909
510.50        63.34602
510.94        63.34251
511.38        63.34868
511.82        63.33157
512.26         63.2831
512.70        63.22065
513.14        63.14971
513.58        63.07708
514.02          63.011
514.46        62.94728
514.90        62.89915
515.34        62.90717
515.78        62.95046
516.22        63.03082
516.66        63.11617
517.10        63.16388
517.54        63.16135
517.98        63.12205
518.42        63.05467
518.86        62.97467
519.30        62.89474
519.74        62.81477
520.18        62.75312
520.62        62.73705
521.06         62.7704
521.50        62.84602
521.93        62.94294
522.37        63.01122
522.81        63.04012
523.25        63.03451
523.69        63.00648
524.13         62.9785
524.57        62.95673
525.01        62.93485
525.45        62.90191
525.89        62.84066
526.32        62.74711
526.76        62.64735
527.20        62.55807
527.64        62.51076
528.08        62.51138
528.52         62.5442
528.96        62.59873
529.40        62.65839
529.83        62.70697
530.27        62.75909
530.71        62.78757
531.15        62.75996
531.59        62.67516
532.03        62.54283
532.46        62.40173
532.90        62.33626
533.34        62.35749
533.78        62.44391
534.22        62.54576
534.66        62.58609
535.09        62.53875
535.53        62.44242
535.97         62.3291
536.41         62.2631
536.85         62.2621
537.28        62.31244
537.72        62.37507
538.16        62.37982
538.60        62.31707
539.04        62.22295
539.47        62.13515
539.91        62.14489
540.35        62.24824
540.79        62.42648
541.22        62.60638
541.66        62.67891
542.10        62.61997
542.54        62.46979
542.97        62.29094
543.41        62.21793
543.85        62.26287
544.29        62.38101
544.72        62.51291
545.16        62.58953
545.60        62.57609
546.04        62.53334
546.47        62.46655
546.91        62.33034
547.35        62.17624
547.79        62.12452
548.22        62.15152
548.66        62.22305
549.10        62.27925
549.53        62.23517
549.97        62.13268
550.41        62.13933
550.84        62.26563
551.28        62.41061
551.72        62.52266
552.15        62.56226
552.59        62.52903
553.03        62.41917
553.46        62.28078
553.90        62.22731
554.34          62.263
554.77        62.39162
555.21        62.54202
555.65        62.53205
556.08        62.39594
556.52        62.23046
556.96        62.10254
557.39        62.14379
557.83        62.32104
558.27        62.33672
558.70        62.19945
559.14        62.16412
559.57        62.21664
560.01        62.27316
560.45        62.29583
560.88        62.19383
561.32        62.06806
561.75        62.10565
562.19        62.29977
562.63        62.43512
563.06        62.45623
563.50        62.37184
563.93        62.21556
564.37        62.15647
564.80        62.19594
565.24        62.28961
565.68        62.38858
566.11        62.45016
566.55        62.48573
566.98        62.45447
567.42        62.40451
567.85        62.45999
568.29        62.63254
568.72        62.59706
569.16        62.41696
569.60        62.50214
570.03        62.87978
570.47        62.73747
570.90        62.84452
571.34        63.31359
571.77        63.33363
572.21        63.06946
572.64        63.57542
573.08        63.03622
573.51        62.90713
573.95        63.04106
574.38        63.64328
574.82         63.3499
