SpectraSmart Spectrum 2.9.0.0
--------- Device Information -----------
Spectrum Name :  反射率_0
Saving Time :  2024/04/27 23:36:21
Spectro-Module Model Name : SE2030-DUVN
Spectro-Module Serial Number : OS361AC55029948
Wavelength Start : 200
Wavelength End : 1025
Wavelength Unit : Wavelength(nm)
Spectrum Unit : Reflectance(%)
-----------Spectrum Setting ------------
Integration Time : 20ms
Average : 10
Boxcar : 0
Background removal :  enabled
linearity correction :  enabled
SC :  disabled
Intensity correction :  disabled
DWT denoise :  enabled
savitzky-golay :  disabled
FFT :  disabled
Running average :  disabled
Kalman :  disabled
High pass :  disabled
---------------BEGIN--------------------
Wavelength(nm)             Reflectance(%)
200.29               0
200.75        66.30154
201.21         74.0283
201.67        79.38108
202.13        80.87959
202.58        79.52727
203.04        77.32732
203.50         74.8562
203.96         72.9182
204.42        71.98673
204.88         71.7572
205.34         72.0195
205.80        72.81016
206.26        74.09007
206.72        75.77848
207.18        78.40034
207.64        81.26505
208.10        82.56614
208.55         83.0616
209.01        81.83233
209.47        78.37538
209.93         71.0331
210.39        52.27063
210.85       -3.568518
211.31        -67.9622
211.77        15.17574
212.23        68.30277
212.69         86.4451
213.14        91.11828
213.60        88.71168
214.06        80.05016
214.52        63.37366
214.98        49.65572
215.44        52.43695
215.90        61.97647
216.36        69.80135
216.81        72.75941
217.27        71.97241
217.73         69.5696
218.19         65.9526
218.65         61.4031
219.11         56.3449
219.57        50.28752
220.02        44.53982
220.48        43.78942
220.94        48.52407
221.40        56.32493
221.86        63.99924
222.32        68.57447
222.77        69.97295
223.23        69.34641
223.69        67.42703
224.15        64.71861
224.61         61.4582
225.06        57.41113
225.52        53.44665
225.98        51.24089
226.44        51.09674
226.90        51.91581
227.36        52.94016
227.81        53.53135
228.27        53.58368
228.73         53.3199
229.19        52.10627
229.65         48.9227
230.10        43.91893
230.56        38.06525
231.02        32.94548
231.48         30.6988
231.93        31.37318
232.39        34.07844
232.85        37.60842
233.31        40.29571
233.77        41.70504
234.22         42.4839
234.68         42.5911
235.14        42.08089
235.60        41.09005
236.05        39.34268
236.51        37.76649
236.97         38.3321
237.43        41.61167
237.88        47.19841
238.34        52.91911
238.80         56.7135
239.26        58.27295
239.71        57.60212
240.17        55.15232
240.63        54.98954
241.08         59.6723
241.54        65.67295
242.00         69.8786
242.46        71.39515
242.91        70.76701
243.37        67.44627
243.83        60.43375
244.28        54.48006
244.74        61.37269
245.20        76.39174
245.66        86.43036
246.11        88.78367
246.57        85.54241
247.03        76.15909
247.48        60.88674
247.94         51.3523
248.40        58.93956
248.85        76.69123
249.31        94.07282
249.77        102.6197
250.22        103.3712
250.68        100.4772
251.14        96.91851
251.59        95.01378
252.05        94.90588
252.51         95.5452
252.96         95.0707
253.42        90.35583
253.88        81.87317
254.33        73.80904
254.79        68.83163
255.25        66.46255
255.70        65.55554
256.16        65.83156
256.62        66.77533
257.07        67.98645
257.53        69.39401
257.99        70.42347
258.44        70.54673
258.90        69.74954
259.35         67.9006
259.81        65.75067
260.27        63.45731
260.72        61.29678
261.18        59.70055
261.63        58.27294
262.09        57.14856
262.55         56.0602
263.00         54.8724
263.46        53.76926
263.91        52.66452
264.37        51.79857
264.83        51.10081
265.28        50.47401
265.74        49.85896
266.19        48.96667
266.65        47.85031
267.11        46.55969
267.56        45.22904
268.02        44.17426
268.47        43.42152
268.93        42.88822
269.38        42.45831
269.84        41.97819
270.30        41.37696
270.75        40.69112
271.21        39.90994
271.66        38.97069
272.12        37.90894
272.57        36.71711
273.03        35.52436
273.48        34.45467
273.94        33.60387
274.39        32.91566
274.85        32.37317
275.31        31.86327
275.76        31.33265
276.22        30.82421
276.67        30.32804
277.13        29.92275
277.58        29.56154
278.04        29.26039
278.49        28.90215
278.95        28.42976
279.40         27.8018
279.86        27.12056
280.31        26.46138
280.77        26.04539
281.22        25.85968
281.68        25.86273
282.13        25.91838
282.59        25.88225
283.04        25.70339
283.50        25.44329
283.95         25.1515
284.41        24.93866
284.86        24.81904
285.32         24.7793
285.77        24.75976
286.22        24.71098
286.68        24.63885
287.13        24.53178
287.59        24.46587
288.04        24.48082
288.50        24.60419
288.95        24.78045
289.41        24.96322
289.86        25.03822
290.32        25.01542
290.77        24.94333
291.22        24.89379
291.68        24.96584
292.13         25.1873
292.59        25.54775
293.04        26.05882
293.50        26.75641
293.95        27.62508
294.40        28.67231
294.86        29.82087
295.31         30.9396
295.77        32.01158
296.22        33.04496
296.68        34.15237
297.13        35.48846
297.58        37.07025
298.04        38.83132
298.49        40.61732
298.95        42.24022
299.40         43.6732
299.85         45.0022
300.31        46.39371
300.76        48.04523
301.21        49.99585
301.67        52.17074
302.12        54.38693
302.58        56.46106
303.03        58.31741
303.48        60.03591
303.94        61.76401
304.39        63.63954
304.84        65.71483
305.30        67.93748
305.75        70.14314
306.20         72.1776
306.66        74.02364
307.11        75.68692
307.57         77.2995
308.02        78.94324
308.47        80.65235
308.93        82.38445
309.38        84.01486
309.83        85.45804
310.29        86.72482
310.74        87.84376
311.19        88.89614
311.65        89.97916
312.10        91.08211
312.55        92.16653
313.00        93.21983
313.46        94.23648
313.91        95.18916
314.36        96.10033
314.82        96.90466
315.27        97.48965
315.72         97.8474
316.18        98.03032
316.63        98.15535
317.08        98.44639
317.53        98.95873
317.99        99.63368
318.44        100.3587
318.89        100.9179
319.35        101.2529
319.80        101.4328
320.25        101.5636
320.70        101.8235
321.16        102.2464
321.61        102.7903
322.06        103.3505
322.51        103.7737
322.97        104.0028
323.42        104.1212
323.87        104.2019
324.32        104.3843
324.78        104.6922
325.23        105.1195
325.68        105.5737
326.13        105.9324
326.59        106.1367
327.04        106.2746
327.49        106.3995
327.94        106.6318
328.39        107.0076
328.85        107.4615
329.30        107.9913
329.75        108.4344
330.20        108.7487
330.66          108.94
331.11         109.147
331.56        109.4764
332.01        109.9705
332.46        110.5937
332.92        111.2172
333.37        111.7738
333.82        112.1706
334.27        112.4433
334.72        112.6845
335.17        113.0506
335.63        113.5559
336.08        114.2083
336.53        114.8806
336.98         115.409
337.43        115.7521
337.88        115.9659
338.34        116.1379
338.79        116.4638
339.24        116.9763
339.69        117.6271
340.14        118.3298
340.59        118.9448
341.05        119.4327
341.50         119.843
341.95         120.234
342.40        120.7127
342.85        121.3024
343.30         121.952
343.75        122.6015
344.20        123.1621
344.66        123.6072
345.11        123.9596
345.56        124.2392
346.01        124.4703
346.46        124.6752
346.91        124.8606
347.36        125.0505
347.81        125.2815
348.26        125.5598
348.72        125.8719
349.17        126.2066
349.62        126.5642
350.07        126.9218
350.52        127.2683
350.97        127.5364
351.42        127.6236
351.87        127.5178
352.32        127.2536
352.77        126.9222
353.22        126.6706
353.67        126.5299
354.13        126.4645
354.58        126.3815
355.03         126.193
355.48        125.8668
355.93        125.4419
356.38        124.9298
356.83        124.3428
357.28         123.704
357.73         123.024
358.18        122.3472
358.63        121.7403
359.08        121.2203
359.53        120.7731
359.98        120.3683
360.43        119.9546
360.88        119.5024
361.33        119.0019
361.78        118.4544
362.23         117.863
362.68        117.2231
363.13        116.5484
363.58        115.8087
364.03        114.8864
364.48        113.9121
364.93        112.8486
365.38        111.8127
365.83        110.9263
366.28        110.2171
366.73        109.6321
367.18        109.1388
367.63        108.6829
368.08        108.2254
368.53         107.778
368.98        107.2591
369.43        106.5408
369.88        105.6136
370.33        104.5146
370.78        103.3965
371.23        102.5158
371.68        101.9319
372.13        101.5725
372.58        101.2979
373.03        100.8686
373.48        100.2201
373.93        99.43793
374.38        98.60277
374.83        97.83768
375.28        97.18497
375.72        96.57651
376.17         96.0461
376.62        95.58316
377.07        95.16822
377.52        94.79206
377.97          94.405
378.42        93.92527
378.87        93.34187
379.32        92.69147
379.77        92.00563
380.22        91.32955
380.67        90.68418
381.11        90.06341
381.56        89.50172
382.01        89.06612
382.46        88.77006
382.91        88.60085
383.36         88.4783
383.81        88.27106
384.26        87.94531
384.71        87.52644
385.15        87.07244
385.60        86.74458
386.05        86.54549
386.50        86.41843
386.95        86.28052
387.40        86.01138
387.85        85.59496
388.29        85.04594
388.74        84.51878
389.19         84.0203
389.64        83.56742
390.09        83.13622
390.54        82.75034
390.98        82.43985
391.43        82.24918
391.88        82.12365
392.33        81.98583
392.78        81.81534
393.23        81.59509
393.67        81.14557
394.12        80.58651
394.57        80.56554
395.02        79.93461
395.47        79.82453
395.91        79.85943
396.36        79.81875
396.81        79.69239
397.26        79.65603
397.71        79.65195
398.15        79.52151
398.60        79.34516
399.05         78.9089
399.50        78.39341
399.95        78.44472
400.39        78.89017
400.84        78.77135
401.29        78.08277
401.74        77.36987
402.18        76.86455
402.63        76.83897
403.08        77.19497
403.53        77.25297
403.97        76.96136
404.42        76.81028
404.87        76.78812
405.32        76.70545
405.76        76.55241
406.21        76.25258
406.66        75.91504
407.11        75.98702
407.55        76.36781
408.00        76.38954
408.45        75.99848
408.90        75.43436
409.34        74.86095
409.79        74.62055
410.24        74.69878
410.68        74.71078
411.13        74.63875
411.58        74.78819
412.03        75.08233
412.47        75.21062
412.92        75.10029
413.37        74.86986
413.81         74.6011
414.26        74.47142
414.71        74.50019
415.15         74.6498
415.60        74.83344
416.05        74.97076
416.49        75.02883
416.94        75.02071
417.39        74.97406
417.83        74.92395
418.28        74.87873
418.73        74.81752
419.17         74.7375
419.62        74.64266
420.07        74.54709
420.51         74.4592
420.96        74.39767
421.41        74.36092
421.85        74.31643
422.30         74.2191
422.74        74.09813
423.19        74.28928
423.64        74.71254
424.08         74.9648
424.53        74.88705
424.98        74.83217
425.42        74.83965
425.87        74.39278
426.31        73.75462
426.76          74.094
427.21        75.17999
427.65        75.31415
428.10        74.55791
428.54        74.40147
428.99        74.89776
429.44        75.30696
429.88         75.4564
430.33         75.2707
430.77        74.85571
431.22        74.77234
431.66         75.0184
432.11        75.39732
432.56        75.83517
433.00        75.77595
433.45        75.15269
433.89        75.10753
434.34        76.21297
434.78         74.8248
435.23        75.24879
435.67        74.88584
436.12        76.67428
436.57        76.87515
437.01        76.27016
437.46        75.86511
437.90        76.15148
438.35        77.18365
438.79        76.57877
439.24        76.56643
439.68        76.46555
440.13        76.33584
440.57        76.24121
441.02        76.38642
441.46        76.65948
441.91        76.71458
442.35        76.57045
442.80        76.45409
443.24        77.06824
443.69        77.24718
444.13        77.17175
444.58           77.18
445.02         77.2544
445.47        77.23291
445.91        77.12423
446.36        77.07587
446.80        77.08621
447.24        77.11345
447.69        77.17868
448.13        77.32629
448.58        77.53284
449.02        77.66488
449.47        77.72879
449.91        77.80732
450.36         77.9227
450.80        77.96992
451.25        77.97672
451.69        78.06956
452.13        78.14495
452.58        78.18663
453.02        78.16236
453.47        78.10301
453.91        77.98785
454.36        77.95898
454.80        77.93536
455.24        77.50679
455.69        76.81282
456.13        76.65292
456.58        76.33035
457.02        76.54315
457.46          77.026
457.91        76.81236
458.35        76.30347
458.79        76.02483
459.24        76.12812
459.68         76.0554
460.13        75.80954
460.57        75.62423
461.01        75.77721
461.46        74.96466
461.90        75.40731
462.34        74.98134
462.79        75.30125
463.23        75.40301
463.68        75.52211
464.12        75.39922
464.56        75.10502
465.01        75.13396
465.45        75.27879
465.89        75.13495
466.34        74.78687
466.78        74.31051
467.22         73.8175
467.67        74.34419
468.11        74.38523
468.55        74.48346
468.99        74.21337
469.44         74.1421
469.88        74.26411
470.32         74.2347
470.77        74.04631
471.21        73.85407
471.65        73.67537
472.10        73.49349
472.54        73.30873
472.98        73.20053
473.42        73.18807
473.87        73.14954
474.31        73.07119
474.75        73.33194
475.20        73.76711
475.64        73.62133
476.08        73.01749
476.52         72.7903
476.97        72.98557
477.41        72.89713
477.85        73.31578
478.29        72.62167
478.74         73.1759
479.18        72.21344
479.62        72.93896
480.06        72.82816
480.50        72.66528
480.95        72.54478
481.39        72.43711
481.83        72.50716
482.27        72.65679
482.72        72.38701
483.16        72.76743
483.60        72.71636
484.04        72.61452
484.48        72.44315
484.93        72.47606
485.37        72.36641
485.81        72.49894
486.25        73.15368
486.69        73.49429
487.14        72.60902
487.58         72.2657
488.02        72.82983
488.46        72.92473
488.90        72.43463
489.34        72.46655
489.79        71.46985
490.23        72.16773
490.67        72.02193
491.11        71.74651
491.55        71.69728
491.99         71.8543
492.43        71.92329
492.88        71.85829
493.32        71.82646
493.76         71.8052
494.20        71.82278
494.64        71.91296
495.08        71.84868
495.52        71.68882
495.96        72.09117
496.41        72.83326
496.85        72.53015
497.29        71.41527
497.73        71.31419
498.17        72.04697
498.61        72.18211
499.05         71.6321
499.49          71.463
499.93        71.71064
500.37        71.65462
500.82        71.30698
501.26        71.41781
501.70        72.09744
502.14        71.36746
502.58        71.80776
503.02        71.75393
503.46        71.66821
503.90        71.57458
504.34         71.4388
504.78        71.43339
505.22        71.53088
505.66        71.58348
506.10         71.5697
506.54         71.6265
506.98        71.75754
507.42        71.59371
507.86        71.72044
508.30        71.62238
508.74        71.64697
509.18        71.63173
509.62        71.61023
510.06        71.54051
510.50        71.41733
510.94        71.26131
511.38        71.11692
511.82        71.05585
512.26        71.09055
512.70        71.20203
513.14        71.34076
513.58        71.40023
514.02         71.3546
514.46        71.27919
514.90        71.22967
515.34        71.06486
515.78        71.18141
516.22        71.24557
516.66        71.34182
517.10        71.41749
517.54        71.45765
517.98        71.47251
518.42        71.45695
518.86        71.41142
519.30        71.34192
519.74        71.25181
520.18        71.15965
520.62        71.09576
521.06        71.06786
521.50        71.06813
521.93        71.09161
522.37         71.1123
522.81        71.12617
523.25        71.13671
523.69        71.13395
524.13        71.10263
524.57        71.04366
525.01        70.96304
525.45        70.88107
525.89        70.83062
526.32        70.81393
526.76        70.83516
527.20        70.87487
527.64        70.90984
528.08        70.92949
528.52        70.93468
528.96        70.93116
529.40        70.92812
529.83         70.9213
530.27        70.92307
530.71        70.90967
531.15        70.85594
531.59        70.76115
532.03        70.63338
532.46        70.50842
532.90        70.46464
533.34        70.50773
533.78        70.61655
534.22        70.73032
534.66        70.75589
535.09        70.66777
535.53        70.51625
535.97        70.35219
536.41        70.27301
536.85        70.30247
537.28        70.41224
537.72        70.55179
538.16           70.63
538.60        70.62612
539.04        70.58369
539.47        70.52173
539.91        70.50854
540.35        70.54005
540.79        70.60719
541.22        70.67283
541.66        70.69021
542.10        70.64471
542.54        70.55331
542.97        70.44312
543.41        70.39404
543.85        70.40705
544.29        70.46783
544.72        70.52068
545.16        70.51347
545.60        70.41948
546.04        70.26119
546.47        70.09853
546.91        70.01814
547.35        70.03883
547.79         70.1794
548.22        70.33736
548.66        70.33067
549.10        70.15839
549.53        70.03967
549.97        70.02582
550.41        70.03495
550.84        70.08009
551.28        70.23354
551.72        70.42585
552.15        70.49522
552.59         70.4299
553.03        70.25868
553.46        70.04606
553.90        69.93988
554.34          69.952
554.77        70.06654
555.21        70.18745
555.65        70.16504
556.08        69.90782
556.52        69.65099
556.96        69.46596
557.39        69.50333
557.83        69.71749
558.27        69.96602
558.70        69.85363
559.14        69.91055
559.57        70.00035
560.01        70.03577
560.45        69.98157
560.88        69.83018
561.32        69.68805
561.75        69.57392
562.19        69.55691
562.63        69.74479
563.06        70.01978
563.50         69.9969
563.93        69.71501
564.37        69.55064
564.80        69.70508
565.24        69.78485
565.68        69.81186
566.11        69.84057
566.55        69.89322
566.98        69.90295
567.42        69.88173
567.85        69.92347
568.29         70.0558
568.72        69.91389
569.16        69.56647
569.60        69.83735
570.03        70.10949
570.47        69.99765
570.90        70.10932
571.34        70.73125
571.77        70.59315
572.21        70.21878
572.64        70.41862
573.08        70.10793
573.51        70.12907
573.95        70.25242
574.38        70.56591
574.82         70.2387
