SpectraSmart Spectrum 2.9.0.0
--------- Device Information -----------
Spectrum Name :  反射率_0
Saving Time :  2024/04/27 23:49:10
Spectro-Module Model Name : SE2030-DUVN
Spectro-Module Serial Number : OS361AC55029948
Wavelength Start : 200
Wavelength End : 1025
Wavelength Unit : Wavelength(nm)
Spectrum Unit : Reflectance(%)
-----------Spectrum Setting ------------
Integration Time : 20ms
Average : 10
Boxcar : 0
Background removal :  enabled
linearity correction :  enabled
SC :  disabled
Intensity correction :  disabled
DWT denoise :  enabled
savitzky-golay :  disabled
FFT :  disabled
Running average :  disabled
Kalman :  disabled
High pass :  disabled
---------------BEGIN--------------------
Wavelength(nm)             Reflectance(%)
200.29               0
200.75        63.30304
201.21        56.54448
201.67        52.31686
202.13        53.18848
202.58        57.59105
203.04        63.75212
203.50        71.24287
203.96        78.86465
204.42        85.21536
204.88        90.35449
205.34        94.04871
205.80        96.37923
206.26        97.59417
206.72        97.31276
207.18        94.35709
207.64        88.11375
208.10        81.86367
208.55        78.79001
209.01        76.04323
209.47        70.19793
209.93         57.8799
210.39        27.79922
210.85       -61.75403
211.31       -171.4415
211.77       -43.35903
212.23        41.35223
212.69        71.49887
213.14        81.26073
213.60        81.94973
214.06        76.99171
214.52        64.30357
214.98         49.4463
215.44        44.88594
215.90        46.41264
216.36        50.23821
216.81        54.86474
217.27        59.75226
217.73        65.93587
218.19        71.23408
218.65        71.16232
219.11        64.53545
219.57        51.94858
220.02        36.61162
220.48        28.86569
220.94        32.16217
221.40         42.0587
221.86        53.61338
222.32        61.98903
222.77        66.47186
223.23        68.68673
223.69        68.83308
224.15        66.77019
224.61        62.81724
225.06        56.80848
225.52        50.42934
225.98        47.13989
226.44        47.57373
226.90        49.87583
227.36        52.19136
227.81        52.98032
228.27        52.19964
228.73         50.3143
229.19        47.48435
229.65        44.24022
230.10        41.07211
230.56        38.30132
231.02        36.06381
231.48        34.58741
231.93         33.8008
232.39        33.66861
232.85        34.26579
233.31        35.67737
233.77        37.69859
234.22        40.23193
234.68        42.42089
235.14        43.28625
235.60        42.71494
236.05        40.76836
236.51         38.5484
236.97        38.45228
237.43        41.28537
237.88        46.43094
238.34        51.70784
238.80        54.99799
239.26        55.90105
239.71        54.50126
240.17        51.02778
240.63        49.32998
241.08        52.63834
241.54        57.76773
242.00        61.95404
242.46        64.52848
242.91        66.25999
243.37         67.9557
243.83        70.49744
244.28        74.00667
244.74        75.62037
245.20        74.41654
245.66        72.11271
246.11         69.5966
246.57        66.38042
247.03        61.41553
247.48        56.02657
247.94        58.52928
248.40        72.53583
248.85        91.12108
249.31        105.0347
249.77        107.6657
250.22        102.2334
250.68        93.56117
251.14        85.39669
251.59         80.5023
252.05        78.54908
252.51        77.75932
252.96        77.17462
253.42        75.86105
253.88         73.2022
254.33         70.8133
254.79        68.33574
255.25        64.03715
255.70        58.39338
256.16        52.88618
256.62        49.10985
257.07         48.9298
257.53        51.55088
257.99        54.77387
258.44        57.11415
258.90        57.70434
259.35        56.47652
259.81         54.5227
260.27        52.04248
260.72         49.2956
261.18         46.8463
261.63        44.50609
262.09        42.61517
262.55        41.23679
263.00        40.23713
263.46        39.59958
263.91        39.14113
264.37        38.87519
264.83        38.67031
265.28        38.48623
265.74         38.2058
266.19        37.53294
266.65        36.51969
267.11        35.23151
267.56        33.88214
268.02        32.90682
268.47        32.36065
268.93        32.12372
269.38        32.01034
269.84        31.73803
270.30        31.21697
270.75        30.54017
271.21         29.7565
271.66        28.90316
272.12        28.03735
272.57        27.11387
273.03        26.23717
273.48        25.50756
273.94        24.98378
274.39        24.61519
274.85        24.33355
275.31        23.97466
275.76        23.49348
276.22        22.95103
276.67        22.40225
277.13        21.99379
277.58        21.70955
278.04         21.5366
278.49        21.34495
278.95        21.03359
279.40        20.55652
279.86        20.01526
280.31          19.497
280.77        19.21675
281.22        19.16958
281.68        19.30166
282.13        19.47415
282.59        19.52259
283.04        19.40419
283.50        19.17356
283.95         18.9124
284.41        18.76594
284.86        18.75367
285.32        18.84228
285.77        18.92909
286.22        18.88982
286.68        18.72492
287.13        18.46028
287.59         18.2313
288.04        18.17535
288.50        18.33825
288.95        18.64159
289.41        18.98391
289.86        19.17979
290.32        19.20992
290.77        19.13606
291.22        19.06489
291.68        19.15065
292.13        19.42893
292.59         19.8659
293.04        20.40412
293.50        20.97255
293.95        21.54443
294.40         22.1629
294.86        22.85899
295.31        23.66996
295.77        24.61296
296.22         25.6524
296.68        26.78444
297.13        27.97679
297.58        29.21219
298.04        30.49197
298.49        31.78484
298.95         33.0717
299.40        34.36119
299.85        35.66692
300.31        37.06208
300.76        38.60791
301.21        40.30268
301.67        42.11345
302.12        43.91493
302.58        45.58695
303.03        47.08731
303.48        48.47756
303.94        49.88235
304.39        51.42213
304.84        53.14693
305.30        55.01908
305.75        56.92039
306.20        58.74184
306.66        60.46578
307.11        62.08002
307.57        63.66152
308.02        65.22709
308.47        66.78917
308.93        68.31879
309.38        69.73074
309.83        70.98256
310.29        72.09483
310.74        73.08586
311.19        74.01469
311.65        74.94818
312.10          75.876
312.55        76.77711
313.00        77.66273
313.46        78.55881
313.91        79.44755
314.36        80.33559
314.82        81.14026
315.27         81.7215
315.72        82.06097
316.18        82.21584
316.63        82.30537
317.08        82.55534
317.53        83.02093
317.99        83.63764
318.44        84.29974
318.89         84.8048
319.35        85.09998
319.80        85.25904
320.25        85.36653
320.70        85.56606
321.16        85.88438
321.61        86.27441
322.06        86.68391
322.51        87.04391
322.97        87.31158
323.42        87.54601
323.87        87.71551
324.32        87.78289
324.78        87.74475
325.23        87.64532
325.68        87.55714
326.13        87.62433
326.59        87.86123
327.04        88.27837
327.49        88.77015
327.94        89.18467
328.39        89.47459
328.85         89.6453
329.30        89.81409
329.75        90.06155
330.20        90.41608
330.66        90.81451
331.11        91.24209
331.56        91.57893
332.01        91.80662
332.46        91.95784
332.92        92.06875
333.37        92.32439
333.82        92.71561
334.27         93.1974
334.72         93.6945
335.17        94.08533
335.63        94.31581
336.08        94.47906
336.53        94.59593
336.98        94.73771
337.43        94.94123
337.88        95.18964
338.34        95.49191
338.79        95.90841
339.24        96.41702
339.69        96.99354
340.14        97.57862
340.59         98.0703
341.05        98.44429
341.50        98.74888
341.95        98.98577
342.40        99.17982
342.85        99.35777
343.30        99.50093
343.75        99.70943
344.20        100.1439
344.66        100.8127
345.11        101.6533
345.56        102.4538
346.01        102.8678
346.46        102.8357
346.91        102.4813
347.36        102.0397
347.81        101.8775
348.26        102.0869
348.72        102.5513
349.17        103.1257
349.62        103.5939
350.07        103.8705
350.52         104.018
350.97        104.0617
351.42        104.0349
351.87         103.964
352.32        103.8393
352.77        103.6676
353.22        103.4766
353.67        103.2724
354.13        103.0529
354.58        102.8302
355.03         102.678
355.48        102.5876
355.93        102.5363
356.38        102.3877
356.83        101.9286
357.28        101.1419
357.73        100.1207
358.18        99.05894
358.63        98.25461
359.08        97.78211
359.53        97.55283
359.98        97.43791
360.43        97.22944
360.88        96.85313
361.33        96.35718
361.78        95.78681
362.23        95.21927
362.68        94.67933
363.13        94.13219
363.58        93.53645
364.03        92.86951
364.48        92.08145
364.93         91.2501
365.38        90.43295
365.83        89.73742
366.28        89.17989
366.73        88.72073
367.18        88.28795
367.63         87.7627
368.08        87.11656
368.53        86.39583
368.98        85.63957
369.43        84.90981
369.88        84.23681
370.33        83.60268
370.78        83.03185
371.23        82.56504
371.68        82.19604
372.13        81.90501
372.58         81.6292
373.03        81.26458
373.48        80.78221
373.93        80.20937
374.38        79.58117
374.83         78.9569
375.28        78.36237
375.72        77.77126
376.17        77.22532
376.62        76.72395
377.07        76.26546
377.52         75.8433
377.97        75.44641
378.42        75.05444
378.87          74.657
379.32        74.25939
379.77        73.84002
380.22        73.36401
380.67        72.82982
381.11        72.25352
381.56        71.68004
382.01        71.19653
382.46        70.83141
382.91        70.56497
383.36        70.35405
383.81        70.12376
384.26         69.8508
384.71        69.55707
385.15         69.2478
385.60        68.98524
386.05        68.76216
386.50        68.55688
386.95        68.36164
387.40        68.17261
387.85        67.98656
388.29        67.76624
388.74        67.57121
389.19        67.33017
389.64        67.02708
390.09         66.6499
390.54        66.24722
390.98        65.88782
391.43        65.64314
391.88        65.50334
392.33        65.35506
392.78        65.13634
393.23        64.87045
393.67        64.30759
394.12        63.67987
394.57         64.0797
395.02        64.39536
395.47        64.45284
395.91        63.97661
396.36         63.7843
396.81        63.90273
397.26        63.88098
397.71        63.67253
398.15        63.43129
398.60         63.2363
399.05        62.83236
399.50        62.38464
399.95        62.47701
400.39        62.95279
400.84        62.95439
401.29        62.46182
401.74        61.96651
402.18        61.64414
402.63        61.65889
403.08        61.94196
403.53        61.99593
403.97        61.78772
404.42        61.70032
404.87        61.70355
405.32        61.61955
405.76        61.43888
406.21        61.09222
406.66        60.71287
407.11        60.76192
407.55        61.13573
408.00        61.22358
408.45        60.97299
408.90        60.47188
409.34        59.95409
409.79        60.10758
410.24        60.77871
410.68        61.03283
411.13        60.80083
411.58        60.65763
412.03        60.67851
412.47        60.71413
412.92        60.75759
413.37        60.86309
413.81        60.96843
414.26        61.02811
414.71        61.01478
415.15        60.95429
415.60         60.8604
416.05        60.81211
416.49        60.83793
416.94        60.91208
417.39        60.99952
417.83        61.04776
418.28        61.03489
418.73        60.95313
419.17        60.87187
419.62        60.90649
420.07        61.08872
420.51        61.39174
420.96        61.67476
421.41         61.7654
421.85        61.63116
422.30        61.12706
422.74        60.52751
423.19          60.889
423.64        62.00869
424.08        62.43839
424.53         62.0391
424.98        62.01805
425.42        62.41527
425.87        62.34831
426.31        61.93672
426.76        62.02978
427.21        62.54905
427.65        62.68871
428.10        62.47332
428.54        62.49977
428.99         62.8012
429.44        63.21233
429.88        63.54918
430.33        63.35366
430.77        62.78459
431.22        62.68917
431.66        63.07659
432.11        63.50468
432.56        63.93698
433.00        64.20972
433.45         64.0404
433.89        64.15652
434.34        64.76292
434.78        63.11316
435.23        63.16244
435.67        64.34314
436.12        65.04629
436.57        65.48489
437.01         65.0621
437.46        64.81796
437.90        65.13896
438.35        66.00713
438.79        65.42934
439.24        65.44873
439.68        65.51364
440.13        65.52769
440.57        65.50934
441.02        65.91142
441.46        66.52439
441.91        66.32275
442.35        65.54009
442.80        65.69496
443.24        66.63385
443.69        66.97302
444.13        66.66698
444.58        66.71059
445.02        67.09138
445.47        67.31809
445.91        67.34843
446.36        67.40756
446.80        67.49083
447.24        67.48067
447.69        67.45849
448.13        67.68967
448.58        68.10873
449.02        68.29546
449.47         68.2558
449.91        68.29994
450.36        68.44805
450.80        68.47063
451.25        68.41267
451.69        68.43754
452.13        68.54581
452.58         68.6326
453.02        68.66467
453.47        68.62807
453.91        68.51124
454.36         68.4218
454.80        68.31564
455.24        68.01645
455.69        67.68118
456.13        67.47723
456.58        67.47128
457.02         67.8925
457.46        68.39116
457.91        68.07988
458.35        67.34428
458.79        67.00308
459.24        67.18808
459.68        67.29462
460.13        67.26876
460.57        67.21115
461.01        67.13882
461.46        66.96043
461.90        66.71489
462.34        66.80803
462.79        66.82447
463.23        66.98341
463.68        67.10039
464.12         67.0255
464.56        66.83804
465.01        66.94003
465.45        67.12716
465.89         67.1125
466.34        66.97198
466.78        66.49407
467.22        65.76126
467.67        66.77075
468.11        66.61935
468.55        66.77099
468.99        66.40289
469.44        66.29953
469.88        66.46054
470.32        66.46294
470.77        66.32042
471.21        66.21996
471.65        66.17317
472.10        66.14124
472.54        66.09012
472.98        66.03339
473.42         65.9798
473.87        65.86353
474.31        65.69983
474.75          65.827
475.20        66.13322
475.64        66.03012
476.08        65.57139
476.52        65.46038
476.97        65.75175
477.41        65.74222
477.85         65.6804
478.29        66.00075
478.74        65.85162
479.18        65.10144
479.62        65.82697
480.06        65.80047
480.50        65.71776
480.95        65.71703
481.39        65.77181
481.83        65.82566
482.27        65.88355
482.72        65.57822
483.16        65.88493
483.60        65.55856
484.04        65.61529
484.48        65.49718
484.93        65.69778
485.37        65.42647
485.81        66.00585
486.25         66.4908
486.69        65.68776
487.14        64.79128
487.58         65.2038
488.02        65.59673
488.46        65.77769
488.90        65.97034
489.34        65.81279
489.79        64.88061
490.23        65.97758
490.67        65.97858
491.11        65.74969
491.55         65.6439
491.99        65.69614
492.43        65.69178
492.88        65.59497
493.32        65.51073
493.76        65.44238
494.20        65.44455
494.64        65.53728
495.08        65.62244
495.52        65.68696
495.96        65.89753
496.41        66.15714
496.85         66.0079
497.29        65.56029
497.73        65.49437
498.17        65.72829
498.61        66.01062
499.05        66.18085
499.49        66.16771
499.93        66.02541
500.37          65.896
500.82        65.79501
501.26        65.75166
501.70        66.19189
502.14        65.35223
502.58        65.70625
503.02        65.70919
503.46        65.81572
503.90        65.57652
504.34        65.82207
504.78        65.82648
505.22        65.80299
505.66        65.67533
506.10        65.53172
506.54        65.50095
506.98        65.57455
507.42        66.02725
507.86        66.14301
508.30        66.32792
508.74        66.35879
509.18        66.28433
509.62        66.14137
510.06        66.00439
510.50        65.91004
510.94        65.83458
511.38         65.7869
511.82        65.77979
512.26        65.81007
512.70        65.87759
513.14        65.95748
513.58        66.01102
514.02        66.02862
514.46        66.00621
514.90        65.94995
515.34         65.9574
515.78         65.9137
516.22        65.91113
516.66         65.9221
517.10        65.96416
517.54          66.034
517.98         66.1255
518.42        66.21672
518.86        66.26746
519.30        66.26807
519.74        66.23038
520.18        66.16927
520.62        66.10906
521.06        66.06236
521.50        66.02762
521.93        66.01221
522.37        66.01313
522.81        66.03359
523.25        66.06874
523.69        66.11483
524.13        66.16481
524.57        66.21162
525.01        66.25327
525.45         66.2724
525.89        66.24354
526.32        66.16071
526.76        66.04838
527.20        65.93235
527.64        65.86185
528.08        65.84946
528.52        65.88017
528.96        65.93586
529.40         65.9861
529.83        66.01268
530.27        66.03507
530.71        66.04313
531.15        66.03033
531.59        65.99873
532.03        65.94987
532.46        65.89223
532.90        65.86308
533.34        65.86442
533.78        65.88907
534.22        65.92464
534.66        65.95143
535.09        65.95374
535.53        65.95264
535.97        65.94205
536.41        65.92766
536.85        65.91196
537.28        65.89807
537.72        65.88053
538.16        65.84182
538.60        65.78646
539.04        65.73645
539.47        65.69473
539.91        65.70293
540.35        65.74606
540.79         65.8206
541.22        65.89389
541.66        65.92081
542.10        65.88914
542.54        65.82021
542.97        65.72506
543.41        65.65597
543.85        65.61162
544.29        65.59356
544.72        65.59985
545.16        65.61874
545.60        65.62169
546.04        65.75906
546.47        65.79522
546.91         65.7686
547.35         65.6446
547.79        65.68056
548.22        65.80483
548.66          65.699
549.10        65.40156
549.53        65.29028
549.97        65.38478
550.41        65.43411
550.84        65.43534
551.28        65.54037
551.72        65.70821
552.15        65.79545
552.59        65.79845
553.03        65.73489
553.46        65.64578
553.90         65.6459
554.34        65.73816
554.77        65.90883
555.21        66.07848
555.65        66.12724
556.08        65.97372
556.52        65.81556
556.96        65.69372
557.39        65.76031
557.83        65.98061
558.27        66.03456
558.70         65.9278
559.14        65.92439
559.57        66.00413
560.01        66.07303
560.45        66.08495
560.88        65.94719
561.32        65.77394
561.75        65.74062
562.19        65.84658
562.63        65.96181
563.06        66.00527
563.50        65.77525
563.93         65.3828
564.37        65.36704
564.80        65.68262
565.24        65.90741
565.68        65.96857
566.11        66.02708
566.55        66.08404
566.98        66.01434
567.42        65.87897
567.85        65.75061
568.29        65.82402
568.72        65.77891
569.16        65.67358
569.60        65.85629
570.03        66.00549
570.47        65.78281
570.90        65.91148
571.34        66.05336
571.77        66.06773
572.21        65.82332
572.64        65.71767
573.08        65.72797
573.51        65.42655
573.95        65.57454
574.38         65.9054
574.82         65.5887
