SpectraSmart Spectrum 2.9.0.0
--------- Device Information -----------
Spectrum Name :  反射率_0
Saving Time :  2024/04/27 23:36:34
Spectro-Module Model Name : SE2030-DUVN
Spectro-Module Serial Number : OS361AC55029948
Wavelength Start : 200
Wavelength End : 1025
Wavelength Unit : Wavelength(nm)
Spectrum Unit : Reflectance(%)
-----------Spectrum Setting ------------
Integration Time : 20ms
Average : 10
Boxcar : 0
Background removal :  enabled
linearity correction :  enabled
SC :  disabled
Intensity correction :  disabled
DWT denoise :  enabled
savitzky-golay :  disabled
FFT :  disabled
Running average :  disabled
Kalman :  disabled
High pass :  disabled
---------------BEGIN--------------------
Wavelength(nm)             Reflectance(%)
200.29               0
200.75        27.53325
201.21        53.75037
201.67        71.24673
202.13        75.74069
202.58        72.07617
203.04        64.01558
203.50        57.04105
203.96        58.72636
204.42        68.06419
204.88        80.25481
205.34        90.64616
205.80        95.53089
206.26        94.61362
206.72        87.73337
207.18        73.71172
207.64        60.23692
208.10        57.50943
208.55        62.67845
209.01        66.41184
209.47        63.97702
209.93        53.03052
210.39        22.70103
210.85       -69.05698
211.31       -175.5046
211.77       -38.54975
212.23        48.38773
212.69        77.85647
213.14        85.17627
213.60        81.35562
214.06        67.75585
214.52        42.35972
214.98        23.79517
215.44        32.05041
215.90        49.79655
216.36        63.85586
216.81        70.13992
217.27        70.73608
217.73        68.81338
218.19        64.79147
218.65        58.74429
219.11        51.05094
219.57        40.94257
220.02        30.49776
220.48        26.82652
220.94        31.53431
221.40        41.66796
221.86         52.3825
222.32        58.82889
222.77        60.95837
223.23         60.5504
223.69        59.09183
224.15        58.06025
224.61        57.72066
225.06        57.31605
225.52        56.97444
225.98        56.58556
226.44        56.12326
226.90        55.72166
227.36        55.14352
227.81        53.95879
228.27        52.10553
228.73        49.55547
229.19         46.4722
229.65        43.51289
230.10        41.08974
230.56        39.45171
231.02        38.35554
231.48        37.47694
231.93        36.65397
232.39        36.02473
232.85        35.81733
233.31        36.36305
233.77        37.59815
234.22        39.41415
234.68        41.04064
235.14        41.62168
235.60        41.02713
236.05        39.25144
236.51        37.38703
236.97        37.70592
237.43        40.92167
237.88        46.49971
238.34        52.00335
238.80        54.96004
239.26        54.80195
239.71        51.10113
240.17         44.3671
240.63        41.81193
241.08        48.79564
241.54        59.47116
242.00        67.64079
242.46        71.31237
242.91        71.47891
243.37        67.97765
243.83        58.31236
244.28        43.16624
244.74        36.59462
245.20        43.05473
245.66         50.9043
246.11        52.68638
246.57        48.66509
247.03        39.75354
247.48        27.15014
247.94        23.43493
248.40        37.85632
248.85        60.60378
249.31         80.1934
249.77        88.89753
250.22        88.88202
250.68        84.64632
251.14        79.96432
251.59        77.88372
252.05        78.57304
252.51        80.87624
252.96         83.2919
253.42        82.08567
253.88        76.11824
254.33        69.54644
254.79        64.49858
255.25        60.40694
255.70        56.97498
256.16        54.47194
256.62        53.78151
257.07        55.94479
257.53        60.00965
257.99        64.13529
258.44        66.76759
258.90        67.03078
259.35         65.0351
259.81        62.11394
260.27        58.81759
260.72        55.83706
261.18        53.69957
261.63        51.92093
262.09        50.60143
262.55        49.49179
263.00        48.43812
263.46         47.5958
263.91        46.85267
264.37          46.359
264.83        46.01455
265.28        45.72118
265.74        45.39594
266.19        44.75989
266.65        43.85986
267.11        42.73869
267.56           41.54
268.02        40.59251
268.47        39.92585
268.93        39.45913
269.38        39.05704
269.84        38.53001
270.30        37.81355
270.75         36.9692
271.21        36.04066
271.66        35.04687
272.12        34.03948
272.57        32.98972
273.03        31.97562
273.48        31.04498
273.94        30.26614
274.39        29.60281
274.85        29.06602
275.31        28.59134
275.76        28.13624
276.22        27.72437
276.67        27.31414
277.13        26.93297
277.58        26.53431
278.04        26.14616
278.49        25.70792
278.95        25.23481
279.40         24.6929
279.86        24.15031
280.31        23.61805
280.77        23.21279
281.22        22.92254
281.68        22.75929
282.13        22.65787
282.59        22.55924
283.04        22.43553
283.50        22.30613
283.95        22.20864
284.41        22.22883
284.86        22.35576
285.32         22.5675
285.77        22.76198
286.22        22.82541
286.68        22.76058
287.13        22.58228
287.59        22.41403
288.04        22.37415
288.50        22.51113
288.95         22.7496
289.41        23.02315
289.86        23.18975
290.32        23.24061
290.77        23.22585
291.22        23.21107
291.68        23.28424
292.13         23.4739
292.59        23.77688
293.04        24.19349
293.50        24.74627
293.95        25.42412
294.40          26.235
294.86        27.16204
295.31        28.16337
295.77        29.23863
296.22        30.38755
296.68        31.61551
297.13        32.90509
297.58        34.24692
298.04        35.62027
298.49        37.04191
298.95        38.57772
299.40        40.23597
299.85        42.01385
300.31        43.85814
300.76        45.62117
301.21        47.27588
301.67        48.86953
302.12        50.45262
302.58        52.18122
303.03        54.05185
303.48        56.02422
303.94        58.06744
304.39        60.05999
304.84        61.99545
305.30        63.91823
305.75        65.79062
306.20        67.63459
306.66        69.47598
307.11         71.2592
307.57         73.0334
308.02        74.76511
308.47        76.45861
308.93        78.11173
309.38        79.66293
309.83         81.1136
310.29        82.48558
310.74         83.7653
311.19        84.97548
311.65        86.12322
312.10        87.18258
312.55        88.16356
313.00        89.08672
313.46        89.99541
313.91        90.88524
314.36        91.75409
314.82        92.57919
315.27        93.31411
315.72        93.94675
316.18        94.51065
316.63        94.99844
317.08        95.43766
317.53        95.84676
317.99        96.21458
318.44        96.58984
318.89        97.02448
319.35        97.52134
319.80        98.07424
320.25        98.61398
320.70        99.03368
321.16        99.30214
321.61        99.47031
322.06        99.60804
322.51        99.84152
322.97        100.1894
323.42        100.6472
323.87        101.1393
324.32        101.5619
324.78        101.8655
325.23        102.1131
325.68        102.3278
326.13        102.5753
326.59        102.8496
327.04         103.174
327.49        103.5014
327.94        103.7924
328.39        104.0417
328.85        104.2427
329.30        104.4857
329.75        104.7668
330.20         105.096
330.66        105.4317
331.11         105.839
331.56        106.3088
332.01         106.843
332.46        107.4371
332.92        107.9999
333.37        108.5228
333.82        108.9352
334.27        109.2499
334.72        109.5309
335.17         109.893
335.63        110.3436
336.08        110.9101
336.53        111.5022
336.98        112.0102
337.43        112.4068
337.88        112.7279
338.34        113.0265
338.79        113.4424
339.24        113.9855
339.69        114.6137
340.14        115.2567
340.59        115.8037
341.05         116.227
341.50        116.5762
341.95         116.888
342.40        117.2356
342.85        117.6445
343.30        118.0805
343.75        118.5485
344.20        119.0579
344.66         119.599
345.11        120.1659
345.56        120.6878
346.01        121.0427
346.46        121.2203
346.91         121.268
347.36        121.2988
347.81        121.4918
348.26        121.8792
348.72        122.3899
349.17        122.9321
349.62        123.3804
350.07        123.6778
350.52        123.8608
350.97         123.911
351.42        123.7994
351.87        123.5519
352.32         123.197
352.77        122.8255
353.22        122.5821
353.67        122.4952
354.13        122.5276
354.58        122.5998
355.03        122.6383
355.48        122.5947
355.93        122.4832
356.38        122.2456
356.83        121.7963
357.28        121.1401
357.73        120.3143
358.18        119.4364
358.63        118.6907
359.08        118.1261
359.53        117.7016
359.98        117.3381
360.43        116.9009
360.88         116.347
361.33        115.7096
361.78        115.0362
362.23        114.3982
362.68        113.8113
363.13        113.2556
363.58        112.6805
364.03        111.9564
364.48        111.1644
364.93        110.2718
365.38        109.3652
365.83        108.5304
366.28        107.7929
366.73        107.1268
367.18        106.5003
367.63        105.8633
368.08        105.1994
368.53        104.5266
368.98        103.8559
369.43        103.2012
369.88        102.5689
370.33        101.9539
370.78         101.352
371.23        100.7603
371.68        100.1758
372.13        99.59395
372.58        99.02547
373.03        98.49059
373.48        97.98653
373.93        97.50142
374.38        96.99845
374.83        96.41814
375.28        95.75181
375.72        95.00938
376.17          94.266
376.62         93.5666
377.07        92.93459
377.52         92.3532
377.97        91.82681
378.42        91.36144
378.87        90.94788
379.32        90.58302
379.77        90.22322
380.22         89.7977
380.67        89.28812
381.11        88.71121
381.56        88.10837
382.01        87.56575
382.46        87.12002
382.91        86.76501
383.36         86.4586
383.81        86.12785
384.26         85.7564
384.71        85.36198
385.15        84.99283
385.60        84.78362
386.05         84.7203
386.50        84.74725
386.95        84.75414
387.40        84.57884
387.85            84.2
388.29        83.64212
388.74        83.08858
389.19        82.60169
389.64        82.19894
390.09        81.82198
390.54        81.48355
390.98        81.18914
391.43         80.9842
391.88        80.86475
392.33        80.70168
392.78        80.40305
393.23        79.99393
393.67        79.26008
394.12        78.44749
394.57         78.6345
395.02        78.55947
395.47        78.52803
395.91        78.17268
396.36        77.99974
396.81        78.00799
397.26        77.90683
397.71        77.71341
398.15        77.54584
398.60        77.48568
399.05        77.37765
399.50        77.23489
399.95        77.17783
400.39        77.15253
400.84        76.92072
401.29        76.52002
401.74        76.05641
402.18        75.66594
402.63        75.61811
403.08        75.83197
403.53        75.81744
403.97        75.53078
404.42         75.2804
404.87        75.09442
405.32        74.94489
405.76        74.84127
406.21        74.68204
406.66        74.48908
407.11        74.56975
407.55         74.8192
408.00        74.59462
408.45        73.97372
408.90        73.53936
409.34        73.38268
409.79        73.37289
410.24        73.42562
410.68        73.40777
411.13        73.28776
411.58        73.16866
412.03        73.09375
412.47        73.09198
412.92        73.14742
413.37        73.26451
413.81        73.37061
414.26        73.41843
414.71        73.37471
415.15        73.27176
415.60        73.13335
416.05        73.06561
416.49         73.1013
416.94        73.20511
417.39        73.31624
417.83        73.33459
418.28        73.23397
418.73         73.0325
419.17        72.81969
419.62          72.743
420.07        72.83852
420.51        73.05647
420.96        73.28545
421.41        73.34423
421.85        73.18358
422.30         72.7954
422.74        72.34262
423.19        72.45641
423.64        73.03107
424.08        73.31713
424.53         73.1832
424.98        73.20948
425.42        73.40501
425.87         73.3266
426.31        73.05864
426.76        73.02879
427.21        73.22333
427.65        73.32667
428.10        73.29348
428.54        73.30992
428.99        73.41416
429.44        73.47742
429.88        73.46381
430.33        73.46631
430.77        73.41826
431.22        73.31704
431.66        73.20835
432.11        73.31312
432.56        73.68421
433.00        73.89172
433.45        73.72878
433.89        73.73598
434.34        74.74767
434.78         73.2076
435.23        72.76665
435.67        73.34879
436.12        74.25513
436.57        74.60454
437.01        74.11566
437.46        73.80862
437.90        74.12964
438.35        75.28094
438.79        74.75675
439.24        74.82815
439.68          74.772
440.13        74.62754
440.57        74.47714
441.02        74.64701
441.46        75.02671
441.91        75.11075
442.35        74.87193
442.80        74.91854
443.24        75.20142
443.69        75.37935
444.13        75.40609
444.58        75.45479
445.02        75.47771
445.47        75.51543
445.91        75.60384
446.36        75.52604
446.80        75.21033
447.24        75.80013
447.69        75.55949
448.13        75.42976
448.58        76.07462
449.02        76.04791
449.47        75.78816
449.91        75.73131
450.36        75.94048
450.80        76.09132
451.25        76.15123
451.69        76.20376
452.13        76.22643
452.58        76.14399
453.02        75.98172
453.47        75.83115
453.91        75.70053
454.36         75.6372
454.80         75.5845
455.24        75.32201
455.69        74.94135
456.13        74.67837
456.58         74.6636
457.02        74.52023
457.46        75.06764
457.91        74.79236
458.35        74.33457
458.79        74.05869
459.24        74.07571
459.68        74.04138
460.13        73.96178
460.57         73.6879
461.01        73.55591
461.46        73.55517
461.90          73.144
462.34        73.29879
462.79        73.27879
463.23        73.24146
463.68        73.05818
464.12        72.97073
464.56        73.02288
465.01        73.22832
465.45        73.35405
465.89        73.33125
466.34         73.2262
466.78        72.68771
467.22        71.79666
467.67         72.7194
468.11        72.33804
468.55        72.41045
468.99        72.03621
469.44        71.89965
469.88        71.99277
470.32        71.96027
470.77        71.82832
471.21        71.75997
471.65        71.75943
472.10        71.78937
472.54        71.78149
472.98        71.69498
473.42        71.52679
473.87        71.25608
474.31        70.94627
474.75        70.92078
475.20        71.12332
475.64        71.19927
476.08        71.10583
476.52        71.05621
476.97        71.01436
477.41         70.9568
477.85        70.81625
478.29        70.57301
478.74        71.27884
479.18        71.09843
479.62        70.90662
480.06        70.79337
480.50        70.93789
480.95        70.92834
481.39        70.67454
481.83        70.81077
482.27        70.67252
482.72        70.32435
483.16        70.48859
483.60        70.36314
484.04        70.17341
484.48        70.18388
484.93        70.63819
485.37        70.21194
485.81        70.23585
486.25        71.48834
486.69        71.79205
487.14         71.0407
487.58        70.28086
488.02        70.63049
488.46        70.66425
488.90        71.06895
489.34        70.32973
489.79        69.27435
490.23        70.21286
490.67        70.09825
491.11        69.73039
491.55        69.55859
491.99        69.62869
492.43         69.6672
492.88        69.64096
493.32        69.69731
493.76        69.78091
494.20         69.8433
494.64        69.88966
495.08        69.81175
495.52        69.68303
495.96        69.88724
496.41        70.31438
496.85        70.29535
497.29        69.87193
497.73        69.77763
498.17        69.92361
498.61        70.03954
499.05        70.01412
499.49        69.92015
499.93          69.801
500.37        69.62178
500.82        69.41001
501.26        69.49265
501.70        69.90772
502.14        69.34633
502.58        69.68298
503.02        69.69643
503.46        69.64634
503.90        69.61084
504.34        69.52746
504.78        69.50829
505.22        69.51088
505.66        69.43708
506.10        69.34365
506.54        69.26771
506.98          69.187
507.42        69.38655
507.86        69.68995
508.30        69.09769
508.74        69.47868
509.18        69.28588
509.62        69.13446
510.06        69.04247
510.50        69.03974
510.94          69.088
511.38        69.12562
511.82        69.10585
512.26        69.01162
512.70        68.86829
513.14        68.73059
513.58        68.65991
514.02        68.67162
514.46        68.78613
514.90        68.96777
515.34         68.9353
515.78        69.03083
516.22        68.97746
516.66        68.91688
517.10         68.8923
517.54        68.91702
517.98        68.96815
518.42        69.00629
518.86        68.98045
519.30        68.88239
519.74        68.73826
520.18        68.59113
520.62        68.50333
521.06        68.49339
521.50        68.54474
521.93        68.63436
522.37        68.71008
522.81        68.75872
523.25        68.78576
523.69        68.80366
524.13        68.83299
524.57        68.87626
525.01        68.92428
525.45        68.95142
525.89        68.92113
526.32        68.82593
526.76        68.69421
527.20         68.5645
527.64        68.51217
528.08        68.55119
528.52        68.63438
528.96        68.72156
529.40        68.79884
529.83        68.81945
530.27        68.70832
530.71        68.50813
531.15         68.3956
531.59        68.39422
532.03        68.41306
532.46        68.43877
532.90         68.5033
533.34        68.58979
533.78        68.69331
534.22        68.77748
534.66        68.78439
535.09        68.70094
535.53         68.5666
535.97        68.42124
536.41        68.34622
536.85        68.35658
537.28        68.42666
537.72         68.5202
538.16        68.54877
538.60        68.49113
539.04        68.44498
539.47        68.39525
539.91        68.22887
540.35         68.0028
540.79        68.01346
541.22        68.20706
541.66        68.25757
542.10        68.14266
542.54        68.04426
542.97        67.99442
543.41        68.00496
543.85        68.06904
544.29        68.17945
544.72        68.28239
545.16        68.31366
545.60        68.24211
546.04        68.14123
546.47        68.03893
546.91        67.86201
547.35        67.68867
547.79        67.79618
548.22        68.07354
548.66         68.1491
549.10        67.99368
549.53        67.84948
549.97        67.77759
550.41        67.77768
550.84        67.84642
551.28        67.91583
551.72        67.95365
552.15        67.97192
552.59        67.97546
553.03        67.91685
553.46        67.81963
553.90        67.79534
554.34        67.83871
554.77        67.93486
555.21          68.031
555.65        68.03794
556.08        67.87472
556.52        67.77144
556.96        67.72104
557.39        67.70461
557.83        67.70876
558.27        67.68403
558.70        67.65253
559.14        67.58916
559.57        67.44393
560.01        67.78075
560.45        67.61504
560.88        67.55977
561.32        67.43311
561.75        67.54753
562.19        67.84184
562.63        67.84764
563.06        67.60437
563.50        67.51765
563.93        67.59539
564.37        67.69285
564.80        67.74803
565.24        67.74564
565.68        67.66302
566.11        67.59647
566.55        67.58169
566.98        67.42466
567.42         67.2307
567.85        67.37757
568.29        67.82471
568.72        67.94781
569.16         67.7954
569.60        67.89898
570.03        68.26333
570.47        68.05622
570.90        68.16325
571.34        68.23586
571.77        68.37088
572.21        68.07452
572.64        68.37497
573.08        68.02832
573.51        67.74889
573.95        67.97339
574.38        68.65565
574.82        68.24483
