SpectraSmart Spectrum 2.9.0.0
--------- Device Information -----------
Spectrum Name :  反射率_0
Saving Time :  2024/04/28 00:01:02
Spectro-Module Model Name : SE2030-DUVN
Spectro-Module Serial Number : OS361AC55029948
Wavelength Start : 200
Wavelength End : 1025
Wavelength Unit : Wavelength(nm)
Spectrum Unit : Reflectance(%)
-----------Spectrum Setting ------------
Integration Time : 20ms
Average : 10
Boxcar : 0
Background removal :  enabled
linearity correction :  enabled
SC :  disabled
Intensity correction :  disabled
DWT denoise :  enabled
savitzky-golay :  disabled
FFT :  disabled
Running average :  disabled
Kalman :  disabled
High pass :  disabled
---------------BEGIN--------------------
Wavelength(nm)             Reflectance(%)
200.29               0
200.75        15.43925
201.21        46.51767
201.67        69.85439
202.13        80.30698
202.58         82.7766
203.04        81.47702
203.50         78.6319
203.96        77.14783
204.42        77.67311
204.88        79.06942
205.34        80.77298
205.80        82.61514
206.26        84.65629
206.72        87.22997
207.18        90.51534
207.64        92.28667
208.10        90.86292
208.55        88.61685
209.01         85.5858
209.47        80.84928
209.93        72.16824
210.39        51.40474
210.85       -9.794324
211.31       -82.47935
211.77        6.305324
212.23        63.60859
212.69        83.71696
213.14        90.06295
213.60        89.83242
214.06        85.21568
214.52        73.21528
214.98        56.01762
215.44        46.26195
215.90        43.61266
216.36        45.26597
216.81        49.33767
217.27        54.72522
217.73        62.26739
218.19        69.61977
218.65        72.10065
219.11        68.37314
219.57        58.95021
220.02        46.99116
220.48        42.17161
220.94        47.27597
221.40        58.01478
221.86        68.91586
222.32        74.76982
222.77        75.59106
223.23        73.74137
223.69        71.01324
224.15        69.02414
224.61        68.02686
225.06         67.2304
225.52        66.55082
225.98        65.65339
226.44        64.62339
226.90        63.71448
227.36        62.98455
227.81        62.28209
228.27        61.51743
228.73        60.56024
229.19        59.17791
229.65        57.11489
230.10        54.51864
230.56        52.03861
231.02        50.00946
231.48        48.91255
231.93        48.70808
232.39        49.16253
232.85        50.33429
233.31         52.3563
233.77        54.99043
234.22        58.15053
234.68        60.84435
235.14        61.82729
235.60        60.97349
236.05        58.41141
236.51        55.48672
236.97        55.27572
237.43        58.81699
237.88        65.26779
238.34        71.95938
238.80        76.22295
239.26         77.5329
239.71        76.08947
240.17        71.84454
240.63        69.08693
241.08        71.78154
241.54        76.90162
242.00        81.15198
242.46        83.26686
242.91        83.88875
243.37        83.39525
243.83        82.35918
244.28        84.68171
244.74        93.53693
245.20        102.5167
245.66        106.9481
246.11        108.7489
246.57        109.7136
247.03        109.5485
247.48        108.4697
247.94        107.6719
248.40        108.3864
248.85        110.3971
249.31        112.3327
249.77        112.4006
250.22        111.0239
250.68        109.3931
251.14        108.1377
251.59        107.8654
252.05        108.6947
252.51        110.2421
252.96        112.0275
253.42          112.75
253.88          111.47
254.33        109.2522
254.79        107.3457
255.25        105.2243
255.70        102.7002
256.16        100.5656
256.62        99.32426
257.07        99.64832
257.53        101.4486
257.99        103.3418
258.44        104.0906
258.90        103.3736
259.35        100.9602
259.81         98.0983
260.27        95.09681
260.72        92.42868
261.18        90.67382
261.63         89.1555
262.09        88.04971
262.55        86.92809
263.00        85.59081
263.46        84.34489
263.91        83.03139
264.37         81.9754
264.83        81.07298
265.28        80.17827
265.74        79.30245
266.19         78.0931
266.65        76.64366
267.11        74.98109
267.56        73.22076
268.02        71.68762
268.47        70.40256
268.93        69.30845
269.38        68.31419
269.84        67.32477
270.30        66.28413
270.75         65.2287
271.21        64.12916
271.66        62.86044
272.12        61.45488
272.57        59.89839
273.03        58.37406
273.48        57.06505
273.94        56.07779
274.39         55.2804
274.85        54.59631
275.31        53.78039
275.76        52.75112
276.22        51.63716
276.67        50.46398
277.13        49.42202
277.58        48.47672
278.04        47.66092
278.49        46.83967
278.95        45.98226
279.40        45.02258
279.86        44.07466
280.31        43.19593
280.77         42.6277
281.22        42.31924
281.68        42.23764
282.13        42.17383
282.59        41.93675
283.04        41.45444
283.50        40.83801
283.95        40.18556
284.41        39.71841
284.86        39.46564
285.32        39.39625
285.77        39.40495
286.22        39.40484
286.68        39.38475
287.13        39.32708
287.59        39.30793
288.04         39.3409
288.50        39.46107
288.95        39.60387
289.41        39.73986
289.86        39.76057
290.32        39.69425
290.77        39.58038
291.22        39.51292
291.68         39.6128
292.13        39.91182
292.59          40.421
293.04        41.12341
293.50        42.02066
293.95        43.08627
294.40        44.32589
294.86        45.73021
295.31        47.27092
295.77        48.93623
296.22        50.69126
296.68        52.49876
297.13        54.27113
297.58        55.98054
298.04         57.6419
298.49        59.27428
298.95        60.98464
299.40        62.79108
299.85        64.68317
300.31        66.66984
300.76        68.68697
301.21        70.70906
301.67        72.77088
302.12        74.77314
302.58        76.68645
303.03        78.47413
303.48        80.18507
303.94        81.97307
304.39        83.96509
304.84        86.20489
305.30        88.63857
305.75        91.06106
306.20        93.27771
306.66         95.2625
307.11        97.02695
307.57        98.69473
308.02        100.3145
308.47        101.9364
308.93        103.5344
309.38        105.0509
309.83        106.5315
310.29        107.9975
310.74        109.4206
311.19        110.7763
311.65        111.9833
312.10        112.9877
312.55         113.821
313.00        114.5498
313.46        115.2902
313.91         116.059
314.36        116.8519
314.82         117.616
315.27        118.2573
315.72         118.756
316.18        119.1578
316.63        119.5185
317.08        119.9677
317.53        120.5307
317.99        121.1586
318.44         121.776
318.89        122.2338
319.35        122.4981
319.80        122.6311
320.25        122.7111
320.70        122.8734
321.16        123.1432
321.61        123.4925
322.06        123.8773
322.51         124.239
322.97        124.5293
323.42        124.8107
323.87        125.0407
324.32        125.1722
324.78        125.1907
325.23        125.1604
325.68        125.1316
326.13        125.2259
326.59        125.4474
327.04        125.8185
327.49        126.2704
327.94        126.7265
328.39        127.1511
328.85        127.5168
329.30        127.8895
329.75        128.1902
330.20        128.4147
330.66        128.5392
331.11        128.6774
331.56        128.8821
332.01        129.1895
332.46        129.5861
332.92        130.0076
333.37        130.5168
333.82        131.0347
334.27        131.5598
334.72         132.071
335.17        132.5389
335.63        132.9252
336.08        133.2973
336.53        133.6337
336.98        133.9583
337.43         134.289
337.88         134.631
338.34         134.986
338.79        135.4206
339.24        135.9153
339.69        136.4492
340.14        137.0014
340.59        137.5329
341.05        138.0311
341.50         138.527
341.95        138.9737
342.40         139.319
342.85        139.5671
343.30        139.7142
343.75        139.8891
344.20        140.3031
344.66        140.9763
345.11        141.8253
345.56        142.6134
346.01        142.9567
346.46        142.7922
346.91        142.2705
347.36        141.6485
347.81        141.3208
348.26        141.3893
348.72        141.7275
349.17        142.1972
349.62        142.6028
350.07        142.8546
350.52        143.0094
350.97        143.0449
351.42        142.9195
351.87        142.6464
352.32         142.234
352.77         141.753
353.22        141.3308
353.67        140.9911
354.13        140.7007
354.58        140.4019
355.03        140.0618
355.48        139.6499
355.93        139.1852
356.38        138.5999
356.83        137.7832
357.28        136.7453
357.73         135.548
358.18        134.3394
358.63         133.347
359.08        132.6245
359.53        132.1042
359.98        131.6844
360.43        131.1985
360.88        130.5805
361.33        129.8615
361.78        129.0634
362.23        128.2159
362.68        127.3325
363.13        126.4213
363.58        125.4759
364.03        124.3798
364.48        123.3321
364.93        122.2185
365.38        121.1334
365.83         120.125
366.28        119.2035
366.73        118.3422
367.18        117.5251
367.63        116.7278
368.08        115.9363
368.53         115.165
368.98        114.3711
369.43        113.4855
369.88        112.5073
370.33        111.4571
370.78        110.4381
371.23        109.6222
371.68         109.037
372.13        108.6195
372.58        108.2469
373.03        107.7168
373.48        106.9751
373.93        106.0929
374.38        105.1376
374.83        104.2144
375.28        103.3677
375.72        102.5479
376.17        101.8117
376.62        101.1774
377.07        100.6323
377.52        100.1526
377.97        99.68478
378.42        99.13996
378.87        98.50079
379.32        97.81123
379.77        97.07236
380.22        96.28268
380.67        95.46015
381.11        94.60877
381.56        93.82928
382.01        93.30075
382.46        93.05679
382.91        93.04926
383.36        93.10625
383.81        92.95267
384.26        92.52464
384.71        91.89446
385.15        91.20493
385.60        90.75201
386.05        90.57265
386.50        90.56728
386.95        90.58855
387.40        90.41719
387.85        90.00951
388.29        89.40453
388.74        88.80325
389.19         88.2732
389.64        87.82896
390.09        87.40294
390.54        86.98363
390.98        86.54369
391.43        86.14182
391.88        85.80099
392.33        85.43896
392.78        85.03453
393.23        84.62399
393.67        83.94527
394.12        83.21572
394.57        83.53519
395.02        83.53824
395.47         83.5256
395.91        83.12294
396.36        82.92893
396.81        82.95685
397.26        82.87292
397.71        82.67201
398.15        82.48189
398.60        82.39333
399.05        82.17608
399.50        81.90073
399.95        81.93085
400.39        82.14675
400.84        81.90549
401.29        81.24655
401.74        80.65426
402.18        80.27028
402.63        80.09182
403.08         80.0803
403.53         79.9679
403.97        79.73777
404.42        79.63557
404.87        79.60349
405.32        79.50701
405.76        79.32153
406.21        78.92188
406.66        78.47224
407.11        78.54143
407.55        78.99554
408.00        79.10698
408.45        78.78451
408.90        78.01862
409.34        77.13554
409.79        77.16595
410.24        77.92282
410.68        78.11989
411.13        77.67336
411.58        77.38071
412.03        77.32021
412.47        77.24345
412.92        77.14145
413.37          77.104
413.81        77.08586
414.26        77.07396
414.71         77.0407
415.15        77.00678
415.60        76.94877
416.05        76.90267
416.49         76.8819
416.94        76.86047
417.39        76.84592
417.83        76.84856
418.28        76.85913
418.73        76.86036
419.17        76.84484
419.62        76.80368
420.07        76.74445
420.51        76.67616
420.96        76.59682
421.41        76.48238
421.85        76.30952
422.30        76.03816
422.74        75.75439
423.19        75.90627
423.64        76.40838
424.08        76.75562
424.53        76.75182
424.98        76.76086
425.42        76.80215
425.87        76.34063
426.31        75.64146
426.76        75.86274
427.21        76.79297
427.65        76.82223
428.10        76.02335
428.54         75.7952
428.99         76.1974
429.44        76.57892
429.88        76.73935
430.33        76.51177
430.77         76.0059
431.22        75.81503
431.66        76.01397
432.11        76.42644
432.56        76.89558
433.00        77.03049
433.45        76.75455
433.89        75.60928
434.34        76.95261
434.78        75.45991
435.23        75.69415
435.67        76.25227
436.12        77.19894
436.57        77.23863
437.01        76.32153
437.46        75.95284
437.90        76.74029
438.35        76.63299
438.79        76.94078
439.24        76.85896
439.68        76.80264
440.13         76.6755
440.57        76.56519
441.02        76.90594
441.46        77.48943
441.91        77.39578
442.35        76.74286
442.80        76.91144
443.24         77.6945
443.69        77.67959
444.13        76.94672
444.58        76.70972
445.02        76.97166
445.47        77.18776
445.91        77.28188
446.36        77.35183
446.80         77.3447
447.24        77.52368
447.69        77.31625
448.13        77.49892
448.58        77.80761
449.02        77.78322
449.47        77.49144
449.91        77.39315
450.36         77.5371
450.80        77.62825
451.25        77.65417
451.69        77.69615
452.13        77.72823
452.58        77.66058
453.02        77.50877
453.47        77.34034
453.91        77.16201
454.36        77.06922
454.80        76.96651
455.24        76.57351
455.69        76.05395
456.13        75.65826
456.58        75.50957
457.02        75.85815
457.46        76.38863
457.91        76.16798
458.35        75.54493
458.79        75.27488
459.24        75.50804
459.68        75.49801
460.13        75.15446
460.57        75.35892
461.01        75.18771
461.46        74.68924
461.90        74.18123
462.34        74.81687
462.79        74.54892
463.23        74.58717
463.68        74.31306
464.12        74.08133
464.56        73.97936
465.01        74.13578
465.45        74.35446
465.89        74.44157
466.34        74.39704
466.78        73.93764
467.22        73.24231
467.67        73.67101
468.11        74.01478
468.55         74.0049
468.99        73.35763
469.44        73.09496
469.88        73.24269
470.32        73.23184
470.77        73.04076
471.21        72.90041
471.65        72.81374
472.10        72.73895
472.54         72.6563
472.98        72.59957
473.42        72.57607
473.87        72.51923
474.31        72.42557
474.75        72.57249
475.20        72.81505
475.64        72.73429
476.08        72.41068
476.52         72.1654
476.97        71.95357
477.41        72.63865
477.85        72.07794
478.29        72.21144
478.74         72.0825
479.18        71.66718
479.62        71.84251
480.06        71.80196
480.50        71.86555
480.95        71.98071
481.39         72.0209
481.83        72.20302
482.27        72.16716
482.72        71.58467
483.16        71.66094
483.60        71.49578
484.04         71.5258
484.48         71.5563
484.93        71.72186
485.37        71.99654
485.81        72.63126
486.25        72.46539
486.69        72.88605
487.14        71.91623
487.58        71.40979
488.02        72.09304
488.46        71.96689
488.90         71.8149
489.34        71.21429
489.79        70.50248
490.23        71.32022
490.67        71.36164
491.11        71.09497
491.55        70.93571
491.99        70.92445
492.43        70.89968
492.88        70.84345
493.32        70.82372
493.76        70.80908
494.20        70.81534
494.64        70.85205
495.08        70.82642
495.52        70.79478
495.96        70.97975
496.41        71.27344
496.85        71.29362
497.29        71.11691
497.73        70.71211
498.17        71.22793
498.61        71.23701
499.05         71.0452
499.49        70.96029
499.93        71.01751
500.37        70.85302
500.82        70.49145
501.26        70.56528
501.70        71.23644
502.14        70.46156
502.58        70.81911
503.02        70.73373
503.46        70.66586
503.90        70.60218
504.34        70.48241
504.78        70.44085
505.22        70.41465
505.66        70.35003
506.10        70.33552
506.54        70.29272
506.98         70.1507
507.42        70.87084
507.86        71.01604
508.30        70.49792
508.74        70.87836
509.18        70.59873
509.62        70.31833
510.06        70.12801
510.50        70.09141
510.94        70.13345
511.38        70.20523
511.82        70.27866
512.26        70.32495
512.70        70.36158
513.14        70.38076
513.58        70.33856
514.02        70.23355
514.46        70.12646
514.90        70.06013
515.34        69.85967
515.78        69.94319
516.22        69.96926
516.66        70.04721
517.10        70.14651
517.54        70.25255
517.98        70.36045
518.42        70.43726
518.86        70.44199
519.30        70.37038
519.74        70.23888
520.18        70.08151
520.62        69.96621
521.06        69.91533
521.50        69.89013
521.93        69.88216
522.37        69.98524
522.81        69.99236
523.25        70.06258
523.69        70.11553
524.13        70.12196
524.57        70.07555
525.01        69.98956
525.45        69.88502
525.89        69.79235
526.32        69.72034
526.76        69.67746
527.20        69.66366
527.64        69.68598
528.08        69.73839
528.52         69.8105
528.96        69.88842
529.40        69.94948
529.83        69.97859
530.27        69.99612
530.71         69.9819
531.15        69.91674
531.59        69.80687
532.03        69.66222
532.46         69.5276
532.90        69.49635
533.34        69.57625
533.78         69.7383
534.22        69.91906
534.66        70.02101
535.09        70.01159
535.53        69.93844
535.97        69.83173
536.41        69.75739
536.85        69.73557
537.28        69.74851
537.72        69.77577
538.16        69.77639
538.60        69.74341
539.04        69.70723
539.47        69.66545
539.91        69.65084
540.35         69.6501
540.79        69.66652
541.22        69.67609
541.66        69.65114
542.10        69.58562
542.54        69.49343
542.97        69.39501
543.41         69.3607
543.85         69.3892
544.29        69.46527
544.72        69.54666
545.16        69.60427
545.60        69.61025
546.04        69.56828
546.47        69.50327
546.91        69.46617
547.35          69.459
547.79        69.47747
548.22        69.47128
548.66        69.38269
549.10        69.22463
549.53        69.14574
549.97        69.17262
550.41        69.21513
550.84        69.26223
551.28        69.40601
551.72        69.60635
552.15        69.66134
552.59        69.50747
553.03        69.63364
553.46        69.13942
553.90        69.08171
554.34        69.16264
554.77         69.4731
555.21        69.92114
555.65        69.55444
556.08        69.65077
556.52        69.32249
556.96        69.05151
557.39        69.01134
557.83        69.18839
558.27        69.22458
558.70        69.09221
559.14        69.06487
559.57        69.11975
560.01        69.12195
560.45        69.05708
560.88        68.98972
561.32        68.97631
561.75        68.93034
562.19        68.89799
562.63        68.97618
563.06        69.11112
563.50        69.09392
563.93        68.93364
564.37        68.89219
564.80          68.961
565.24        69.05017
565.68         69.1348
566.11        69.21825
566.55        69.31716
566.98        69.39945
567.42          69.467
567.85        69.50865
568.29         69.5578
568.72        69.43488
569.16         69.2454
569.60        69.31121
570.03        69.64467
570.47        69.56071
570.90        69.90319
571.34         70.1538
571.77        70.08146
572.21        70.01681
572.64        70.16208
573.08        69.59772
573.51        69.43165
573.95        69.62983
574.38         70.2857
574.82        69.80653
