SpectraSmart Spectrum 2.9.0.0
--------- Device Information -----------
Spectrum Name :  反射率_0
Saving Time :  2024/04/28 00:08:54
Spectro-Module Model Name : SE2030-DUVN
Spectro-Module Serial Number : OS361AC55029948
Wavelength Start : 200
Wavelength End : 1025
Wavelength Unit : Wavelength(nm)
Spectrum Unit : Reflectance(%)
-----------Spectrum Setting ------------
Integration Time : 20ms
Average : 10
Boxcar : 0
Background removal :  enabled
linearity correction :  enabled
SC :  disabled
Intensity correction :  disabled
DWT denoise :  enabled
savitzky-golay :  disabled
FFT :  disabled
Running average :  disabled
Kalman :  disabled
High pass :  disabled
---------------BEGIN--------------------
Wavelength(nm)             Reflectance(%)
200.29               0
200.75        68.06351
201.21        94.95332
201.67        111.4585
202.13        115.2579
202.58        110.9903
203.04        102.5258
203.50        93.18054
203.96         88.2319
204.42        88.39439
204.88        91.19504
205.34        94.28384
205.80        95.65826
206.26        94.85754
206.72        91.64695
207.18        86.17475
207.64        82.85371
208.10        84.94991
208.55        89.80247
209.01        92.15922
209.47        89.81786
209.93        81.07101
210.39        56.58642
210.85       -18.98844
211.31       -113.4655
211.77       -6.120698
212.23        66.34514
212.69         91.2511
213.14        96.55337
213.60         91.1727
214.06        75.60287
214.52        47.60424
214.98        27.70044
215.44        37.66773
215.90         58.3909
216.36        74.60249
216.81        81.56033
217.27          81.912
217.73        78.98237
218.19        74.36315
218.65        70.14857
219.11        67.24151
219.57         64.6998
220.02        62.26083
220.48        61.02872
220.94        60.96083
221.40        62.05709
221.86        63.86311
222.32        65.72444
222.77        67.35086
223.23        68.60184
223.69        69.20232
224.15        68.78748
224.61        67.44105
225.06        65.22583
225.52        62.83064
225.98        61.35082
226.44        61.05761
226.90        61.23856
227.36        61.53918
227.81        61.62138
228.27        61.43368
228.73        61.09158
229.19        60.09714
229.65        57.64069
230.10        53.81084
230.56        49.40998
231.02        45.62341
231.48        44.09051
231.93        44.78568
232.39        47.00704
232.85        49.79219
233.31        51.83767
233.77        52.83728
234.22        53.38563
234.68        53.37777
235.14        52.73267
235.60        51.55963
236.05        49.61087
236.51        47.95369
236.97        48.89885
237.43        53.01119
237.88        59.62395
238.34        66.17204
238.80        70.11304
239.26        70.96207
239.71        68.68989
240.17         63.0413
240.63        58.65499
241.08        60.48455
241.54        65.55862
242.00        70.36519
242.46        73.51821
242.91        75.81809
243.37        78.60129
243.83        83.22984
244.28        89.11902
244.74        89.98018
245.20        84.74437
245.66        79.16832
246.11        75.55058
246.57        72.72979
247.03        69.86929
247.48        66.89878
247.94        65.81059
248.40         68.2428
248.85        72.58865
249.31        77.32838
249.77        81.23025
250.22        84.09715
250.68        86.27983
251.14        87.52962
251.59        87.75766
252.05        87.09275
252.51          84.754
252.96        81.19425
253.42        80.11637
253.88        82.53769
254.33        86.56738
254.79        88.70195
255.25        85.93482
255.70        79.71008
256.16        72.86983
256.62        68.24758
257.07        68.82882
257.53        73.52585
257.99        79.21324
258.44        83.54086
258.90        85.18478
259.35        84.12003
259.81        82.00006
260.27        79.35706
260.72        76.83902
261.18        75.05437
261.63        73.38273
262.09         72.0799
262.55          70.927
263.00        69.75813
263.46        68.81406
263.91        67.84334
264.37        66.93505
264.83        66.00357
265.28        65.00028
265.74        64.07561
266.19        63.14344
266.65        62.27392
267.11        61.39413
267.56        60.42533
268.02         59.3765
268.47        58.20612
268.93        56.96048
269.38        55.69944
269.84        54.55365
270.30        53.54353
270.75        52.63989
271.21         51.7639
271.66        50.72694
272.12        49.53159
272.57        48.20467
273.03        46.91746
273.48        45.83787
273.94        45.05767
274.39        44.44946
274.85         43.9462
275.31        43.34769
275.76        42.58996
276.22        41.78712
276.67        40.94091
277.13        40.17992
277.58        39.46868
278.04        38.82067
278.49        38.17694
278.95        37.59282
279.40        37.00577
279.86        36.48351
280.31        35.94699
280.77        35.41759
281.22         34.8549
281.68        34.32362
282.13          33.827
282.59        33.43742
283.04        33.13461
283.50        32.92181
283.95        32.75536
284.41         32.6214
284.86        32.49028
285.32        32.39242
285.77        32.31209
286.22         32.2767
286.68        32.30108
287.13        32.33117
287.59        32.38359
288.04        32.40173
288.50          32.408
288.95        32.38126
289.41         32.3534
289.86        32.31345
290.32          32.297
290.77        32.30701
291.22        32.36706
291.68        32.49922
292.13        32.71055
292.59        33.03301
293.04        33.49368
293.50         34.1548
293.95        35.01818
294.40        36.08607
294.86        37.31411
295.31        38.62366
295.77        39.99559
296.22        41.40652
296.68        42.90969
297.13        44.55893
297.58        46.34074
298.04         48.2226
298.49        50.06453
298.95         51.7183
299.40        53.17714
299.85        54.52179
300.31        55.95863
300.76        57.74728
301.21        59.92139
301.67          62.374
302.12        64.85092
302.58        67.07545
303.03        68.95005
303.48        70.61295
303.94        72.23396
304.39         73.9723
304.84         75.9129
305.30        77.99662
305.75        80.13847
306.20        82.31796
306.66        84.51994
307.11        86.69683
307.57         88.8222
308.02        90.71415
308.47        92.36572
308.93        93.82684
309.38        95.13181
309.83        96.45672
310.29        97.86922
310.74        99.30199
311.19         100.733
311.65        102.0887
312.10        103.3035
312.55        104.4085
313.00        105.4184
313.46        106.3645
313.91        107.2446
314.36         108.065
314.82        108.8154
315.27        109.4784
315.72        110.0544
316.18        110.5689
316.63         111.039
317.08        111.5308
317.53         112.059
317.99        112.5998
318.44        113.1278
318.89        113.5719
319.35        113.9149
319.80        114.1927
320.25        114.4317
320.70        114.6829
321.16        114.9544
321.61        115.2506
322.06        115.5695
322.51        115.9201
322.97        116.2762
323.42        116.6688
323.87        117.0471
324.32        117.3505
324.78        117.5472
325.23        117.6968
325.68        117.8109
326.13        117.9446
326.59        118.0939
327.04        118.3019
327.49        118.5552
327.94        118.8674
328.39        119.2392
328.85        119.6364
329.30        120.1034
329.75         120.531
330.20        120.8924
330.66        121.1602
331.11        121.4449
331.56        121.8056
332.01        122.2674
332.46        122.8056
332.92        123.3031
333.37        123.7315
333.82        124.0096
334.27        124.1779
334.72        124.3202
335.17         124.574
335.63        124.9535
336.08         125.482
336.53        126.0751
336.98         126.639
337.43        127.1394
337.88        127.6022
338.34        128.0327
338.79        128.5016
339.24        129.0029
339.69        129.5193
340.14        130.0315
340.59        130.5143
341.05        130.9661
341.50        131.4091
341.95        131.8567
342.40        132.3465
342.85        132.8806
343.30        133.4258
343.75        133.9682
344.20        134.4857
344.66         134.967
345.11        135.4214
345.56        135.7898
346.01         135.976
346.46         135.985
346.91        135.8562
347.36        135.7437
347.81        135.8844
348.26        136.3109
348.72        136.9405
349.17        137.5891
349.62         137.983
350.07        138.0451
350.52        137.8629
350.97          137.54
351.42        137.2481
351.87        137.0492
352.32        136.8877
352.77        136.7492
353.22        136.6163
353.67        136.4654
354.13        136.3153
354.58        136.0981
355.03        135.7621
355.48        135.2957
355.93        134.7198
356.38        134.0581
356.83        133.3523
357.28        132.6277
357.73        131.8863
358.18        131.1608
358.63        130.4928
359.08        129.8897
359.53        129.3468
359.98        128.8177
360.43        128.2274
360.88         127.549
361.33        126.7811
361.78        125.9731
362.23        125.2037
362.68        124.4812
363.13        123.7996
363.58        123.0728
364.03        122.0597
364.48        120.9203
364.93        119.6038
365.38        118.2838
365.83        117.1436
366.28        116.2373
366.73        115.5045
367.18        114.8976
367.63        114.3388
368.08        113.7843
368.53        113.2505
368.98        112.6881
369.43        112.0186
369.88        111.2286
370.33        110.3253
370.78        109.3814
371.23        108.5301
371.68        107.8029
372.13        107.1646
372.58        106.5521
373.03        105.8566
373.48        105.0557
373.93        104.2001
374.38         103.333
374.83        102.5142
375.28        101.7641
375.72        101.0393
376.17        100.3809
376.62        99.78195
377.07        99.23163
377.52        98.72057
377.97        98.21017
378.42        97.64082
378.87         97.0053
379.32        96.33054
379.77         95.6467
380.22        94.99529
380.67        94.38966
381.11        93.82305
381.56        93.30109
382.01        92.84626
382.46        92.46638
382.91        92.16179
383.36        91.89962
383.81        91.62251
384.26        91.31272
384.71        90.97741
385.15        90.62791
385.60        90.34998
386.05        90.13081
386.50        89.94109
386.95        89.74092
387.40        89.47655
387.85        89.14136
388.29        88.71021
388.74        88.30367
389.19        87.88379
389.64        87.44428
390.09        86.95966
390.54        86.46494
390.98        86.00291
391.43        85.64775
391.88        85.38968
392.33        85.11829
392.78        84.77344
393.23        84.38242
393.67        83.70712
394.12        82.96685
394.57        83.25033
395.02        83.20185
395.47        83.13396
395.91        82.69052
396.36        82.47404
396.81        82.50137
397.26        82.45174
397.71        82.26938
398.15        82.01524
398.60        81.78509
399.05        81.33433
399.50         80.8166
399.95         80.8303
400.39        81.21835
400.84        81.01974
401.29         80.2823
401.74        79.76883
402.18        79.61668
402.63        79.64108
403.08        79.74319
403.53        79.66266
403.97        79.36073
404.42        79.05682
404.87        78.80892
405.32        78.62277
405.76        78.49532
406.21        78.42675
406.66        78.38897
407.11        78.28693
407.55        78.10647
408.00        78.02313
408.45        78.00747
408.90        77.45796
409.34        76.62439
409.79        76.69275
410.24        77.48222
410.68        77.74762
411.13        77.39889
411.58        77.13232
412.03        77.03268
412.47        76.94596
412.92        76.87199
413.37        76.85839
413.81        76.85308
414.26        76.84222
414.71        76.79528
415.15        76.73942
415.60        76.64531
416.05        76.53704
416.49        76.43016
416.94        76.30553
417.39        76.19774
417.83         76.1528
418.28         76.1748
418.73        76.25162
419.17        76.33788
419.62        76.36083
420.07        76.30646
420.51        76.18528
420.96        76.07018
421.41        76.02264
421.85        76.02317
422.30        76.08067
422.74        76.12311
423.19        76.20564
423.64        76.27664
424.08        76.28762
424.53        76.18018
424.98        76.08096
425.42        76.02829
425.87        75.87176
426.31        75.67315
426.76        75.74174
427.21        75.98705
427.65        75.91294
428.10        75.59533
428.54         75.5415
428.99        75.79567
429.44        76.21342
429.88        76.60794
430.33        76.46107
430.77        75.87623
431.22          75.857
431.66        76.34598
432.11        76.36909
432.56        75.97103
433.00        76.17452
433.45         76.7442
433.89        76.57529
434.34         75.7856
434.78        75.44125
435.23        75.32489
435.67        75.90737
436.12        76.88491
436.57        77.11901
437.01        76.69621
437.46        76.46986
437.90        77.02709
438.35        77.10712
438.79        76.98593
439.24        76.84647
439.68        76.78932
440.13        76.75084
440.57        76.79689
441.02        77.07973
441.46        77.38284
441.91        77.40582
442.35        77.26068
442.80        76.59406
443.24        77.52699
443.69        77.65728
444.13        77.58552
444.58        77.64609
445.02        77.80932
445.47        77.93629
445.91        77.98975
446.36        77.94536
446.80        77.76004
447.24         77.9954
447.69        77.60911
448.13        77.75664
448.58        78.03531
449.02        77.99429
449.47         77.7053
449.91        77.64647
450.36        77.86639
450.80          78.056
451.25        78.17107
451.69        78.24397
452.13          78.244
452.58        78.10384
453.02        77.88417
453.47        77.70203
453.91        77.56766
454.36        77.59099
454.80        77.66704
455.24        77.24188
455.69        76.82473
456.13        76.46157
456.58        76.34336
457.02        76.49166
457.46        76.64149
457.91        76.31749
458.35        75.85239
458.79        75.56959
459.24        75.58907
459.68        75.56813
460.13        75.49534
460.57        75.28355
461.01         75.2961
461.46        74.99167
461.90        74.73543
462.34        74.85895
462.79        74.80735
463.23        74.77566
463.68        74.59741
464.12        74.51031
464.56        74.52802
465.01        74.62274
465.45        74.64527
465.89         74.5936
466.34        74.50672
466.78        74.18583
467.22        73.71733
467.67        74.03001
468.11        74.00048
468.55        73.91666
468.99        73.50204
469.44         73.3148
469.88        73.37034
470.32        73.36041
470.77        73.27385
471.21        73.22849
471.65        73.21073
472.10        73.20046
472.54        73.15136
472.98        73.03444
473.42        72.85205
473.87        72.63175
474.31        72.39375
474.75         72.2892
475.20        72.29735
475.64          72.331
476.08        72.34393
476.52        72.33936
476.97        72.30231
477.41        72.41785
477.85        72.08302
478.29        72.15292
478.74        72.51398
479.18        71.58562
479.62        72.04671
480.06         71.8932
480.50        71.92387
480.95        72.02608
481.39        72.11496
481.83        72.05099
482.27        72.26058
482.72         71.6392
483.16        71.84382
483.60        71.67503
484.04        71.58275
484.48        71.50879
484.93        71.63626
485.37        71.75501
485.81        72.16065
486.25        72.65514
486.69        73.69643
487.14        72.81752
487.58        71.54171
488.02        71.89387
488.46        72.12488
488.90        71.67471
489.34        71.45324
489.79        70.68768
490.23        71.31554
490.67         71.1431
491.11        70.70052
491.55         70.5946
491.99        70.80515
492.43        70.87993
492.88        70.77568
493.32        70.76347
493.76        70.83391
494.20        70.88776
494.64        70.91856
495.08         70.9673
495.52         71.0407
495.96        71.03873
496.41        70.98669
496.85        71.14323
497.29        71.37878
497.73        71.33416
498.17        70.96577
498.61        70.87282
499.05        71.02595
499.49        71.11509
499.93        71.10332
500.37        70.91322
500.82        70.58871
501.26         70.5781
501.70        70.97265
502.14        70.51668
502.58        70.81815
503.02         70.8784
503.46        70.86848
503.90        70.91034
504.34         70.9052
504.78        70.87295
505.22        70.78751
505.66        70.59965
506.10        70.38038
506.54        70.29345
506.98        70.36114
507.42         70.3865
507.86         70.7625
508.30        70.54513
508.74        70.71444
509.18        70.57641
509.62        70.43533
510.06        70.33084
510.50        70.28461
510.94        70.27144
511.38        70.25982
511.82        70.22594
512.26        70.16013
512.70        70.07803
513.14        69.99687
513.58        69.94039
514.02        69.91792
514.46        69.92081
514.90        69.93452
515.34        69.95729
515.78        69.95845
516.22        69.95625
516.66        69.95782
517.10        69.98536
517.54        70.03864
517.98        70.10803
518.42        70.16177
518.86        70.14975
519.30         70.0662
519.74        69.93242
520.18        69.79192
520.62        69.71036
521.06        69.70694
521.50        69.76601
521.93        69.86226
522.37        69.93832
522.81        69.98086
523.25        69.99759
523.69        70.00542
524.13        70.03202
524.57        70.08044
525.01        70.13799
525.45        70.17522
525.89        70.14826
526.32         70.0481
526.76        69.90991
527.20        69.77098
527.64        69.69759
528.08         69.7041
528.52        69.76405
528.96        69.85186
529.40        69.92578
529.83        69.96315
530.27        69.99229
530.71        69.99138
531.15        69.93687
531.59        69.83204
532.03        69.68091
532.46        69.52995
532.90        69.47878
533.34        69.53607
533.78        69.67354
534.22        69.81972
534.66        69.86339
535.09        69.77433
535.53        69.61042
535.97        69.42252
536.41        69.30713
536.85        69.29263
537.28        69.35239
537.72         69.4498
538.16        69.51824
538.60        69.53686
539.04        69.53375
539.47        69.51251
539.91        69.51616
540.35        69.53449
540.79        69.57354
541.22         69.5873
541.66        69.51456
542.10        69.35075
542.54        69.12255
542.97         68.9097
543.41        68.87147
543.85         69.0159
544.29        69.29752
544.72        69.59142
545.16        69.72954
545.60        69.65494
546.04        69.44068
546.47         69.1882
546.91         69.0083
547.35        68.96532
547.79        69.15842
548.22        69.44348
548.66        69.48328
549.10        69.26917
549.53        69.10606
549.97        69.05428
550.41        69.04145
550.84        69.04836
551.28        69.07494
551.72        69.11855
552.15          69.105
552.59        69.01536
553.03        69.28232
553.46        69.10093
553.90        69.11504
554.34        69.04756
554.77        69.14436
555.21        69.44406
555.65        68.85815
556.08        69.12685
556.52        69.06013
556.96        69.13943
557.39         69.0596
557.83        68.88512
558.27        68.96058
558.70        69.19901
559.14         69.1061
559.57        68.74783
560.01        68.74319
560.45        69.04678
560.88        69.17152
561.32        69.14155
561.75         69.1207
562.19        69.13983
562.63        69.18484
563.06        69.21743
563.50        69.06122
563.93        68.76389
564.37        68.68987
564.80        68.80212
565.24        68.83698
565.68        68.77929
566.11        68.79951
566.55        68.91699
566.98        68.98391
567.42        69.01454
567.85        69.09237
568.29        69.24001
568.72        69.19499
569.16        69.02602
569.60          69.114
570.03        69.47926
570.47        69.27586
570.90        69.36983
571.34        69.86807
571.77        69.79743
572.21        69.74694
572.64        70.16282
573.08        69.71562
573.51        69.18482
573.95        69.30859
574.38         69.8853
574.82        70.13442
