SpectraSmart Spectrum 2.9.0.0
--------- Device Information -----------
Spectrum Name :  反射率_0
Saving Time :  2024/04/27 23:38:53
Spectro-Module Model Name : SE2030-DUVN
Spectro-Module Serial Number : OS361AC55029948
Wavelength Start : 200
Wavelength End : 1025
Wavelength Unit : Wavelength(nm)
Spectrum Unit : Reflectance(%)
-----------Spectrum Setting ------------
Integration Time : 20ms
Average : 10
Boxcar : 0
Background removal :  enabled
linearity correction :  enabled
SC :  disabled
Intensity correction :  disabled
DWT denoise :  enabled
savitzky-golay :  disabled
FFT :  disabled
Running average :  disabled
Kalman :  disabled
High pass :  disabled
---------------BEGIN--------------------
Wavelength(nm)             Reflectance(%)
200.29               0
200.75         56.9926
201.21        61.96054
201.67        65.45943
202.13        66.46531
202.58        65.74114
203.04        65.00266
203.50        64.13171
203.96        62.98246
204.42        62.02107
204.88        61.21762
205.34        61.59971
205.80        64.79829
206.26        71.45789
206.72        82.97501
207.18        99.51065
207.64        108.6909
208.10        101.6658
208.55        88.50412
209.01        77.34576
209.47        69.51085
209.93        61.94381
210.39        48.09003
210.85        11.87774
211.31       -23.04415
211.77        34.17865
212.23        67.45619
212.69        78.35348
213.14        81.16257
213.60        79.49921
214.06        74.38605
214.52        63.59341
214.98        51.18092
215.44        47.17793
215.90        48.22257
216.36        51.96301
216.81         57.7231
217.27         64.8454
217.73        74.02306
218.19        81.99825
218.65        82.51773
219.11        73.73309
219.57        56.20374
220.02        34.88448
220.48        24.54227
220.94        30.04526
221.40         45.2029
221.86        61.28452
222.32        69.61289
222.77         70.1189
223.23        66.62132
223.69        61.83706
224.15        58.22804
224.61        56.17239
225.06        54.38929
225.52        53.05221
225.98        52.41568
226.44        52.36064
226.90        52.73145
227.36        52.97556
227.81         52.4428
228.27        51.10063
228.73        49.03731
229.19        46.33779
229.65        43.48188
230.10        40.87155
230.56        38.82495
231.02        37.41463
231.48        36.76274
231.93         36.7127
232.39        37.18866
232.85        38.09671
233.31        39.31472
233.77        40.71932
234.22        42.40455
234.68        43.78462
235.14        44.23475
235.60        43.70599
236.05        42.12297
236.51        40.60313
236.97         41.4574
237.43         45.3067
237.88        51.51207
238.34        57.52818
238.80        60.79408
239.26        60.74432
239.71         57.0523
240.17        49.87366
240.63        45.82611
241.08        50.80178
241.54        59.97216
242.00        67.74356
242.46        72.30695
242.91        74.92507
243.37        76.75926
243.83        78.75256
244.28        82.22237
244.74        85.56094
245.20        86.15137
245.66        84.16354
246.11        80.24518
246.57          73.618
247.03        62.20299
247.48        45.99052
247.94        36.27945
248.40        44.18393
248.85        63.18651
249.31        81.14774
249.77         88.2569
250.22        86.53061
250.68         80.9363
251.14         75.7567
251.59        74.64926
252.05        78.00453
252.51        85.02558
252.96        94.06687
253.42        97.96714
253.88         92.5666
254.33        83.22572
254.79        75.20668
255.25        69.91959
255.70          66.659
256.16        64.88528
256.62        64.57755
257.07        65.93089
257.53        68.42854
257.99        70.87703
258.44        72.24342
258.90        72.10303
259.35        70.36849
259.81        68.06023
260.27        65.41397
260.72        62.77815
261.18        60.70872
261.63        58.86212
262.09         57.4796
262.55        56.41678
263.00          55.512
263.46        54.85197
263.91        54.30133
264.37        54.02898
264.83        53.89692
265.28        53.80175
265.74        53.58858
266.19        52.83488
266.65        51.61479
267.11        50.02354
267.56         48.3534
268.02        47.17682
268.47         46.5637
268.93        46.35146
269.38        46.26556
269.84        45.90067
270.30        45.13323
270.75        44.09946
271.21        42.91385
271.66        41.69502
272.12        40.53829
272.57        39.37763
273.03        38.29908
273.48        37.36211
273.94          36.626
274.39         36.0325
274.85        35.56748
275.31         35.1103
275.76        34.60327
276.22        34.10107
276.67        33.55088
277.13        32.98555
277.58        32.36948
278.04        31.75187
278.49        31.12287
278.95        30.58591
279.40        30.10614
279.86        29.72242
280.31        29.37163
280.77        29.07873
281.22        28.79597
281.68        28.56378
282.13        28.34661
282.59        28.14731
283.04        27.94309
283.50        27.74701
283.95        27.55746
284.41        27.41614
284.86        27.31186
285.32        27.25624
285.77        27.20902
286.22        27.14888
286.68         27.0889
287.13        27.00664
287.59        26.95447
288.04        26.93629
288.50        26.97977
288.95        27.04055
289.41        27.12091
289.86        27.17397
290.32        27.21807
290.77        27.27466
291.22        27.35262
291.68        27.45583
292.13         27.5936
292.59        27.78794
293.04        28.11062
293.50        28.69479
293.95        29.54606
294.40        30.63932
294.86        31.84789
295.31        32.96225
295.77        33.94682
296.22        34.83926
296.68        35.78473
297.13        36.98794
297.58        38.48082
298.04        40.17533
298.49         41.9022
298.95        43.45515
299.40        44.79278
299.85        46.00016
300.31        47.22976
300.76        48.66092
301.21        50.32897
301.67        52.16062
302.12        53.98708
302.58        55.64582
303.03        57.07063
303.48          58.347
303.94        59.61222
304.39        60.98914
304.84        62.53329
305.30        64.20087
305.75        65.86614
306.20         67.4234
306.66        68.86185
307.11         70.1785
307.57        71.45493
308.02        72.70304
308.47        73.94645
308.93        75.16337
309.38        76.29354
309.83        77.33781
310.29        78.31384
310.74        79.21509
311.19        80.05224
311.65        80.81628
312.10        81.47966
312.55         82.0491
313.00        82.57213
313.46        83.12971
313.91        83.72478
314.36        84.35596
314.82        84.94212
315.27         85.3443
315.72         85.5432
316.18        85.59858
316.63        85.62228
317.08        85.82607
317.53        86.25396
317.99        86.83268
318.44        87.44795
318.89        87.88873
319.35        88.09905
319.80         88.1559
320.25        88.14175
320.70        88.19849
321.16        88.36002
321.61        88.58774
322.06        88.85464
322.51        89.12967
322.97        89.37863
323.42        89.65236
323.87        89.89458
324.32        90.02473
324.78        90.02356
325.23        89.94363
325.68        89.86708
326.13        89.95805
326.59        90.23447
327.04        90.69511
327.49         91.2252
327.94        91.66257
328.39        91.95464
328.85        92.10856
329.30        92.24252
329.75        92.43479
330.20         92.7153
330.66        93.02213
331.11        93.34896
331.56        93.58519
332.01        93.71868
332.46        93.78888
332.92        93.82901
333.37        94.01899
333.82        94.35194
334.27         94.7866
334.72        95.26976
335.17        95.71441
335.63        96.06831
336.08        96.41055
336.53        96.72119
336.98        97.00494
337.43        97.28048
337.88        97.54937
338.34         97.8531
338.79        98.30891
339.24        98.91477
339.69        99.63137
340.14        100.3831
340.59        101.0444
341.05        101.5722
341.50        102.0052
341.95          102.35
342.40        102.6402
342.85        102.9003
343.30         103.117
343.75        103.3454
344.20        103.6728
344.66        104.1193
345.11        104.6707
345.56          105.23
346.01        105.6305
346.46        105.8394
346.91        105.8989
347.36        105.9454
347.81        106.1933
348.26        106.6774
348.72        107.3244
349.17        107.9632
349.62        108.3429
350.07        108.3988
350.52        108.2071
350.97        107.9182
351.42        107.7714
351.87        107.8318
352.32        108.0334
352.77        108.2498
353.22         108.286
353.67        108.1016
354.13        107.7769
354.58        107.4093
355.03        107.2143
355.48        107.2231
355.93        107.3413
356.38        107.4293
356.83        107.2753
357.28        106.8348
357.73        106.2056
358.18        105.4685
358.63        104.7403
359.08        104.0832
359.53        103.4721
359.98         102.957
360.43        102.6208
360.88        102.4465
361.33        102.3786
361.78        102.3059
362.23        102.0453
362.68        101.5412
363.13        100.8522
363.58         99.9948
364.03        99.00831
364.48         97.9455
364.93        96.83234
365.38        95.79549
365.83        95.03139
366.28        94.56961
366.73        94.34979
367.18        94.23343
367.63         93.9851
368.08        93.52899
368.53        92.92058
368.98        92.21504
369.43        91.51046
369.88        90.85266
370.33        90.22079
370.78        89.62102
371.23        89.06854
371.68        88.56725
372.13        88.11869
372.58         87.7389
373.03        87.44337
373.48        87.21431
373.93        87.02628
374.38        86.79941
374.83        86.41325
375.28         85.8479
375.72        85.13088
376.17        84.37315
376.62        83.68713
377.07        83.11134
377.52         82.6024
377.97        82.15297
378.42        81.74767
378.87        81.36919
379.32        81.03503
379.77        80.67541
380.22        80.17422
380.67        79.51923
381.11        78.74438
381.56        77.97271
382.01        77.42401
382.46         77.1554
382.91        77.10889
383.36        77.14175
383.81        77.02576
384.26        76.70267
384.71        76.23536
385.15        75.73058
385.60        75.41253
386.05        75.30628
386.50         75.3393
386.95        75.38719
387.40        75.26775
387.85        74.94926
388.29        74.45999
388.74        73.99662
389.19        73.66036
389.64         73.4646
390.09        73.33582
390.54        73.20646
390.98        72.96373
391.43        72.63779
391.88        72.26415
392.33        71.83651
392.78        71.46646
393.23        71.18493
393.67        70.65953
394.12        70.06051
394.57        70.36838
395.02         70.4235
395.47        70.42366
395.91        70.06564
396.36        69.91904
396.81        69.99181
397.26        69.96192
397.71        69.82612
398.15        69.66761
398.60        69.55685
399.05        69.42163
399.50        69.27667
399.95        69.12291
400.39        68.97471
400.84        68.85417
401.29        68.74235
401.74        68.48473
402.18        68.12533
402.63        67.87132
403.08        67.74848
403.53        67.60603
403.97        67.45047
404.42        67.40254
404.87         67.4258
405.32        67.44667
405.76        67.43288
406.21        67.33384
406.66        67.19843
407.11        67.21548
407.55        67.32896
408.00        67.31048
408.45        67.13255
408.90        66.58627
409.34        65.91605
409.79         66.0153
410.24        66.72153
410.68        66.98545
411.13        66.72537
411.58        66.54762
412.03        66.52893
412.47        66.52116
412.92        66.51841
413.37        66.57541
413.81           66.62
414.26        66.59698
414.71        66.48331
415.15         66.3189
415.60        66.14827
416.05        66.10841
416.49        66.23716
416.94         66.4776
417.39        66.76759
417.83         67.0113
418.28        67.16776
418.73        67.24315
419.17        67.26616
419.62        67.29091
420.07        67.34392
420.51        67.41354
420.96        67.46483
421.41        67.45144
421.85        67.35684
422.30        67.09512
422.74        66.79243
423.19        67.08957
423.64         67.8353
424.08        68.13452
424.53        67.88224
424.98        67.84926
425.42        68.06717
425.87         68.0036
426.31        67.74858
426.76        67.75705
427.21        68.03101
427.65        68.31237
428.10        68.50957
428.54         68.6514
428.99        68.74933
429.44        68.84022
429.88        68.89935
430.33        68.74138
430.77        68.45536
431.22         68.6224
431.66        69.14375
432.11        69.42422
432.56        69.46957
433.00         69.5254
433.45        69.48712
433.89        69.69347
434.34         70.1223
434.78        69.21777
435.23        69.22144
435.67        69.25924
436.12        70.25155
436.57        70.58663
437.01        70.49219
437.46        70.35618
437.90        70.60896
438.35        71.69166
438.79        71.24269
439.24        71.40015
439.68        71.48982
440.13        71.53015
440.57        71.53751
441.02        71.84945
441.46        72.31445
441.91         72.1572
442.35        71.53754
442.80        71.68887
443.24        72.46381
443.69        72.70458
444.13        72.37866
444.58        72.38274
445.02        72.64377
445.47         72.7841
445.91        72.76688
446.36         72.8241
446.80        72.95049
447.24        73.02206
447.69         73.0752
448.13        73.31695
448.58        73.66328
449.02        73.67686
449.47         73.4395
449.91        73.40434
450.36        73.61596
450.80        73.79442
451.25        73.90263
451.69        73.98006
452.13         74.0031
452.58        73.90802
453.02        73.74992
453.47        73.65173
453.91        73.62193
454.36        73.73531
454.80        73.90421
455.24        73.68726
455.69        73.18417
456.13        73.00453
456.58        73.30795
457.02        72.81937
457.46          73.618
457.91        73.31883
458.35        72.90251
458.79        72.64381
459.24         72.6678
459.68        72.57627
460.13        72.38988
460.57        72.37937
461.01        72.23951
461.46        72.48267
461.90        72.35329
462.34        72.50384
462.79        72.52959
463.23        72.50453
463.68        72.37614
464.12        72.12265
464.56        71.86721
465.01        71.93015
465.45        72.13889
465.89        72.21418
466.34         72.1255
466.78        71.74046
467.22        71.20678
467.67        71.27425
468.11        71.41415
468.55        71.46671
468.99         71.2732
469.44        71.26762
469.88        71.44514
470.32        71.54877
470.77        71.55118
471.21        71.53236
471.65        71.48681
472.10        71.41399
472.54        71.29105
472.98        71.15971
473.42        71.04171
473.87        70.84279
474.31        70.60072
474.75         70.7373
475.20        71.13275
475.64        71.09234
476.08        70.64752
476.52        70.57509
476.97        70.92851
477.41        70.77635
477.85        70.78081
478.29        70.95914
478.74        71.36086
479.18        70.52784
479.62        70.79601
480.06        70.64169
480.50        70.77911
480.95        70.81754
481.39        70.64858
481.83        71.26354
482.27        70.67653
482.72        70.75729
483.16        70.91042
483.60        70.33089
484.04         70.6087
484.48        70.40298
484.93        70.39906
485.37        70.53678
485.81        70.62121
486.25        71.13558
486.69        71.67297
487.14        70.61314
487.58        70.44411
488.02        70.72653
488.46         70.9178
488.90        71.16221
489.34        70.65562
489.79        70.18563
490.23        70.65868
490.67        70.52362
491.11        70.15705
491.55        70.04884
491.99        70.20174
492.43        70.25901
492.88          70.186
493.32        70.17341
493.76        70.22283
494.20        70.31094
494.64        70.44991
495.08        70.59773
495.52        70.70836
495.96        70.84731
496.41        70.95535
496.85         70.6917
497.29        70.20263
497.73        70.26357
498.17        70.71615
498.61        70.94271
499.05        70.81937
499.49        70.81355
499.93        70.83903
500.37        70.77516
500.82        70.59875
501.26        70.59045
501.70        71.14214
502.14        70.34367
502.58        70.70024
503.02        70.58618
503.46        70.42522
503.90        70.29245
504.34        70.13891
504.78        70.10033
505.22        70.13852
505.66        70.13084
506.10        70.11932
506.54        70.22524
506.98        70.41174
507.42        70.71712
507.86        70.96124
508.30        70.76213
508.74        70.94511
509.18        70.78087
509.62        70.58088
510.06         70.4297
510.50        70.36517
510.94        70.35098
511.38        70.36672
511.82        70.40002
512.26        70.43665
512.70        70.48216
513.14        70.51281
513.58          70.522
514.02        70.51431
514.46        70.42805
514.90        70.26257
515.34        70.39516
515.78         70.2524
516.22        70.28871
516.66        70.33485
517.10         70.4093
517.54        70.50044
517.98        70.61129
518.42        70.71004
518.86         70.7292
519.30        70.66122
519.74        70.52644
520.18        70.37614
520.62        70.29235
521.06        70.29636
521.50        70.36629
521.93        70.46671
522.37        70.52377
522.81        70.52106
523.25        70.47482
523.69         70.4103
524.13        70.36665
524.57        70.35387
525.01        70.35985
525.45        70.35866
525.89          70.311
526.32        70.20784
526.76        70.08208
527.20        69.96918
527.64        69.93106
528.08        69.97916
528.52        70.08796
528.96        70.22206
529.40         70.3262
529.83        70.37539
530.27        70.39777
530.71        70.39125
531.15        70.36456
531.59        70.32475
532.03        70.26598
532.46        70.19994
532.90        70.17091
533.34         70.1781
533.78        70.21286
534.22        70.24741
534.66        70.23521
535.09        70.16192
535.53        70.06895
535.97        69.96886
536.41        69.89886
536.85        69.86982
537.28        69.86652
537.72        69.89429
538.16        69.95084
538.60        70.02978
539.04        70.14617
539.47        70.23609
539.91        70.24205
540.35        70.13866
540.79         69.9594
541.22        69.76621
541.66        69.66102
542.10        69.66557
542.54        69.77458
542.97        69.91572
543.41        69.96172
543.85        69.90031
544.29        69.87746
544.72        69.89761
545.16        69.88287
545.60        69.82219
546.04        69.82336
546.47        69.86755
546.91        69.77129
547.35        69.59276
547.79         69.6575
548.22        69.88285
548.66        69.92081
549.10        69.75485
549.53        69.64295
549.97         69.6321
550.41        69.64644
550.84        69.69126
551.28        69.82549
551.72        70.00407
552.15        70.07217
552.59        70.01604
553.03        70.06476
553.46        69.89484
553.90         69.8764
554.34        69.89293
554.77        69.99993
555.21        70.16283
555.65        70.00686
556.08        69.92845
556.52         69.8362
556.96        69.83853
557.39        69.74054
557.83        69.60423
558.27         69.6379
558.70        69.80334
559.14        69.87411
559.57        69.82165
560.01        69.81621
560.45        69.82998
560.88        69.77718
561.32        69.73596
561.75        69.63474
562.19        69.55753
562.63        69.80932
563.06        70.24503
563.50        70.18893
563.93        69.70611
564.37        69.58077
564.80        69.78609
565.24        69.84315
565.68        69.73758
566.11        69.68851
566.55        69.75314
566.98        69.89705
567.42        70.08217
567.85        70.21948
568.29        70.33028
568.72        70.19191
569.16        69.86997
569.60        70.12538
570.03        70.20665
570.47        69.98059
570.90        70.07804
571.34        70.37749
571.77        70.47807
572.21        70.05973
572.64        70.42982
573.08        70.12263
573.51         69.9671
573.95        70.04388
574.38        70.40699
574.82         70.1515
