SpectraSmart Spectrum 2.9.0.0
--------- Device Information -----------
Spectrum Name :  反射率_0
Saving Time :  2024/04/28 00:05:44
Spectro-Module Model Name : SE2030-DUVN
Spectro-Module Serial Number : OS361AC55029948
Wavelength Start : 200
Wavelength End : 1025
Wavelength Unit : Wavelength(nm)
Spectrum Unit : Reflectance(%)
-----------Spectrum Setting ------------
Integration Time : 20ms
Average : 10
Boxcar : 0
Background removal :  enabled
linearity correction :  enabled
SC :  disabled
Intensity correction :  disabled
DWT denoise :  enabled
savitzky-golay :  disabled
FFT :  disabled
Running average :  disabled
Kalman :  disabled
High pass :  disabled
---------------BEGIN--------------------
Wavelength(nm)             Reflectance(%)
200.29               0
200.75        31.77055
201.21        66.56831
201.67        89.57159
202.13        94.79155
202.58        88.78145
203.04        77.55915
203.50        65.93524
203.96        61.18658
204.42        63.82021
204.88        69.54517
205.34        75.91211
205.80        81.60234
206.26        86.82572
206.72        93.29312
207.18        99.81205
207.64          97.927
208.10        86.28752
208.55        73.85717
209.01        64.17358
209.47        55.61305
209.93        43.90916
210.39        18.82362
210.85       -52.41919
211.31       -136.1167
211.77       -32.10617
212.23        36.01812
212.69        59.89785
213.14        67.02165
213.60        66.06739
214.06        58.77521
214.52        44.77142
214.98        36.66715
215.44        45.11893
215.90        58.28708
216.36        67.58852
216.81        70.66106
217.27         69.1821
217.73        64.97675
218.19        59.68517
218.65        55.73317
219.11        54.14888
219.57        54.69567
220.02        55.70858
220.48        54.83126
220.94        51.31802
221.40        46.50905
221.86        43.99286
222.32        47.15047
222.77        54.73635
223.23        64.19568
223.69        71.73119
224.15        73.28822
224.61        68.90082
225.06         59.9109
225.52        49.88224
225.98        45.70031
226.44         48.2995
226.90        53.71881
227.36        58.48523
227.81        59.92137
228.27        58.15695
228.73        54.23326
229.19        48.88826
229.65         43.8502
230.10        40.16936
230.56        37.76656
231.02        36.41398
231.48        35.83702
231.93        35.75437
232.39        36.28764
232.85        37.42654
233.31        39.09402
233.77        41.11914
234.22        43.46303
234.68        45.41729
235.14        46.24559
235.60        45.87061
236.05        44.24223
236.51        42.48898
236.97        42.98286
237.43        46.43752
237.88        52.29276
238.34        57.98937
238.80        60.87384
239.26         60.2767
239.71        55.62226
240.17        47.18054
240.63        42.84722
241.08          49.189
241.54         60.3506
242.00        69.17503
242.46        72.86729
242.91        72.34515
243.37         67.3623
243.83        55.04477
244.28        38.14038
244.74        35.28069
245.20        47.73661
245.66        60.42709
246.11        67.03486
246.57        69.63994
247.03        70.79091
247.48        71.16385
247.94        72.29352
248.40        74.69871
248.85        76.67249
249.31        77.88441
249.77         78.5631
250.22        78.95454
250.68        79.24406
251.14        79.66097
251.59        80.47244
252.05        81.86093
252.51        83.67413
252.96         85.4342
253.42        86.00366
253.88        84.54534
254.33        82.43829
254.79        80.46039
255.25         77.9808
255.70        75.06887
256.16        72.46449
256.62        71.25282
257.07        72.66394
257.53        76.00819
257.99        79.47057
258.44        81.43744
258.90        81.05925
259.35        78.43697
259.81        75.08755
260.27        71.58553
260.72        68.67716
261.18        66.88228
261.63        65.49341
262.09          64.675
262.55        64.18276
263.00         63.7732
263.46        63.60119
263.91        63.26861
264.37        62.63001
264.83        61.60876
265.28         60.2901
265.74        58.95083
266.19        57.68956
266.65         56.6145
267.11        55.60261
267.56        54.59845
268.02        53.63774
268.47        52.66548
268.93        51.71907
269.38        50.75063
269.84        49.71053
270.30        48.58758
270.75        47.39864
271.21        46.19059
271.66        44.98317
272.12        43.82164
272.57        42.67405
273.03        41.60128
273.48        40.60306
273.94        39.73932
274.39        38.96623
274.85        38.29887
275.31        37.66304
275.76        37.01462
276.22        36.39126
276.67        35.76369
277.13        35.20529
277.58        34.66441
278.04        34.17288
278.49        33.63679
278.95        33.04277
279.40        32.34653
279.86        31.64258
280.31         30.9594
280.77        30.46279
281.22        30.13004
281.68        29.95177
282.13        29.83264
282.59        29.69708
283.04        29.49744
283.50        29.27414
283.95        29.03625
284.41        28.84285
284.86        28.69101
285.32         28.5881
285.77        28.49612
286.22        28.40307
286.68        28.32463
287.13         28.2367
287.59        28.19545
288.04        28.20602
288.50         28.2932
288.95        28.40724
289.41        28.53737
289.86         28.6159
290.32        28.65855
290.77        28.69215
291.22        28.74016
291.68        28.82744
292.13        28.97123
292.59        29.19425
293.04          29.559
293.50         30.1855
293.95        31.07441
294.40        32.19848
294.86        33.45156
295.31        34.65485
295.77        35.77436
296.22        36.83949
296.68        37.94261
297.13        39.20535
297.58        40.64938
298.04        42.21532
298.49        43.81634
298.95        45.37417
299.40        46.86858
299.85        48.34547
300.31        49.87438
300.76        51.49684
301.21         53.2232
301.67        55.04203
302.12        56.85731
302.58        58.61721
303.03        60.28475
303.48        61.90939
303.94         63.6109
304.39        65.48037
304.84        67.55849
305.30        69.81397
305.75        72.09074
306.20         74.2464
306.66        76.26109
307.11        78.12147
307.57        79.95298
308.02        81.82547
308.47        83.77268
308.93        85.76833
309.38        87.66911
309.83        89.36987
310.29        90.88354
310.74        92.23052
311.19        93.56022
311.65        95.07317
312.10        96.76001
312.55        98.54806
313.00        100.2772
313.46        101.7197
313.91        102.8132
314.36        103.6463
314.82         104.344
315.27        105.1016
315.72        105.9755
316.18        106.9214
316.63        107.8501
317.08        108.6646
317.53        109.3412
317.99        109.9154
318.44        110.4524
318.89        111.0194
319.35         111.634
319.80        112.2819
320.25        112.9095
320.70        113.4457
321.16        113.8629
321.61        114.1994
322.06         114.516
322.51        114.9219
322.97        115.4184
323.42        116.0079
323.87        116.5789
324.32        116.9724
324.78        117.1369
325.23        117.1705
325.68        117.1589
326.13        117.2768
326.59         117.548
327.04        117.9696
327.49        118.4646
327.94        118.9426
328.39         119.369
328.85        119.7435
329.30        120.1268
329.75        120.4378
330.20        120.6772
330.66        120.8171
331.11        121.0075
331.56        121.3719
332.01        121.9476
332.46        122.6926
332.92          123.45
333.37        124.1131
333.82        124.5611
334.27        124.8397
334.72        125.0225
335.17        125.2419
335.63        125.5207
336.08          125.89
336.53        126.2959
336.98         126.698
337.43        127.0877
337.88        127.4918
338.34         127.921
338.79        128.4455
339.24        129.0459
339.69        129.6893
340.14        130.3281
340.59        130.8935
341.05        131.3652
341.50        131.7748
341.95        132.1246
342.40        132.4389
342.85        132.7374
343.30        133.0085
343.75        133.3033
344.20        133.7011
344.66        134.2112
345.11        134.8059
345.56        135.3745
346.01        135.7342
346.46         135.849
346.91        135.7709
347.36        135.6386
347.81          135.67
348.26        135.9086
348.72        136.2881
349.17        136.6673
349.62        136.8455
350.07        136.7709
350.52        136.5154
350.97        136.1861
351.42        135.9497
351.87        135.8544
352.32         135.845
352.77        135.8508
353.22        135.7679
353.67        135.5598
354.13        135.2646
354.58        134.8914
355.03        134.5193
355.48         134.161
355.93        133.7913
356.38        133.3524
356.83        132.7567
357.28        132.0005
357.73        131.1346
358.18        130.2432
358.63        129.4504
359.08        128.7855
359.53        128.2057
359.98         127.662
360.43        127.0755
360.88        126.4135
361.33        125.6958
361.78        124.9194
362.23        124.0719
362.68        123.1608
363.13         122.208
363.58        121.2536
364.03        120.2664
364.48        119.4195
364.93        118.5933
365.38        117.7948
365.83        116.9542
366.28        116.0568
366.73        115.1117
367.18        114.1802
367.63        113.3657
368.08        112.6845
368.53        112.1081
368.98        111.5323
369.43        110.7891
369.88        109.8489
370.33        108.7683
370.78        107.6837
371.23        106.8172
371.68        106.2205
372.13        105.8206
372.58        105.4912
373.03        105.0279
373.48         104.368
373.93        103.5715
374.38        102.7138
374.83        101.9101
375.28        101.1976
375.72        100.5254
376.17        99.88992
376.62        99.21671
377.07        98.49675
377.52        97.75462
377.97        97.05169
378.42        96.47733
378.87        96.04238
379.32        95.71423
379.77        95.39958
380.22        94.95426
380.67        94.34835
381.11        93.62895
381.56        92.88639
382.01        92.28804
382.46        91.88381
382.91        91.62386
383.36         91.4268
383.81        91.16219
384.26        90.79196
384.71        90.36014
385.15        89.89752
385.60        89.51003
386.05         89.2036
386.50        88.94992
386.95        88.72225
387.40        88.49029
387.85        88.24268
388.29        87.93008
388.74        87.66303
389.19        87.39645
389.64        87.10931
390.09        86.77089
390.54        86.36774
390.98        85.86733
391.43        85.34953
391.88        84.85107
392.33        84.33987
392.78        83.87738
393.23        83.51368
393.67        82.93713
394.12        82.33804
394.57        82.83517
395.02        83.02828
395.47        83.06497
395.91        82.59117
396.36        82.37412
396.81        82.43977
397.26        82.36369
397.71        82.12289
398.15        81.85435
398.60        81.64907
399.05        81.30167
399.50        80.92373
399.95          80.868
400.39        81.03027
400.84        80.92766
401.29        80.52953
401.74        79.90358
402.18        79.26272
402.63        79.18102
403.08        79.55487
403.53         79.5462
403.97        79.10332
404.42        78.76653
404.87        78.59445
405.32        78.48067
405.76        78.42502
406.21         78.3785
406.66        78.32809
407.11        78.40297
407.55        78.51955
408.00        78.35981
408.45        77.95217
408.90        77.36447
409.34        76.79518
409.79        76.77315
410.24        77.16918
410.68        77.28455
411.13         77.0556
411.58        76.89201
412.03        76.85432
412.47        76.85596
412.92         76.8793
413.37        76.96393
413.81        77.01661
414.26        76.96129
414.71        76.76783
415.15         76.4799
415.60        76.17368
416.05        76.05383
416.49         76.1723
416.94        76.45329
417.39        76.77499
417.83        76.94189
418.28        76.89729
418.73        76.68685
419.17        76.40711
419.62        76.22113
420.07        76.18227
420.51        76.23731
420.96        76.32076
421.41        76.30967
421.85        76.15573
422.30        75.87086
422.74        75.55676
423.19        75.66482
423.64        76.12228
424.08         76.4353
424.53        76.43916
424.98        76.50974
425.42        76.66319
425.87        76.41279
426.31        75.93604
426.76        76.14874
427.21        76.86871
427.65        76.78342
428.10        76.00087
428.54        75.75636
428.99        76.11763
429.44        76.49596
429.88        76.71523
430.33        76.63072
430.77        76.27948
431.22        76.20246
431.66        76.40279
432.11        76.58313
432.56        76.76755
433.00        76.89687
433.45        76.72553
433.89        76.79119
434.34        77.18796
434.78        75.83307
435.23        75.53276
435.67        76.31382
436.12         77.4341
436.57         77.5817
437.01        76.63229
437.46        76.13182
437.90        76.61643
438.35        77.56779
438.79        77.10678
439.24        77.32049
439.68        77.59406
440.13        77.47434
440.57        77.11359
441.02        77.40651
441.46         78.1545
441.91        78.24729
442.35        77.76013
442.80        77.50089
443.24        78.35725
443.69        78.22073
444.13        77.47117
444.58        77.51251
445.02        77.56998
445.47        77.89375
445.91         78.1446
446.36        78.23143
446.80        78.06234
447.24        78.36297
447.69         77.8931
448.13         78.0716
448.58        78.43652
449.02        78.52113
449.47        78.33508
449.91        78.27145
450.36        78.37314
450.80        78.36454
451.25        78.29062
451.69        78.32034
452.13        78.44526
452.58        78.54279
453.02        78.58488
453.47        78.56057
453.91        78.43176
454.36        78.37649
454.80        78.33152
455.24        77.85324
455.69        77.07813
456.13        77.09312
456.58        76.60715
457.02        76.95377
457.46        77.38833
457.91        77.17086
458.35        76.62715
458.79        76.33519
459.24        76.46142
459.68        76.42303
460.13        76.17675
460.57        75.99681
461.01        76.32803
461.46        75.32749
461.90        75.28922
462.34        75.69933
462.79        75.89813
463.23        75.84214
463.68        75.27449
464.12        75.10944
464.56        75.34607
465.01        75.51965
465.45        75.44204
465.89        75.40889
466.34        75.45872
466.78         75.0318
467.22        74.16769
467.67        75.02376
468.11          74.451
468.55        74.58452
468.99        74.47836
469.44        74.49937
469.88         74.6224
470.32        74.69103
470.77        74.69907
471.21        74.65257
471.65        74.54837
472.10        74.40269
472.54        74.21177
472.98        74.04269
473.42        73.91891
473.87        73.75728
474.31        73.57122
474.75        73.68172
475.20        73.95675
475.64        73.91801
476.08        73.61188
476.52         73.4202
476.97        73.33075
477.41        73.65268
477.85        73.31679
478.29        73.18634
478.74        73.82907
479.18        72.95664
479.62        73.51638
480.06        73.38153
480.50        73.34547
480.95         73.3792
481.39        73.45795
481.83        73.22207
482.27        73.32658
482.72        73.18208
483.16        73.17438
483.60        73.10577
484.04         73.0304
484.48        72.88505
484.93        72.90437
485.37        73.03866
485.81         73.5966
486.25        73.96735
486.69        74.02814
487.14        72.99927
487.58        73.13014
488.02        73.49233
488.46        73.46694
488.90        73.41476
489.34        72.52882
489.79        72.20605
490.23        72.70365
490.67        72.91245
491.11        72.87849
491.55        72.77603
491.99        72.65505
492.43         72.6058
492.88        72.63579
493.32        72.64994
493.76        72.60474
494.20        72.60803
494.64        72.68512
495.08         72.6142
495.52        72.46587
495.96        72.81679
496.41        73.45347
496.85        73.23071
497.29        72.35767
497.73         72.0937
498.17        72.71101
498.61        73.01426
499.05        72.92935
499.49        72.77155
499.93        72.62163
500.37         72.4271
500.82        72.19913
501.26        72.23693
501.70        72.62769
502.14        71.82791
502.58        72.41728
503.02        72.46949
503.46        72.43337
503.90        72.45602
504.34        72.46329
504.78        72.50001
505.22        72.49619
505.66        72.40671
506.10        72.33028
506.54        72.22757
506.98        72.05283
507.42        72.62672
507.86        72.90931
508.30        72.24786
508.74        72.74728
509.18        72.49963
509.62        72.28397
510.06        72.14889
510.50        72.14594
510.94        72.20496
511.38        72.26195
511.82        72.27879
512.26        72.23261
512.70        72.15426
513.14        72.06529
513.58        71.96858
514.02         71.8744
514.46        71.82613
514.90        71.85764
515.34        71.77064
515.78        71.97665
516.22        72.12466
516.66        72.29085
517.10        72.38791
517.54        72.39857
517.98        72.34083
518.42        72.23714
518.86        72.13995
519.30        72.06875
519.74        72.01006
520.18         71.9725
520.62        71.96745
521.06        71.99415
521.50        72.05592
521.93        72.12867
522.37        72.15415
522.81        72.12772
523.25        72.06081
523.69        71.99065
524.13        71.97833
524.57        72.03555
525.01        72.14122
525.45        72.25533
525.89        72.31512
526.32        72.29846
526.76        72.23732
527.20        72.15764
527.64        72.11055
528.08        72.10662
528.52        72.12332
528.96        72.13952
529.40        72.12283
529.83        72.05965
530.27        71.98371
530.71        71.89038
531.15         71.7793
531.59        71.66021
532.03         71.5352
532.46        71.43391
532.90        71.42673
533.34        71.51237
533.78        71.66466
534.22        71.82675
534.66        71.91221
535.09        71.89189
535.53        71.81247
535.97        71.69678
536.41        71.60072
536.85        71.54446
537.28        71.51449
537.72        71.50837
538.16        71.51246
538.60        71.52277
539.04        71.55976
539.47        71.59325
539.91        71.61494
540.35        71.60371
540.79        71.57741
541.22        71.53609
541.66        71.49178
542.10          71.448
542.54        71.40297
542.97        71.36237
543.41         71.3755
543.85        71.43201
544.29        71.52393
544.72        71.60619
545.16        71.64504
545.60        71.61505
546.04        71.52307
546.47        71.40699
546.91        71.33829
547.35        71.32399
547.79        71.35964
548.22        71.38586
548.66        71.31732
549.10        71.16691
549.53        71.11726
549.97        71.18524
550.41        71.23312
550.84        71.24913
551.28        71.35414
551.72        71.51645
552.15        71.53281
552.59        71.38491
553.03        71.48598
553.46        71.19294
553.90        71.16978
554.34        71.21789
554.77        71.34581
555.21        71.47038
555.65         71.4795
556.08        71.29279
556.52         71.1078
556.96        70.96598
557.39        71.02808
557.83        71.25589
558.27        71.30717
558.70        71.17695
559.14        71.15355
559.57        71.22526
560.01        71.23347
560.45        71.16048
560.88        71.11578
561.32        71.14328
561.75         71.0507
562.19        70.92039
562.63        71.03587
563.06        71.31543
563.50        71.33056
563.93        71.09171
564.37        71.02485
564.80         71.1215
565.24        71.20286
565.68        71.24111
566.11        71.27231
566.55         71.3152
566.98        71.33929
567.42        71.35625
567.85        71.34209
568.29        71.34535
568.72        71.23949
569.16        71.09389
569.60        71.13945
570.03        71.40516
570.47        71.20291
570.90        71.36411
571.34        71.65215
571.77        71.71385
572.21        71.28053
572.64        71.75061
573.08        71.13921
573.51         71.3681
573.95        71.52122
574.38        71.99456
574.82        71.52443
