SpectraSmart Spectrum 2.9.0.0
--------- Device Information -----------
Spectrum Name :  反射率_0
Saving Time :  2024/04/27 23:39:48
Spectro-Module Model Name : SE2030-DUVN
Spectro-Module Serial Number : OS361AC55029948
Wavelength Start : 200
Wavelength End : 1025
Wavelength Unit : Wavelength(nm)
Spectrum Unit : Reflectance(%)
-----------Spectrum Setting ------------
Integration Time : 20ms
Average : 10
Boxcar : 0
Background removal :  enabled
linearity correction :  enabled
SC :  disabled
Intensity correction :  disabled
DWT denoise :  enabled
savitzky-golay :  disabled
FFT :  disabled
Running average :  disabled
Kalman :  disabled
High pass :  disabled
---------------BEGIN--------------------
Wavelength(nm)             Reflectance(%)
200.29               0
200.75        82.26547
201.21        98.40121
201.67        106.0617
202.13        101.8861
202.58        89.73827
203.04        73.94704
203.50        59.91197
203.96         56.0457
204.42        62.17414
204.88        72.84773
205.34        83.78574
205.80        92.35349
206.26        99.00124
206.72        105.6756
207.18        112.3945
207.64        114.1933
208.10        108.8309
208.55        101.2693
209.01        94.44088
209.47         87.6181
209.93        77.59542
210.39        55.51616
210.85       -7.934471
211.31       -83.90179
211.77        7.462947
212.23        67.71368
212.69        88.88412
213.14        95.07741
213.60         94.0247
214.06        87.52026
214.52        73.86137
214.98        61.25179
215.44        61.42645
215.90        67.06094
216.36        72.75478
216.81        76.66121
217.27        79.12994
217.73        81.63752
218.19        82.70668
218.65        79.23993
219.11        70.57098
219.57        56.75441
220.02        41.36145
220.48        35.23286
220.94         41.3443
221.40         54.7195
221.86        68.70026
222.32        76.81027
222.77        78.83144
223.23        77.46932
223.69        74.29465
224.15        70.63969
224.61        66.80576
225.06        61.95472
225.52        57.13797
225.98        54.53607
226.44         54.5115
226.90        55.97931
227.36        57.29197
227.81         56.9073
228.27         54.7697
228.73        51.15705
229.19        46.64615
229.65        42.74994
230.10        40.21942
230.56        39.07115
231.02        38.50407
231.48        37.43318
231.93        35.68312
232.39        33.76065
232.85        32.58119
233.31        33.39177
233.77        36.11404
234.22         40.1232
234.68        43.97504
235.14        45.96186
235.60        45.79016
236.05        43.73843
236.51        41.06779
236.97        40.53922
237.43        43.18761
237.88        48.34624
238.34        53.67933
238.80        56.84999
239.26        57.37349
239.71        55.23995
240.17        51.12463
240.63        50.69751
241.08        57.55272
241.54        66.57465
242.00        73.33548
242.46         77.0341
242.91        78.98713
243.37        79.88479
243.83        80.40932
244.28        82.90714
244.74         87.9575
245.20        91.77644
245.66        92.60101
246.11        91.29631
246.57        88.21076
247.03        82.63744
247.48        74.20348
247.94        67.44781
248.40        68.56573
248.85        75.48718
249.31        84.68422
249.77        92.95448
250.22        99.19639
250.68        103.7067
251.14        106.9934
251.59        110.0313
252.05        113.4132
252.51        117.0915
252.96        119.3069
253.42        115.6662
253.88        105.7724
254.33        94.40598
254.79        85.76029
255.25        79.80681
255.70        75.49429
256.16        72.91206
256.62        71.73801
257.07          71.813
257.53        72.97971
257.99        74.25199
258.44        74.93574
258.90        74.97992
259.35         74.0417
259.81        72.75047
260.27        71.06292
260.72        69.01254
261.18        67.13113
261.63        65.20832
262.09        63.49482
262.55         61.7798
263.00        59.98251
263.46        58.29187
263.91        56.78663
264.37        55.96638
264.83        55.71064
265.28        55.76506
265.74        55.80101
266.19        55.15634
266.65        53.85768
267.11        52.08049
267.56        50.14902
268.02        48.68649
268.47        47.79738
268.93        47.30228
269.38        46.97726
269.84        46.50591
270.30        45.77224
270.75        44.88261
271.21        43.88028
271.66        42.76815
272.12        41.60348
272.57        40.34161
273.03        39.09835
273.48        37.98221
273.94        37.08202
274.39        36.34495
274.85        35.74798
275.31        35.15657
275.76        34.51778
276.22        33.88963
276.67        33.27514
277.13         32.7818
277.58        32.36435
278.04         32.0314
278.49        31.65578
278.95        31.17664
279.40        30.53783
279.86        29.83523
280.31        29.13332
280.77        28.64544
281.22        28.35757
281.68        28.24882
282.13        28.17323
282.59        27.97609
283.04        27.61648
283.50        27.17309
283.95        26.74609
284.41        26.52642
284.86        26.52926
285.32        26.69874
285.77        26.90855
286.22         27.0203
286.68        27.01341
287.13        26.89609
287.59         26.7608
288.04        26.67023
288.50        26.67199
288.95        26.71219
289.41        26.76005
289.86        26.72251
290.32        26.61835
290.77        26.49103
291.22        26.42169
291.68        26.51708
292.13        26.79728
292.59        27.24709
293.04        27.83476
293.50        28.53274
293.95         29.3125
294.40        30.19415
294.86        31.15809
295.31         32.1652
295.77        33.21819
296.22         34.3021
296.68        35.45907
297.13        36.73114
297.58         38.1139
298.04        39.57698
298.49        41.05219
298.95        42.47871
299.40        43.84884
299.85        45.20332
300.31        46.61044
300.76         48.1186
301.21        49.73666
301.67         51.4405
302.12        53.15219
302.58        54.83862
303.03        56.45837
303.48         58.0517
303.94        59.67477
304.39        61.32982
304.84         63.0541
305.30        64.85577
305.75        66.68363
306.20        68.54224
306.66        70.44413
307.11        72.34106
307.57         74.2647
308.02        76.14667
308.47        77.98109
308.93        79.76777
309.38        81.45318
309.83        83.06067
310.29        84.61884
310.74        86.10596
311.19        87.54115
311.65        88.92512
312.10        90.22328
312.55         91.4419
313.00        92.59882
313.46        93.73398
313.91        94.84341
314.36        95.93125
314.82        96.96265
315.27        97.87364
315.72        98.64862
316.18        99.31719
316.63        99.90955
317.08        100.5157
317.53        101.1582
317.99        101.8059
318.44         102.429
318.89        102.9503
319.35        103.3541
319.80        103.6848
320.25        103.9722
320.70        104.2699
321.16        104.5861
321.61        104.9154
322.06        105.2671
322.51        105.6672
322.97        106.0919
323.42        106.5708
323.87        107.0144
324.32         107.294
324.78        107.3755
325.23        107.3417
325.68        107.2866
326.13        107.3991
326.59        107.7042
327.04        108.1915
327.49        108.7679
327.94        109.3125
328.39        109.7771
328.85        110.1645
329.30        110.5303
329.75        110.8075
330.20        110.9997
330.66        111.0768
331.11         111.181
331.56        111.4312
332.01        111.8691
332.46        112.4692
332.92        113.0967
333.37        113.6606
333.82        114.0603
334.27        114.3425
334.72         114.588
335.17        114.9372
335.63        115.4061
336.08        116.0014
336.53         116.639
336.98         117.232
337.43        117.7424
337.88        118.1873
338.34        118.5748
338.79        118.9736
339.24        119.3817
339.69        119.7961
340.14        120.1772
340.59        120.4637
341.05        120.6634
341.50        120.8219
341.95        121.0322
342.40        121.4506
342.85        122.0997
343.30        122.9092
343.75         123.771
344.20        124.5096
344.66        125.0679
345.11         125.489
345.56        125.7801
346.01        125.9591
346.46        126.0535
346.91        126.0536
347.36        126.0553
347.81        126.2108
348.26         126.536
348.72        126.9898
349.17        127.4245
349.62        127.6181
350.07        127.5165
350.52         127.192
350.97        126.7679
351.42        126.4419
351.87        126.2817
352.32        126.2436
352.77        126.2558
353.22        126.2078
353.67         126.061
354.13        125.8432
354.58        125.5919
355.03        125.4298
355.48        125.3569
355.93         125.318
356.38        125.1555
356.83        124.6346
357.28        123.7312
357.73        122.5512
358.18         121.303
358.63        120.2992
359.08        119.6297
359.53        119.2202
359.98        118.9359
360.43        118.5589
360.88        118.0136
361.33        117.3388
361.78        116.6317
362.23        116.0409
362.68        115.5885
363.13        115.2325
363.58        114.8065
364.03        113.9929
364.48        112.8745
364.93        111.4795
365.38        110.0855
365.83        109.0717
366.28        108.5142
366.73        108.2729
367.18        108.1386
367.63        107.7736
368.08        107.0762
368.53        106.1614
368.98        105.1048
369.43        104.0265
369.88        102.9957
370.33        101.9787
370.78        101.0466
371.23        100.3219
371.68        99.81555
372.13        99.49552
372.58        99.25147
373.03        98.88772
373.48        98.34386
373.93        97.66718
374.38        96.90691
374.83        96.14867
375.28        95.43188
375.72        94.72022
376.17        94.06382
376.62        93.47432
377.07        92.94886
377.52        92.47044
377.97        92.03262
378.42        91.61813
378.87        91.21237
379.32        90.82695
379.77        90.39699
380.22        89.81992
380.67        89.09457
381.11        88.26328
381.56        87.46217
382.01          86.931
382.46        86.72434
382.91        86.76322
383.36        86.89339
383.81        86.87041
384.26        86.61997
384.71        86.20448
385.15        85.68721
385.60        85.23267
386.05         84.8675
386.50        84.54996
386.95        84.24197
387.40        83.89549
387.85        83.50983
388.29        83.06981
388.74        82.70705
389.19        82.40704
389.64        82.15444
390.09        81.90384
390.54        81.63461
390.98        81.30333
391.43        80.96258
391.88        80.63308
392.33        80.25454
392.78        79.84409
393.23        79.44836
393.67        78.80096
394.12        78.10738
394.57        78.44017
395.02        78.49628
395.47        78.46146
395.91        78.00959
396.36        77.83286
396.81        77.95196
397.26          77.975
397.71        77.85498
398.15        77.70892
398.60        77.61189
399.05        77.29218
399.50        76.88315
399.95        76.93119
400.39        77.31882
400.84        77.21072
401.29        76.63013
401.74        76.24748
402.18        76.13335
402.63        75.97706
403.08        75.75694
403.53        75.51173
403.97        75.25235
404.42        75.04811
404.87        74.90663
405.32        74.84058
405.76        74.82711
406.21        74.78361
406.66        74.73837
407.11        74.83862
407.55        75.00258
408.00        75.03819
408.45        74.87692
408.90        74.13686
409.34        73.12862
409.79        73.03702
410.24        73.71217
410.68        73.89933
411.13        73.52322
411.58        73.34169
412.03        73.40076
412.47        73.42001
412.92        73.37331
413.37        73.34833
413.81        73.32838
414.26        73.34953
414.71        73.39532
415.15         73.4691
415.60        73.52306
416.05        73.54737
416.49        73.54194
416.94        73.49764
417.39        73.44682
417.83        73.43748
418.28        73.47161
418.73        73.52085
419.17        73.56164
419.62        73.55956
420.07        73.51219
420.51        73.43703
420.96        73.34483
421.41        73.22284
421.85        73.05913
422.30        72.83266
422.74        72.60545
423.19        72.76154
423.64        73.21368
424.08        73.50823
424.53        73.51263
424.98        73.57227
425.42        73.69451
425.87         73.5505
426.31        73.24488
426.76        73.22375
427.21        73.44701
427.65        73.48491
428.10        73.32653
428.54        73.27897
428.99        73.38818
429.44        73.56068
429.88         73.7201
430.33        73.68079
430.77        73.45348
431.22        73.52693
431.66        73.86454
432.11         74.0017
432.56        73.98978
433.00        74.21799
433.45        74.44832
433.89        74.43121
434.34        74.29715
434.78         73.2775
435.23        73.45013
435.67        73.73885
436.12        74.62534
436.57        74.69685
437.01         74.0255
437.46        74.54903
437.90        74.04961
438.35        75.12283
438.79        74.52314
439.24        74.61512
439.68        74.68245
440.13        74.72356
440.57        74.77041
441.02        75.16602
441.46        75.70959
441.91        75.49691
442.35        74.73997
442.80        74.72151
443.24        75.77878
443.69        75.96942
444.13         75.3636
444.58        75.78869
445.02        75.84743
445.47        75.97727
445.91        75.78243
446.36        75.72871
446.80        75.81281
447.24        75.84984
447.69        75.86841
448.13         76.0117
448.58        76.22144
449.02        76.18712
449.47        75.98379
449.91        75.94766
450.36        76.11948
450.80        76.27949
451.25        76.40315
451.69        76.51973
452.13        76.60016
452.58        76.57449
453.02        76.46246
453.47        76.33686
453.91        76.20463
454.36        76.15262
454.80        76.09704
455.24        75.76382
455.69        75.30502
456.13        75.01637
456.58        74.93236
457.02        75.22355
457.46        75.56048
457.91        75.26753
458.35        74.68484
458.79        74.32877
459.24        74.33775
459.68        74.22812
460.13        74.02832
460.57        73.83318
461.01        74.01785
461.46        73.65249
461.90        73.91269
462.34        73.83881
462.79        73.68297
463.23        73.73817
463.68        73.91818
464.12        73.76865
464.56        73.37639
465.01        73.36909
465.45        73.53508
465.89        73.46436
466.34        73.24382
466.78         72.7614
467.22        72.07883
467.67        73.04889
468.11        72.82346
468.55        72.87106
468.99        72.41737
469.44        72.26022
469.88        72.40901
470.32        72.44044
470.77        72.34302
471.21        72.26055
471.65        72.19087
472.10        72.10889
472.54        72.00022
472.98        71.90154
473.42        71.82651
473.87        71.73088
474.31        71.60445
474.75        71.68296
475.20        71.87693
475.64        71.77945
476.08        71.44378
476.52        71.32159
476.97        71.42735
477.41         71.4137
477.85        71.62387
478.29        71.32294
478.74        71.37158
479.18        70.88731
479.62        71.59081
480.06        71.64459
480.50        71.51791
480.95        71.35911
481.39        71.13186
481.83        71.36462
482.27        71.26918
482.72        70.94371
483.16        71.22965
483.60        71.15968
484.04        71.00804
484.48        70.94749
484.93        71.20506
485.37        70.81901
485.81        71.25803
486.25        71.68365
486.69        72.01098
487.14        71.29213
487.58        70.87086
488.02        71.11792
488.46        71.07533
488.90        70.91875
489.34        70.39093
489.79        69.92747
490.23        70.64186
490.67        70.69398
491.11        70.42166
491.55        70.26971
491.99        70.27943
492.43        70.26349
492.88        70.20919
493.32        70.20841
493.76        70.24057
494.20        70.29735
494.64        70.38351
495.08        70.45808
495.52        70.50999
495.96        70.62294
496.41         70.7502
496.85        70.62739
497.29        70.31244
497.73        70.32084
498.17        70.51472
498.61        70.56111
499.05        70.39777
499.49        70.30866
499.93        70.30112
500.37        70.21938
500.82        70.09276
501.26        70.04393
501.70        70.21169
502.14        70.14095
502.58        70.04671
503.02        70.10469
503.46        70.07183
503.90        70.07695
504.34        70.03058
504.78        70.02631
505.22        70.03159
505.66        69.95136
506.10        69.84169
506.54        69.78853
506.98         69.7796
507.42        70.10126
507.86         70.1194
508.30         70.1414
508.74        70.19554
509.18        70.13306
509.62        70.02892
510.06         69.9049
510.50        69.78526
510.94        69.65803
511.38        69.55354
511.82        69.52389
512.26        69.57455
512.70        69.69147
513.14        69.82077
513.58        69.89406
514.02         69.8964
514.46        69.80676
514.90        69.65284
515.34        69.72135
515.78        69.66134
516.22        69.74114
516.66        69.83066
517.10        69.90702
517.54        69.95292
517.98        69.98254
518.42        69.99141
518.86        69.95979
519.30        69.89249
519.74        69.79901
520.18        69.70242
520.62        69.64004
521.06        69.62269
521.50         69.6402
521.93        69.68891
522.37        69.74583
522.81         69.8039
523.25        69.86164
523.69        69.90179
524.13        69.89854
524.57        69.84924
525.01        69.76283
525.45        69.65931
525.89        69.57235
526.32        69.50934
526.76        69.47741
527.20        69.46921
527.64        69.48502
528.08         69.5202
528.52        69.55348
528.96        69.58092
529.40        69.63796
529.83        69.69327
530.27         69.6655
530.71         69.5636
531.15        69.49612
531.59        69.47383
532.03        69.43933
532.46        69.39189
532.90        69.37771
533.34        69.39188
533.78        69.42353
534.22        69.45583
534.66        69.46201
535.09        69.42771
535.53         69.3819
535.97        69.32572
536.41        69.27725
536.85        69.24429
537.28        69.22607
537.72        69.22337
538.16        69.22732
538.60        69.23741
539.04        69.26876
539.47        69.29989
539.91        69.33736
540.35        69.36129
540.79        69.38391
541.22        69.39139
541.66        69.37212
542.10        69.32362
542.54        69.25143
542.97        69.17164
543.41        69.14809
543.85        69.17685
544.29        69.24842
544.72        69.31577
545.16         69.3368
545.60        69.28424
546.04        69.17823
546.47        69.06249
546.91        68.98543
547.35        68.96661
547.79        69.06808
548.22        69.19823
548.66        69.14808
549.10        68.93288
549.53        68.83073
549.97        68.88339
550.41        68.91874
550.84        68.92043
551.28        69.07936
551.72        69.37439
552.15         69.3255
552.59        69.13697
553.03        69.40061
553.46        69.09606
553.90        68.82755
554.34        68.84328
554.77        69.20351
555.21        69.06808
555.65        69.10419
556.08        68.95567
556.52        68.79256
556.96        68.65029
557.39        68.70868
557.83        68.93112
558.27        69.02649
558.70        68.96416
559.14        68.83078
559.57        68.68056
560.01        68.73111
560.45        68.91651
560.88        68.91158
561.32         68.7935
561.75        68.73756
562.19        68.77933
562.63        68.96151
563.06        69.16861
563.50        68.93053
563.93        68.37116
564.37        68.28615
564.80        68.62616
565.24        68.78874
565.68        68.74577
566.11        68.80982
566.55        68.98569
566.98        69.13363
567.42        69.20392
567.85        69.07017
568.29         68.8901
568.72        68.71017
569.16        68.56151
569.60        68.97046
570.03        68.82594
570.47        68.64948
570.90        68.99116
571.34         68.9901
571.77        69.21748
572.21        68.94063
572.64        69.42411
573.08        69.06731
573.51        68.82812
573.95        69.16171
574.38        69.34508
574.82        69.10904
