SpectraSmart Spectrum 2.9.0.0
--------- Device Information -----------
Spectrum Name :  反射率_0
Saving Time :  2024/04/28 00:05:17
Spectro-Module Model Name : SE2030-DUVN
Spectro-Module Serial Number : OS361AC55029948
Wavelength Start : 200
Wavelength End : 1025
Wavelength Unit : Wavelength(nm)
Spectrum Unit : Reflectance(%)
-----------Spectrum Setting ------------
Integration Time : 20ms
Average : 10
Boxcar : 0
Background removal :  enabled
linearity correction :  enabled
SC :  disabled
Intensity correction :  disabled
DWT denoise :  enabled
savitzky-golay :  disabled
FFT :  disabled
Running average :  disabled
Kalman :  disabled
High pass :  disabled
---------------BEGIN--------------------
Wavelength(nm)             Reflectance(%)
200.29               0
200.75        39.14615
201.21        53.04362
201.67        62.75608
202.13         67.3643
202.58        69.01559
203.04        69.33098
203.50        69.40154
203.96        70.59714
204.42        72.89894
204.88        75.56849
205.34        78.34499
205.80        81.50211
206.26        85.40815
206.72         90.7035
207.18        97.18324
207.64        99.37751
208.10        94.30844
208.55        87.35269
209.01        80.84203
209.47        73.71876
209.93        62.61344
210.39        37.63877
210.85       -36.10057
211.31       -131.8312
211.77       -31.21521
212.23        39.05381
212.69        64.89323
213.14        73.92413
213.60         75.5252
214.06        73.14479
214.52        64.95876
214.98        52.93451
215.44        46.15184
215.90        43.91707
216.36        44.75231
216.81        47.69885
217.27        51.80302
217.73        57.70334
218.19        63.38552
218.65        64.79408
219.11        60.88948
219.57        52.35082
220.02        41.95674
220.48        38.28721
220.94        43.56388
221.40         53.5724
221.86        63.98192
222.32        70.80289
222.77        73.79566
223.23        74.72639
223.69        74.03862
224.15         71.8812
224.61        68.55061
225.06        63.71445
225.52        59.04502
225.98        57.61176
226.44        59.50026
226.90        62.82045
227.36        65.57609
227.81        66.10177
228.27        64.57507
228.73        61.57052
229.19        57.63425
229.65         54.1417
230.10        51.79951
230.56        50.48138
231.02        49.97461
231.48        50.05451
231.93        50.40984
232.39        51.16151
232.85        51.97564
233.31         52.3906
233.77        52.37723
234.22        52.19538
234.68        51.81389
235.14        51.31715
235.60        50.76829
236.05        49.99033
236.51        49.64452
236.97        50.96458
237.43        54.17024
237.88        58.95992
238.34        63.51629
238.80         66.2583
239.26        66.92064
239.71         65.2969
240.17        61.62962
240.63        60.37102
241.08        64.75966
241.54        71.24733
242.00        76.16354
242.46        78.27122
242.91        78.23243
243.37        75.80375
243.83        70.03561
244.28        64.14459
244.74        67.43551
245.20        77.41109
245.66        84.44783
246.11        85.81429
246.57        82.68811
247.03         74.8394
247.48        62.00602
247.94        52.30461
248.40        55.15961
248.85        66.09698
249.31        78.48278
249.77        86.82027
250.22        90.84654
250.68         92.6072
251.14        93.39721
251.59        94.44028
252.05        96.25798
252.51        98.57761
252.96        100.4997
253.42         99.9147
253.88        96.10451
254.33        91.29616
254.79        87.74385
255.25        85.32161
255.70        83.39503
256.16        82.19693
256.62        81.63626
257.07         81.7653
257.53        82.65196
257.99        83.50133
258.44        83.52148
258.90        82.57539
259.35        80.46703
259.81        78.08907
260.27        75.68662
260.72        73.64631
261.18        72.40183
261.63         71.3893
262.09        70.66644
262.55        69.79562
263.00        68.64113
263.46        67.51559
263.91        66.37116
264.37         65.5818
264.83        65.06343
265.28        64.62817
265.74        64.24634
266.19        63.60426
266.65         62.7596
267.11        61.75301
267.56        60.60586
268.02        59.47814
268.47        58.36856
268.93        57.24598
269.38        56.17296
269.84        55.28987
270.30        54.58594
270.75        54.03099
271.21        53.40687
271.66        52.30791
272.12        50.72175
272.57        48.75447
273.03         46.8048
273.48        45.39175
273.94        44.68267
274.39        44.44447
274.85          44.401
275.31        44.05136
275.76         43.2691
276.22        42.25832
276.67        41.17958
277.13        40.38704
277.58        39.87025
278.04        39.55058
278.49        39.19775
278.95        38.63029
279.40        37.76306
279.86        36.77355
280.31        35.76583
280.77        35.02108
281.22        34.54062
281.68        34.28355
282.13         34.1086
282.59        33.89286
283.04         33.5717
283.50        33.21129
283.95        32.84288
284.41        32.56543
284.86        32.37739
285.32         32.2683
285.77        32.16991
286.22        32.03765
286.68        31.87961
287.13        31.68129
287.59        31.51602
288.04        31.40709
288.50        31.39301
288.95        31.42311
289.41        31.48477
289.86        31.50262
290.32        31.49235
290.77        31.47457
291.22        31.49018
291.68        31.58939
292.13        31.78256
292.59        32.08022
293.04        32.49531
293.50        33.07351
293.95        33.80823
294.40        34.70656
294.86        35.72273
295.31        36.77249
295.77        37.84541
296.22        38.93509
296.68        40.10803
297.13        41.44141
297.58         42.9328
298.04        44.53707
298.49        46.13699
298.95        47.60975
299.40        48.93692
299.85        50.18169
300.31        51.47522
300.76        52.96275
301.21        54.67369
301.67        56.55692
302.12        58.46259
302.58        60.25804
303.03        61.88162
303.48        63.41402
303.94        64.97972
304.39        66.67529
304.84        68.55621
305.30        70.59135
305.75        72.66956
306.20        74.71613
306.66        76.72446
307.11         78.6713
307.57        80.62046
308.02        82.54361
308.47         84.4507
308.93        86.32985
309.38        88.11674
309.83        89.82809
310.29        91.49263
310.74        93.09534
311.19        94.65652
311.65        96.17463
312.10        97.60734
312.55        98.94758
313.00        100.2164
313.46        101.4638
313.91        102.6803
314.36        103.8688
314.82        104.9617
315.27        105.8425
315.72        106.4981
316.18        106.9907
316.63         107.414
317.08        107.9566
317.53        108.6674
317.99        109.4875
318.44        110.3495
318.89        111.1103
319.35        111.7237
319.80        112.2445
320.25        112.6974
320.70        113.1324
321.16        113.5568
321.61        113.9598
322.06        114.3556
322.51        114.7868
322.97        115.2355
323.42         115.736
323.87        116.2023
324.32        116.5101
324.78        116.6234
325.23        116.6268
325.68        116.6087
326.13        116.7485
326.59         117.068
327.04        117.5683
327.49        118.1488
327.94        118.6789
328.39        119.1137
328.85        119.4539
329.30        119.7959
329.75        120.1266
330.20        120.4566
330.66        120.7327
331.11        121.0446
331.56        121.4168
332.01        121.8674
332.46         122.396
332.92        122.9034
333.37        123.3817
333.82        123.7528
334.27        124.0374
334.72        124.3114
335.17        124.7045
335.63         125.222
336.08        125.8921
336.53        126.5956
336.98        127.1837
337.43        127.6162
337.88        127.9304
338.34        128.2096
338.79        128.6555
339.24        129.2859
339.69        130.0434
340.14        130.8044
340.59        131.3699
341.05        131.7007
341.50        131.8837
341.95        132.0273
342.40        132.3172
342.85        132.8045
343.30        133.4141
343.75        134.0958
344.20        134.7705
344.66        135.3943
345.11        135.9805
345.56        136.4629
346.01        136.7337
346.46        136.7884
346.91        136.6617
347.36        136.4859
347.81        136.4707
348.26        136.6617
348.72        137.0061
349.17        137.3838
349.62         137.619
350.07        137.6593
350.52        137.5621
350.97        137.3956
351.42         137.267
351.87         137.209
352.32        137.1809
352.77        137.1436
353.22        137.0453
353.67        136.8624
354.13        136.6147
354.58        136.2899
355.03        135.9348
355.48          135.55
355.93        135.1189
356.38        134.5959
356.83        133.9097
357.28        133.0651
357.73        132.1177
358.18        131.1451
358.63        130.2549
359.08         129.489
359.53        128.8291
359.98        128.2587
360.43         127.749
360.88        127.2667
361.33        126.7858
361.78        126.2882
362.23          125.74
362.68        125.1157
363.13        124.4375
363.58        123.6476
364.03        122.5566
364.48        121.3546
364.93         119.974
365.38        118.6101
365.83        117.4818
366.28        116.6388
366.73        116.0028
367.18        115.4893
367.63        114.9535
368.08        114.3389
368.53        113.6987
368.98         112.984
369.43        112.1198
369.88         111.113
370.33        109.9684
370.78        108.8555
371.23        108.0614
371.68        107.6342
372.13        107.4925
372.58        107.3995
373.03        106.9586
373.48        106.0813
373.93        104.9015
374.38        103.6422
374.83         102.653
375.28        102.0285
375.72         101.635
376.17         101.379
376.62        101.0432
377.07        100.5564
377.52        99.97418
377.97        99.34621
378.42        98.74451
378.87        98.19263
379.32        97.66868
379.77        97.12466
380.22        96.49037
380.67        95.76319
381.11        94.98563
381.56          94.251
382.01        93.71929
382.46        93.43029
382.91        93.33195
383.36        93.31433
383.81        93.20366
384.26        92.94484
384.71         92.5759
385.15         92.1372
385.60        91.76266
386.05        91.45799
386.50        91.17956
386.95        90.88423
387.40        90.51697
387.85         90.0769
388.29        89.55373
388.74         89.0795
389.19        88.62018
389.64        88.17279
390.09        87.71445
390.54        87.27268
390.98        86.87566
391.43        86.58677
391.88        86.38977
392.33        86.18519
392.78        85.91065
393.23        85.58244
393.67        85.01721
394.12        84.39715
394.57        84.60644
395.02        84.34512
395.47         84.3482
395.91        84.18479
396.36        84.00743
396.81        83.80561
397.26        83.49069
397.71        83.15636
398.15        82.93569
398.60        82.92632
399.05        82.96925
399.50        82.98912
399.95        82.96606
400.39        82.84082
400.84        82.41837
401.29        81.80238
401.74        81.27706
402.18        80.94759
402.63        80.79406
403.08        80.76063
403.53        80.64957
403.97        80.43405
404.42        80.26012
404.87        80.13034
405.32        80.05011
405.76        80.00198
406.21         79.8644
406.66        79.68893
407.11        79.74661
407.55        79.93775
408.00          79.878
408.45        79.52164
408.90        78.72272
409.34         77.7788
409.79         77.6618
410.24        78.23483
410.68        78.41532
411.13        78.13216
411.58        78.04575
412.03        78.19878
412.47        78.33885
412.92        78.42332
413.37        78.52746
413.81        78.59315
414.26        78.60179
414.71        78.53244
415.15        78.40849
415.60        78.24232
416.05        78.13676
416.49         78.1236
416.94        78.16066
417.39        78.22021
417.83        78.25376
418.28        78.23377
418.73        78.15877
419.17        78.04276
419.62        77.91261
420.07        77.79913
420.51        77.71004
420.96        77.63272
421.41        77.56291
421.85        77.48528
422.30        77.24295
422.74        76.96167
423.19        77.40886
423.64        78.35688
424.08        78.64433
424.53        78.19958
424.98        77.89829
425.42        78.21693
425.87        78.08634
426.31        77.70233
426.76        77.58417
427.21        77.70362
427.65         77.7436
428.10        77.69379
428.54        77.65356
428.99        77.68117
429.44        78.00577
429.88         78.4489
430.33        78.23331
430.77        77.51982
431.22        77.52343
431.66        78.15063
432.11        78.33887
432.56        78.11993
433.00        78.22934
433.45        78.44491
433.89        78.52702
434.34        78.60363
434.78        77.48416
435.23        77.54093
435.67        78.26539
436.12        78.60746
436.57         78.6953
437.01        78.17223
437.46        78.46201
437.90        78.27145
438.35          79.503
438.79        78.90923
439.24        79.30942
439.68        78.92444
440.13         78.5849
440.57        78.18176
441.02        78.45927
441.46        79.21407
441.91        79.26849
442.35        78.69289
442.80        78.82356
443.24        79.53326
443.69        79.71264
444.13        79.33498
444.58        79.34142
445.02         79.4187
445.47        79.49007
445.91        79.43691
446.36        79.42027
446.80        79.43104
447.24        79.37299
447.69        79.31773
448.13        79.53374
448.58        79.93825
449.02        80.00544
449.47        79.78481
449.91         79.7912
450.36         80.0212
450.80        80.00732
451.25        79.80231
451.69        79.75073
452.13        79.85908
452.58        79.91512
453.02        79.89098
453.47        79.83961
453.91        79.73991
454.36        79.67253
454.80        79.62633
455.24        79.28765
455.69        78.73103
456.13        78.52699
456.58        78.87983
457.02        78.04523
457.46        78.92872
457.91        78.90458
458.35        78.35872
458.79          78.106
459.24        78.02036
459.68        77.83173
460.13        77.59081
460.57        77.21746
461.01        77.08057
461.46        77.19636
461.90        76.96495
462.34        77.05888
462.79        77.08989
463.23        77.03037
463.68        76.86461
464.12        76.64724
464.56        76.46737
465.01        76.68686
465.45        77.03424
465.89        76.91821
466.34        76.44891
466.78        76.24245
467.22        75.62804
467.67        76.53791
468.11        76.25331
468.55        76.26011
468.99         75.8806
469.44        75.73651
469.88        75.84026
470.32        75.83537
470.77        75.71725
471.21        75.61752
471.65        75.54053
472.10        75.46935
472.54         75.3666
472.98        75.26844
473.42        75.19099
473.87        74.99952
474.31        74.74119
474.75        74.94769
475.20        75.43934
475.64        75.32315
476.08        74.69412
476.52        74.45227
476.97        74.62866
477.41        74.66238
477.85         74.7262
478.29        74.45601
478.74         74.7572
479.18        74.03751
479.62        74.65865
480.06        74.61492
480.50        74.53336
480.95        74.53441
481.39        74.56953
481.83        74.47894
482.27        74.54705
482.72        74.16421
483.16        74.38045
483.60        74.18077
484.04        74.26743
484.48        74.25126
484.93        74.50629
485.37        74.60732
485.81         74.5903
486.25        75.56078
486.69        75.96295
487.14        74.40093
487.58        73.93111
488.02         74.2991
488.46        74.39638
488.90        74.90615
489.34        73.97707
489.79        73.58022
490.23        73.94918
490.67        73.89924
491.11        73.63227
491.55         73.5162
491.99         73.5733
492.43        73.59453
492.88        73.56689
493.32        73.60419
493.76         73.6588
494.20        73.69942
494.64         73.7335
495.08        73.63535
495.52         73.4865
495.96        73.70818
496.41         74.1699
496.85        74.15108
497.29        73.68683
497.73        73.52205
498.17        73.57976
498.61        73.67622
499.05        73.69155
499.49        73.58232
499.93        73.41212
500.37        73.26353
500.82        73.15635
501.26        73.35841
501.70        73.87325
502.14        73.28473
502.58        73.56274
503.02        73.54015
503.46        73.49412
503.90        73.44939
504.34        73.33579
504.78        73.29659
505.22        73.29294
505.66        73.21318
506.10        73.10905
506.54        73.08673
506.98        73.13513
507.42        73.39979
507.86        73.59429
508.30        73.47079
508.74        73.61612
509.18        73.50954
509.62        73.38036
510.06        73.26247
510.50        73.18475
510.94        73.12419
511.38        73.09011
511.82        73.11419
512.26        73.18961
512.70        73.30967
513.14        73.43581
513.58        73.47368
514.02        73.40417
514.46        73.30689
514.90        73.23036
515.34        72.99715
515.78        73.04967
516.22        73.02678
516.66        73.05604
517.10         73.1291
517.54         73.2356
517.98        73.36777
518.42         73.4739
518.86        73.48064
519.30        73.37644
519.74        73.18822
520.18        72.97479
520.62        72.83006
521.06        72.78223
521.50        72.80812
521.93        72.88406
522.37        72.95278
522.81        72.99936
523.25        73.03563
523.69        73.06367
524.13        73.08584
524.57        73.10254
525.01        73.10709
525.45        73.09584
525.89        73.06773
526.32        73.01891
526.76        72.96705
527.20        72.91788
527.64        72.88779
528.08        72.87944
528.52        72.88583
528.96        72.89948
529.40        72.90748
529.83        72.89841
530.27        72.89104
530.71        72.87157
531.15         72.8292
531.59         72.7656
532.03        72.68375
532.46        72.60115
532.90        72.56976
533.34        72.59035
533.78        72.64835
534.22        72.71098
534.66        72.72744
535.09        72.67832
535.53        72.60195
535.97        72.51173
536.41         72.4461
536.85        72.41789
537.28        72.41838
537.72           72.44
538.16        72.46098
538.60        72.47564
539.04          72.503
539.47        72.52267
539.91        72.54388
540.35        72.54854
540.79        72.55104
541.22        72.53691
541.66        72.49499
542.10        72.42397
542.54        72.32822
542.97        72.23384
543.41         72.2215
543.85        72.28725
544.29        72.41622
544.72        72.53736
545.16        72.57627
545.60        72.50132
546.04        72.33306
546.47        72.14535
546.91        72.06764
547.35        72.11673
547.79        72.26344
548.22        72.40744
548.66        72.40808
549.10        72.26102
549.53        72.15557
549.97         72.1383
550.41        72.13674
550.84          72.163
551.28        72.28407
551.72        72.43922
552.15        72.48207
552.59        72.40823
553.03        72.24945
553.46        72.06066
553.90        71.97579
554.34        72.00393
554.77        72.12736
555.21        72.27143
555.65        72.32674
556.08        72.19872
556.52        72.08495
556.96        72.00227
557.39        72.07758
557.83        72.26939
558.27        72.24583
558.70        72.02097
559.14        71.93143
559.57        71.98186
560.01        71.96345
560.45        71.87029
560.88        71.92019
561.32        72.11113
561.75          72.039
562.19        71.80409
562.63        71.92132
563.06        72.29391
563.50        72.27209
563.93        71.89774
564.37        71.80311
564.80        71.98204
565.24          72.135
565.68        72.20597
566.11        72.25928
566.55        72.30866
566.98        72.27415
567.42        72.19658
567.85        72.20424
568.29        72.32806
568.72        72.20857
569.16         71.8988
569.60        72.04358
570.03        72.37328
570.47         72.1231
570.90        72.04318
571.34        72.77721
571.77        72.75336
572.21        72.38802
572.64        72.58173
573.08        72.78179
573.51        71.94173
573.95        72.11319
574.38        72.71709
574.82        72.60237
