SpectraSmart Spectrum 2.9.0.0
--------- Device Information -----------
Spectrum Name :  反射率_0
Saving Time :  2024/04/27 23:51:18
Spectro-Module Model Name : SE2030-DUVN
Spectro-Module Serial Number : OS361AC55029948
Wavelength Start : 200
Wavelength End : 1025
Wavelength Unit : Wavelength(nm)
Spectrum Unit : Reflectance(%)
-----------Spectrum Setting ------------
Integration Time : 20ms
Average : 10
Boxcar : 0
Background removal :  enabled
linearity correction :  enabled
SC :  disabled
Intensity correction :  disabled
DWT denoise :  enabled
savitzky-golay :  disabled
FFT :  disabled
Running average :  disabled
Kalman :  disabled
High pass :  disabled
---------------BEGIN--------------------
Wavelength(nm)             Reflectance(%)
200.29               0
200.75        18.20238
201.21        17.23088
201.67        24.04124
202.13        31.60146
202.58        38.92887
203.04         47.5565
203.50        57.09621
203.96        65.42337
204.42        71.41086
204.88        75.35605
205.34        78.07397
205.80        80.98287
206.26        84.80894
206.72         89.9909
207.18        96.24759
207.64        98.16225
208.10         93.1265
208.55        86.63593
209.01        81.20923
209.47        76.52975
209.93        70.50528
210.39        57.83899
210.85        22.90865
211.31       -12.72182
211.77        42.01672
212.23        74.46079
212.69        85.30285
213.14         88.5871
213.60        87.91419
214.06        84.30704
214.52         76.3776
214.98        67.70487
215.44        65.56038
215.90        67.17741
216.36        69.78514
216.81        72.18061
217.27        74.23775
217.73          76.653
218.19        78.31258
218.65        76.95805
219.11        71.97463
219.57        63.41279
220.02        53.13744
220.48        47.74241
220.94        49.29897
221.40        55.26281
221.86        62.06658
222.32        66.08801
222.77        67.08601
223.23        66.42284
223.69        64.87096
224.15         63.0002
224.61        60.99212
225.06        58.43221
225.52        55.96527
225.98        54.67078
226.44        54.71483
226.90        55.42458
227.36        56.16001
227.81          56.349
228.27        55.95089
228.73        55.06821
229.19        53.55938
229.65        51.31841
230.10        48.54649
230.56        45.79784
231.02         43.4477
231.48        42.03291
231.93        41.55968
232.39        41.89109
232.85        42.98999
233.31        44.81025
233.77        47.16016
234.22        50.03497
234.68        52.72037
235.14        54.43426
235.60        55.12502
236.05        54.83104
236.51        54.57664
236.97        56.40615
237.43        60.76944
237.88        66.98361
238.34        72.85625
238.80        76.46308
239.26        77.50378
239.71        75.98722
240.17        71.88512
240.63        69.41038
241.08        72.26292
241.54        77.46523
242.00        81.66415
242.46        83.44641
242.91        83.28899
243.37        81.12825
243.83        75.97942
244.28        69.70378
244.74          70.213
245.20        77.05339
245.66        83.02131
246.11        85.78822
246.57        86.53106
247.03        85.95514
247.48        84.89939
247.94         86.6247
248.40        92.22151
248.85        98.71397
249.31        102.9383
249.77        102.5865
250.22        99.25543
250.68        95.27814
251.14        91.91486
251.59        90.06286
252.05        89.69827
252.51        89.95661
252.96        91.23882
253.42        94.71609
253.88        98.86131
254.33        102.2367
254.79        103.3501
255.25        100.6693
255.70         95.3082
256.16        89.43345
256.62        85.11563
257.07        84.66446
257.53        87.50932
257.99        91.16051
258.44        93.71169
258.90        94.24249
259.35        92.57146
259.81        90.15875
260.27        87.36256
260.72        84.66241
261.18        82.68921
261.63        80.86412
262.09        79.46236
262.55        78.22964
263.00        76.98427
263.46        75.95303
263.91        74.93518
264.37        74.14073
264.83        73.44863
265.28        72.74719
265.74        72.05317
266.19        71.06139
266.65        69.86309
267.11         68.4808
267.56        67.00578
268.02        65.72089
268.47        64.63812
268.93        63.69764
269.38        62.84733
269.84        62.05165
270.30        61.25216
270.75        60.45182
271.21        59.54597
271.66        58.30079
272.12        56.73973
272.57        54.91558
273.03        53.08627
273.48        51.55358
273.94        50.46396
274.39        49.66047
274.85        49.06972
275.31        48.45773
275.76        47.72427
276.22        46.97902
276.67        46.16901
277.13        45.36047
277.58        44.50428
278.04         43.6493
278.49        42.75859
278.95        41.93889
279.40        41.14521
279.86        40.44006
280.31        39.77151
280.77        39.21049
281.22        38.70264
281.68        38.29233
282.13        37.90949
282.59        37.53631
283.04        37.13299
283.50        36.73834
283.95        36.35688
284.41        36.05984
284.86         35.8392
285.32        35.70589
285.77        35.61298
286.22        35.54969
286.68        35.52018
287.13        35.47866
287.59        35.46378
288.04        35.44396
288.50        35.44637
288.95        35.43732
289.41        35.41786
289.86        35.32726
290.32        35.20121
290.77        35.06319
291.22        34.98613
291.68        35.06321
292.13        35.31308
292.59        35.74317
293.04        36.33506
293.50        37.08471
293.95        37.96783
294.40        38.99512
294.86        40.14885
295.31         41.3911
295.77        42.71519
296.22        44.09356
296.68         45.5349
297.13        47.02652
297.58        48.55135
298.04        50.09872
298.49        51.62547
298.95        53.12664
299.40        54.60785
299.85        56.10292
300.31         57.6778
300.76         59.3678
301.21        61.17559
301.67        63.08701
302.12        65.00433
302.58        66.88506
303.03         68.6743
303.48        70.41422
303.94        72.18074
304.39         73.9922
304.84        75.89137
305.30        77.88092
305.75         79.8689
306.20        81.81989
306.66        83.73934
307.11        85.57896
307.57        87.41591
308.02        89.23694
308.47        91.04907
308.93        92.84219
309.38        94.50089
309.83        95.96674
310.29        97.26569
310.74        98.41411
311.19        99.51015
311.65        100.6789
312.10        101.9088
312.55         103.151
313.00        104.3706
313.46        105.5257
313.91        106.5755
314.36        107.5537
314.82        108.3999
315.27        109.0103
315.72         109.387
316.18        109.5881
316.63        109.7387
317.08        110.0808
317.53        110.6701
317.99         111.432
318.44        112.2592
318.89        112.9403
319.35        113.4075
319.80         113.731
320.25        113.9591
320.70        114.1807
321.16        114.4204
321.61        114.6649
322.06        114.9167
322.51        115.1983
322.97        115.4918
323.42         115.839
323.87        116.1906
324.32        116.4809
324.78        116.6749
325.23        116.8259
325.68        116.9537
326.13        117.1266
326.59        117.3385
327.04        117.6288
327.49        117.9431
327.94        118.2296
328.39        118.4791
328.85        118.6744
329.30        118.9356
329.75        119.2861
330.20        119.7352
330.66        120.2227
331.11        120.7688
331.56        121.2807
332.01        121.7432
332.46        122.1737
332.92        122.5327
333.37        122.9278
333.82         123.317
334.27        123.6893
334.72        124.0639
335.17        124.4782
335.63        124.9083
336.08        125.4051
336.53        125.9034
336.98        126.3417
337.43        126.7025
337.88        127.0033
338.34        127.2581
338.79        127.5514
339.24        127.8902
339.69        128.2739
340.14        128.6849
340.59        129.0937
341.05        129.4935
341.50        129.8922
341.95        130.3221
342.40        130.8508
342.85        131.4758
343.30        132.1576
343.75        132.7988
344.20        133.2479
344.66        133.4796
345.11        133.5448
345.56         133.533
346.01        133.5838
346.46        133.7473
346.91        133.9898
347.36        134.2984
347.81        134.6487
348.26        135.0163
348.72        135.4015
349.17        135.7568
349.62        136.0304
350.07        136.1955
350.52        136.2491
350.97        136.1938
351.42        136.0463
351.87        135.8218
352.32        135.5283
352.77        135.1849
353.22        134.8164
353.67        134.4352
354.13        134.0595
354.58        133.6674
355.03         133.284
355.48        132.9064
355.93        132.5227
356.38        132.1135
356.83        131.6468
357.28        131.1134
357.73        130.5302
358.18        129.8961
358.63        129.2065
359.08        128.4782
359.53        127.7267
359.98        126.9941
360.43          126.35
360.88        125.7954
361.33        125.2837
361.78         124.784
362.23        124.2361
362.68        123.6092
363.13        122.9466
363.58        122.1879
364.03        121.1414
364.48        119.9809
364.93        118.6306
365.38        117.3041
365.83        116.2577
366.28        115.5427
366.73        115.0787
367.18        114.7075
367.63        114.1694
368.08        113.3929
368.53         112.461
368.98        111.4624
369.43        110.5422
369.88        109.7521
370.33        109.0403
370.78        108.3943
371.23         107.801
371.68        107.2412
372.13        106.7207
372.58        106.2065
373.03        105.6387
373.48        105.0027
373.93          104.31
374.38        103.5862
374.83        102.8735
375.28        102.1907
375.72        101.5185
376.17        100.8883
376.62        100.2747
377.07        99.67163
377.52        99.06799
377.97        98.49253
378.42        97.98932
378.87        97.55666
379.32        97.18748
379.77        96.78569
380.22         96.1999
380.67        95.41519
381.11        94.48843
381.56        93.57594
382.01        92.94998
382.46        92.68002
382.91        92.68643
383.36        92.79923
383.81         92.7478
384.26        92.45682
384.71        91.99743
385.15        91.46664
385.60        91.08548
386.05        90.87435
386.50        90.74974
386.95        90.61284
387.40        90.32596
387.85        89.86858
388.29        89.26243
388.74         88.6709
389.19        88.10549
389.64        87.57453
390.09        87.03516
390.54        86.52521
390.98        86.09203
391.43        85.80798
391.88        85.66898
392.33        85.54982
392.78        85.33385
393.23        85.03558
393.67        84.45287
394.12        83.86932
394.57        84.11005
395.02        84.61559
395.47        84.58752
395.91        83.95471
396.36        83.71152
396.81        83.89816
397.26        83.95308
397.71        83.79665
398.15        83.54844
398.60        83.28975
399.05        82.85027
399.50        82.39461
399.95         82.2849
400.39        82.46455
400.84        82.58906
401.29        82.52827
401.74        82.03726
402.18        81.28475
402.63        80.98597
403.08        81.14517
403.53        81.04561
403.97        80.67529
404.42        80.54098
404.87        80.57234
405.32        80.47389
405.76        80.21629
406.21        79.77599
406.66        79.29102
407.11        79.23405
407.55        79.52489
408.00        79.51218
408.45        79.16914
408.90        78.71243
409.34        78.31033
409.79        78.39159
410.24        78.83064
410.68        78.97186
411.13        78.75722
411.58         78.5918
412.03        78.52796
412.47         78.4645
412.92        78.38942
413.37        78.35848
413.81         78.3138
414.26        78.22358
414.71        78.06282
415.15        77.86562
415.60        77.66103
416.05         77.5705
416.49        77.62746
416.94        77.78236
417.39        77.96657
417.83         78.0723
418.28        78.05846
418.73        77.93019
419.17        77.75176
419.62        77.63636
420.07        77.62494
420.51        77.68944
420.96        77.74097
421.41        77.66322
421.85          77.423
422.30        76.90837
422.74        76.32082
423.19        76.53578
423.64        77.36738
424.08        77.62506
424.53        77.17044
424.98        77.03369
425.42        77.25751
425.87        77.01335
426.31        76.47938
426.76        76.62746
427.21        77.33907
427.65        77.55669
428.10         77.2234
428.54         77.1086
428.99        77.25553
429.44        77.22313
429.88        77.00153
430.33        76.84557
430.77        76.73171
431.22        76.69855
431.66         76.7483
432.11        76.94209
432.56          77.258
433.00        77.46279
433.45        77.41181
433.89        77.38914
434.34        77.29772
434.78        76.91108
435.23          76.337
435.67        75.85365
436.12        77.24459
436.57        77.50924
437.01        77.28802
437.46        77.04348
437.90        77.27914
438.35        78.14795
438.79        77.58806
439.24        77.57719
439.68        77.51508
440.13         77.4736
440.57        77.47663
441.02        77.57715
441.46         77.6692
441.91        77.65769
442.35        77.55936
442.80        77.21503
443.24        77.64818
443.69        77.86842
444.13        78.08181
444.58        78.22396
445.02        78.26198
445.47        78.23088
445.91        78.14117
446.36        78.08743
446.80        78.07673
447.24        78.01631
447.69        77.96168
448.13        78.15971
448.58        78.52086
449.02        78.56306
449.47        78.33757
449.91        78.27489
450.36        78.41208
450.80        78.46691
451.25         78.4344
451.69        78.41253
452.13        78.39063
452.58        78.28229
453.02        78.12762
453.47        78.02822
453.91        77.97969
454.36        78.06745
454.80        78.19791
455.24        77.90054
455.69        77.28508
456.13        77.00992
456.58        77.24116
457.02        76.62674
457.46        77.32669
457.91        76.95663
458.35        76.52499
458.79        76.25373
459.24        76.26839
459.68        76.15145
460.13        75.89075
460.57         75.9211
461.01        75.57085
461.46        75.68629
461.90        75.38823
462.34        75.49688
462.79        75.36023
463.23         75.3906
463.68        75.43674
464.12        75.31233
464.56        75.10211
465.01        75.24141
465.45        75.47707
465.89        75.39805
466.34        75.11823
466.78        74.60091
467.22        73.90056
467.67        74.96042
468.11        74.55509
468.55        74.67687
468.99        74.40176
469.44        74.34302
469.88         74.4909
470.32        74.51491
470.77         74.4223
471.21        74.34206
471.65        74.27907
472.10        74.20684
472.54         74.0969
472.98        73.98564
473.42        73.88959
473.87        73.72097
474.31        73.48991
474.75         73.5843
475.20        73.87015
475.64        73.65001
476.08        73.02857
476.52        72.84917
476.97        73.16589
477.41        73.17854
477.85        73.40795
478.29        73.45035
478.74         73.4132
479.18        72.68176
479.62        73.42952
480.06        73.37978
480.50        73.17822
480.95        73.11649
481.39         73.1764
481.83        73.04119
482.27        73.10592
482.72        72.88081
483.16        72.96126
483.60        72.88535
484.04        72.71025
484.48        72.84106
484.93        73.49257
485.37        72.61339
485.81        72.82819
486.25        73.43903
486.69        73.31618
487.14         72.2602
487.58        72.66508
488.02        73.29091
488.46        73.13734
488.90        72.91103
489.34        72.68468
489.79        72.15887
490.23        72.22838
490.67        72.36635
491.11        72.65621
491.55        72.57863
491.99        72.18335
492.43        72.03918
492.88        72.16236
493.32        72.21595
493.76        72.15231
494.20        72.16013
494.64        72.25745
495.08        72.24593
495.52        72.17235
495.96        72.46951
496.41        72.98238
496.85        72.83686
497.29        72.16058
497.73        72.06698
498.17        72.43378
498.61        72.61122
499.05        72.47968
499.49        72.37543
499.93        72.38144
500.37        72.36076
500.82         72.2881
501.26        72.53123
501.70        73.10162
502.14        72.20116
502.58        72.49044
503.02        72.34961
503.46        72.26553
503.90        72.26773
504.34        72.26022
504.78        72.21426
505.22        72.10135
505.66         72.1138
506.10         72.2765
506.54        72.30147
506.98        72.12899
507.42        72.67786
507.86        72.52168
508.30        72.51841
508.74        72.60459
509.18         72.5448
509.62        72.44414
510.06        72.31872
510.50        72.19778
510.94        72.05804
511.38        71.93658
511.82        71.89751
512.26        71.94605
512.70        72.07256
513.14        72.21516
513.58        72.24297
514.02        72.13065
514.46        71.96454
514.90        71.83799
515.34        71.65009
515.78        71.84212
516.22        72.03062
516.66        72.26447
517.10        72.41582
517.54        72.45138
517.98        72.40483
518.42        72.30128
518.86        72.19308
519.30        72.10303
519.74        72.01653
520.18        71.94661
520.62        71.91451
521.06        71.92342
521.50        71.97566
521.93        72.05068
522.37        72.09463
522.81        72.09935
523.25        72.06983
523.69        72.03126
524.13         72.0267
524.57        72.06326
525.01        72.12666
525.45        72.18069
525.89        72.16903
526.32        72.07745
526.76        71.94144
527.20        71.80265
527.64        71.73443
528.08        71.75257
528.52        71.83012
528.96        71.92871
529.40        71.98817
529.83        71.98344
530.27         71.9465
530.71        71.88334
531.15        71.81366
531.59        71.74732
532.03        71.67768
532.46        71.60703
532.90        71.56354
533.34        71.54587
533.78        71.55328
534.22        71.57201
534.66        71.57783
535.09        71.55686
535.53        71.53554
535.97         71.5151
536.41        71.51583
536.85        71.54047
537.28        71.58086
537.72        71.62627
538.16        71.65099
538.60        71.65281
539.04        71.65272
539.47        71.62408
539.91        71.60843
540.35        71.59993
540.79        71.53204
541.22        71.39133
541.66         71.5686
542.10        71.42339
542.54        71.46545
542.97        71.48958
543.41        71.52637
543.85         71.5514
544.29        71.58189
544.72        71.61559
545.16        71.60347
545.60        71.51878
546.04        71.54633
546.47        71.52926
546.91        71.28353
547.35        71.36491
547.79        71.31284
548.22        71.27308
548.66        71.19499
549.10        71.09012
549.53        71.06988
549.97         71.1321
550.41        71.17475
550.84        71.17865
551.28        71.24311
551.72         71.3634
552.15        71.37003
552.59        71.24676
553.03        71.49282
553.46        71.24644
553.90        71.26769
554.34        71.29618
554.77        71.33857
555.21         71.3521
555.65        71.34952
556.08        71.24013
556.52         71.0733
556.96        70.88678
557.39        70.94071
557.83        71.18748
558.27        71.22462
558.70        71.06158
559.14        70.99189
559.57        71.01457
560.01        71.09379
560.45        71.14724
560.88        70.96655
561.32        70.67892
561.75        70.53247
562.19        70.58935
562.63        70.78262
563.06        71.00746
563.50        70.99837
563.93        70.77396
564.37        70.71506
564.80        70.81615
565.24         70.8998
565.68        70.93285
566.11        70.96449
566.55        71.01711
566.98        71.02686
567.42         71.0241
567.85        71.09897
568.29        71.28619
568.72        71.26939
569.16        71.05338
569.60        71.27582
570.03        71.41902
570.47        71.04216
570.90        70.87196
571.34        71.39212
571.77        71.26498
572.21        70.88953
572.64        71.17745
573.08        71.00105
573.51        70.79233
573.95        70.87707
574.38        71.17664
574.82        71.01241
