SpectraSmart Spectrum 2.9.0.0
--------- Device Information -----------
Spectrum Name :  反射率_0
Saving Time :  2024/04/28 00:07:00
Spectro-Module Model Name : SE2030-DUVN
Spectro-Module Serial Number : OS361AC55029948
Wavelength Start : 200
Wavelength End : 1025
Wavelength Unit : Wavelength(nm)
Spectrum Unit : Reflectance(%)
-----------Spectrum Setting ------------
Integration Time : 20ms
Average : 10
Boxcar : 0
Background removal :  enabled
linearity correction :  enabled
SC :  disabled
Intensity correction :  disabled
DWT denoise :  enabled
savitzky-golay :  disabled
FFT :  disabled
Running average :  disabled
Kalman :  disabled
High pass :  disabled
---------------BEGIN--------------------
Wavelength(nm)             Reflectance(%)
200.29               0
200.75        3.468798
201.21         18.7289
201.67        35.14047
202.13        45.13339
202.58        50.83299
203.04        55.50715
203.50        60.73083
203.96        67.39132
204.42        74.45213
204.88        80.54839
205.34        85.32114
205.80        89.19934
206.26        92.66451
206.72        96.24306
207.18        98.51859
207.64        93.90486
208.10        83.50349
208.55        74.74836
209.01        68.22862
209.47         61.3617
209.93        50.54333
210.39        25.98973
210.85       -42.91333
211.31        -111.822
211.77       -2.021355
212.23        61.86758
212.69        82.60023
213.14         87.6584
213.60        84.63071
214.06        74.13393
214.52        53.35019
214.98        34.00642
215.44        34.02672
215.90        43.74817
216.36        53.29445
216.81         58.8931
217.27        61.33335
217.73        62.67148
218.19        63.03233
218.65        61.97165
219.11        59.48822
219.57         55.4163
220.02        49.78343
220.48        45.05255
220.94        42.38888
221.40        41.47038
221.86        42.67374
222.32        46.06282
222.77        50.79146
223.23        56.06033
223.69        60.07324
224.15         60.8204
224.61        58.35734
225.06        53.12727
225.52        47.29589
225.98         44.8695
226.44        46.36411
226.90        49.53754
227.36        52.16278
227.81        52.41943
228.27         50.3869
228.73        46.70698
229.19        42.15699
229.65         38.5146
230.10        36.63394
230.56        36.33652
231.02        36.84329
231.48        37.17377
231.93        36.99526
232.39         36.6208
232.85        36.54953
233.31         37.4663
233.77        39.31432
234.22        41.81311
234.68        43.88338
235.14        44.23586
235.60        42.66919
236.05        39.27882
236.51        35.46061
236.97        34.34465
237.43        37.11521
237.88        43.09797
238.34        49.39708
238.80        52.85957
239.26        52.69095
239.71        48.46633
240.17        40.75534
240.63        37.63232
241.08         45.2996
241.54        57.38065
242.00        66.67155
242.46        70.79803
242.91        70.89968
243.37        66.64692
243.83        56.18711
244.28        44.91937
244.74        49.98593
245.20        67.60701
245.66        80.07092
246.11        81.78025
246.57        74.52444
247.03        57.19037
247.48        29.60323
247.94        10.57139
248.40        19.75979
248.85        46.10659
249.31        72.29986
249.77        84.44631
250.22        84.41508
250.68        79.26449
251.14         73.3113
251.59        69.63026
252.05         68.3892
252.51        67.83822
252.96        67.28828
253.42        66.79757
253.88        65.99981
254.33        65.85289
254.79        65.72654
255.25        64.15626
255.70        61.47615
256.16        58.81773
256.62        57.31679
257.07        58.26035
257.53        61.10704
257.99        64.17577
258.44         66.1862
258.90        66.50019
259.35        65.06203
259.81        62.93831
260.27        60.45429
260.72        58.03351
261.18        56.16962
261.63        54.48006
262.09        53.09867
262.55        51.78475
263.00        50.42603
263.46        49.20412
263.91        48.08989
264.37        47.37048
264.83        46.94788
265.28        46.65898
265.74        46.35698
266.19         45.6675
266.65        44.62174
267.11        43.31055
267.56        41.87231
268.02        40.62613
268.47        39.62974
268.93        38.81664
269.38        38.14735
269.84        37.58287
270.30        37.07051
270.75        36.60536
271.21        36.10858
271.66        35.40911
272.12        34.50442
272.57        33.42196
273.03        32.28259
273.48        31.20512
273.94        30.30256
274.39        29.52992
274.85        28.93276
275.31        28.50044
275.76        28.18148
276.22        27.96249
276.67        27.76391
277.13        27.55511
277.58        27.26651
278.04         26.9477
278.49        26.50213
278.95        25.89697
279.40        25.11588
279.86        24.25928
280.31        23.44383
280.77        22.94174
281.22        22.75475
281.68        22.82959
282.13        22.99584
282.59        23.04574
283.04        22.92361
283.50        22.70486
283.95        22.47633
284.41        22.40033
284.86        22.49165
285.32        22.69803
285.77        22.91745
286.22        23.04147
286.68        23.06255
287.13        22.99184
287.59        22.92041
288.04        22.91279
288.50        23.01083
288.95         23.1594
289.41        23.32464
289.86        23.41422
290.32        23.43783
290.77        23.43683
291.22        23.47229
291.68        23.62305
292.13        23.91342
292.59        24.34476
293.04        24.91604
293.50        25.64477
293.95        26.51627
294.40         27.5354
294.86        28.67683
295.31        29.89099
295.77          31.172
296.22        32.51164
296.68        33.92701
297.13        35.41734
297.58        36.97641
298.04        38.59047
298.49        40.24042
298.95        41.94284
299.40         43.7077
299.85        45.55013
300.31        47.49807
300.76        49.52906
301.21        51.62045
301.67        53.75948
302.12         55.8745
302.58        57.95054
303.03        59.95325
303.48        61.91951
303.94        63.90376
304.39        65.90421
304.84        67.95927
305.30        70.07503
305.75        72.21237
306.20        74.40183
306.66        76.64915
307.11        78.88292
307.57        81.08777
308.02        83.11686
308.47         84.9537
308.93        86.63165
309.38        88.14266
309.83        89.58484
310.29        91.01665
310.74         92.4067
311.19        93.76456
311.65         95.0736
312.10        96.28757
312.55        97.40805
313.00        98.47194
313.46        99.54352
313.91         100.616
314.36        101.6948
314.82        102.6732
315.27        103.3749
315.72        103.7822
316.18        103.9708
316.63        104.1208
317.08        104.5554
317.53        105.3416
317.99        106.3769
318.44        107.4656
318.89        108.2585
319.35         108.662
319.80        108.7897
320.25        108.8009
320.70        108.9647
321.16        109.3464
321.61        109.8749
322.06         110.447
322.51         110.911
322.97        111.2022
323.42        111.4194
323.87          111.59
324.32        111.7722
324.78        111.9764
325.23        112.2176
325.68        112.4824
326.13        112.7879
326.59        113.1017
327.04        113.4684
327.49        113.8462
327.94        114.1996
328.39        114.5198
328.85        114.7857
329.30        115.0625
329.75         115.295
330.20        115.4875
330.66        115.6137
331.11        115.8056
331.56        116.1512
332.01        116.6776
332.46        117.3563
332.92        118.0332
333.37        118.6008
333.82        118.9506
334.27        119.1272
334.72        119.2403
335.17        119.4799
335.63        119.8788
336.08        120.4501
336.53        121.0809
336.98        121.6278
337.43        122.0527
337.88        122.4027
338.34        122.7451
338.79        123.2477
339.24        123.9141
339.69        124.6748
340.14        125.4306
340.59        126.0273
341.05        126.4291
341.50        126.7155
341.95        126.9235
342.40        127.1252
342.85         127.366
343.30        127.6177
343.75        127.9628
344.20        128.5323
344.66        129.3248
345.11        130.2817
345.56        131.2029
346.01        131.7631
346.46        131.8963
346.91        131.7037
347.36        131.3919
347.81        131.2873
348.26        131.4758
348.72        131.8642
349.17        132.3173
349.62        132.6423
350.07        132.7703
350.52        132.7607
350.97        132.6742
351.42        132.5966
351.87        132.5578
352.32        132.5324
352.77        132.4624
353.22        132.2707
353.67        131.9433
354.13        131.5093
354.58        131.0449
355.03         130.734
355.48        130.5949
355.93        130.5674
356.38        130.4676
356.83         130.008
357.28        129.1486
357.73        128.0072
358.18        126.7964
358.63          125.84
359.08        125.2245
359.53        124.8538
359.98        124.5943
360.43        124.2356
360.88        123.6986
361.33        123.0266
361.78        122.2806
362.23        121.5482
362.68        120.8516
363.13        120.1784
363.58        119.4438
364.03        118.4395
364.48         117.302
364.93        115.9856
365.38        114.6924
365.83        113.6622
366.28        112.9405
366.73        112.4468
367.18        112.0183
367.63         111.391
368.08        110.5025
368.53        109.4484
368.98        108.3432
369.43        107.3703
369.88        106.5922
370.33        105.9445
370.78        105.4031
371.23        104.9347
371.68         104.501
372.13        104.0994
372.58        103.6728
373.03        103.1262
373.48        102.4398
373.93        101.6405
374.38         100.769
374.83        99.89427
375.28        99.05373
375.72        98.22839
376.17        97.48207
376.62        96.83718
377.07        96.28761
377.52        95.80273
377.97        95.35443
378.42        94.89468
378.87         94.4041
379.32         93.9092
379.77        93.35442
380.22        92.65305
380.67        91.80929
381.11        90.85435
381.56        89.94916
382.01        89.37208
382.46        89.18453
382.91        89.30943
383.36        89.52641
383.81        89.48632
384.26        89.10144
384.71         88.4593
385.15        87.73736
385.60        87.28268
386.05        87.14455
386.50        87.21157
386.95        87.28564
387.40        87.07224
387.85        86.52518
388.29        85.72018
388.74        84.94231
389.19        84.37986
389.64        84.06384
390.09        83.89149
390.54        83.75032
390.98        83.44791
391.43        83.00074
391.88        82.48769
392.33        81.93868
392.78        81.45796
393.23        81.10169
393.67        80.65841
394.12        80.22996
394.57        80.52838
395.02        80.30255
395.47        80.34598
395.91        80.27634
396.36        80.20079
396.81        80.11912
397.26        79.99226
397.71        79.80204
398.15        79.53997
398.60        79.30071
399.05          78.884
399.50        78.44476
399.95        78.46439
400.39        78.81525
400.84        78.84328
401.29        78.46713
401.74        77.82575
402.18        77.11954
402.63        76.83998
403.08        76.96046
403.53        76.84073
403.97        76.45619
404.42        76.27089
404.87        76.27805
405.32        76.24023
405.76        76.12212
406.21        76.02207
406.66        75.93589
407.11         75.7684
407.55        75.56826
408.00        75.53902
408.45        75.61809
408.90        75.30612
409.34        74.67764
409.79        74.34745
410.24        74.33197
410.68         74.2701
411.13        74.15857
411.58        74.21609
412.03        74.40136
412.47        74.53796
412.92        74.56052
413.37        74.52761
413.81        74.44203
414.26        74.37154
414.71        74.31303
415.15        74.26696
415.60        74.20193
416.05        74.13754
416.49        74.08509
416.94        74.03499
417.39        74.00521
417.83         74.0154
418.28        74.05463
418.73        74.09527
419.17        74.11773
419.62         74.0962
420.07        74.04015
420.51        73.97095
420.96        73.88343
421.41        73.78252
421.85        73.65829
422.30        73.36811
422.74         73.0399
423.19        73.39843
423.64        74.26305
424.08         74.5887
424.53        74.24053
424.98        74.15024
425.42        74.37128
425.87        74.11311
426.31         73.5426
426.76        73.71309
427.21        74.48021
427.65        74.50723
428.10        73.82637
428.54        73.95121
428.99        74.11513
429.44        74.49599
429.88         74.7009
430.33        74.46967
430.77        73.89896
431.22        73.85381
431.66        74.27235
432.11        74.26668
432.56        73.96639
433.00        74.17999
433.45         74.6161
433.89        74.83564
434.34        74.99802
434.78        73.31399
435.23        73.95569
435.67        74.35673
436.12        75.15864
436.57        75.24871
437.01        74.63419
437.46        74.73664
437.90        74.78754
438.35        75.39291
438.79        75.10045
439.24          75.116
439.68        75.13921
440.13        75.07504
440.57        74.99619
441.02        75.40195
441.46        76.03815
441.91        75.86552
442.35        75.05508
442.80        74.94373
443.24        75.46549
443.69        75.75657
444.13        75.73093
444.58        75.83156
445.02        76.00217
445.47        76.13381
445.91        76.22366
446.36         76.1709
446.80        75.92428
447.24        76.33617
447.69        75.86407
448.13        76.07658
448.58        76.42133
449.02        76.46617
449.47        76.24745
449.91        76.19114
450.36        76.34438
450.80        76.41559
451.25        76.40279
451.69        76.40269
452.13        76.40041
452.58        76.30824
453.02        76.15207
453.47        76.01476
453.91         75.8994
454.36        75.89156
454.80        75.90041
455.24        75.59228
455.69        75.10487
456.13        74.80806
456.58        74.81828
457.02        74.83372
457.46        75.36298
457.91        74.97704
458.35        74.30463
458.79        73.95438
459.24         74.0593
459.68        74.12234
460.13        74.08707
460.57        73.91766
461.01        73.96669
461.46        73.77818
461.90        73.19821
462.34        73.84007
462.79        73.63841
463.23        73.67175
463.68        73.38989
464.12        73.26509
464.56        73.31402
465.01        73.39702
465.45         73.3396
465.89         73.2241
466.34        73.12688
466.78        72.65208
467.22        71.83044
467.67        72.71069
468.11        72.18494
468.55         72.1669
468.99        71.79449
469.44        71.67948
469.88        71.82117
470.32        71.92801
470.77        71.96638
471.21         71.9632
471.65        71.89899
472.10        71.77592
472.54         71.6026
472.98        71.45257
473.42        71.35448
473.87        71.25054
474.31        71.11245
474.75        71.15993
475.20        71.33049
475.64         71.1153
476.08        70.95501
476.52        70.83076
476.97        70.87532
477.41        70.94872
477.85        70.96207
478.29        70.77689
478.74        71.22562
479.18        70.27686
479.62        70.81497
480.06        70.70148
480.50        70.71963
480.95        70.90559
481.39        71.17015
481.83        70.88587
482.27        71.42894
482.72        70.51015
483.16        70.82589
483.60        70.59253
484.04        70.50998
484.48         70.4499
484.93        70.56062
485.37        70.58631
485.81        71.34721
486.25        71.16248
486.69        71.78632
487.14        71.00929
487.58        70.52556
488.02        70.91983
488.46        70.75484
488.90        71.15307
489.34        70.71934
489.79        70.09919
490.23        70.27596
490.67        69.99966
491.11        69.71838
491.55         69.7544
491.99        70.04227
492.43        70.14441
492.88        69.99954
493.32        69.84589
493.76        69.74644
494.20        69.74475
494.64        69.86397
495.08        70.07938
495.52        70.31855
495.96        70.43847
496.41        70.37231
496.85        70.24817
497.29        69.89177
497.73        69.65469
498.17        70.04605
498.61        70.00667
499.05        69.71313
499.49        69.68519
499.93        69.93423
500.37        69.87082
500.82         69.5069
501.26        69.65994
501.70        70.36446
502.14         69.6323
502.58        69.96911
503.02        69.85059
503.46        69.73393
503.90        69.59451
504.34        69.40715
504.78        69.35386
505.22        69.38593
505.66        69.44471
506.10        69.52328
506.54         69.4875
506.98        69.27728
507.42        69.67742
507.86        69.37241
508.30        69.33971
508.74        69.54009
509.18        69.69149
509.62        69.82402
510.06        69.83646
510.50        69.72668
510.94        69.51516
511.38        69.28348
511.82        69.16699
512.26        69.19557
512.70         69.3297
513.14         69.5092
513.58        69.60954
514.02        69.59296
514.46        69.54209
514.90        69.50015
515.34        69.28998
515.78         69.3291
516.22        69.27682
516.66        69.24337
517.10        69.20764
517.54        69.16802
517.98        69.13027
518.42         69.0929
518.86        69.05874
519.30         69.0305
519.74        69.01085
520.18        69.00132
520.62        69.00479
521.06        69.02183
521.50        69.04742
521.93        69.08979
522.37        69.14896
522.81        69.22309
523.25        69.30099
523.69        69.35677
524.13        69.35205
524.57        69.28138
525.01         69.1614
525.45        69.01599
525.89        68.88249
526.32        68.77184
526.76         68.6927
527.20        68.64467
527.64        68.63238
528.08        68.65208
528.52        68.69944
528.96        68.76273
529.40        68.82155
529.83        68.86179
530.27        68.89879
530.71        68.91778
531.15        68.91011
531.59        68.87555
532.03        68.81149
532.46        68.73899
532.90        68.71466
533.34        68.74141
533.78        68.81064
534.22        68.87372
534.66         68.8549
535.09        68.73569
535.53        68.55978
535.97        68.38467
536.41        68.31683
536.85        68.37788
537.28        68.53703
537.72        68.71963
538.16        68.79627
538.60        68.74001
539.04        68.60343
539.47        68.43536
539.91        68.36427
540.35        68.39984
540.79        68.49014
541.22        68.56181
541.66        68.65437
542.10        68.51265
542.54        68.36029
542.97         68.1858
543.41        68.11961
543.85        68.17122
544.29        68.30783
544.72        68.45845
545.16        68.54362
545.60        68.52729
546.04         68.4341
546.47        68.31454
546.91          68.261
547.35        68.28564
547.79        68.35817
548.22        68.41702
548.66        68.40443
549.10        68.31382
549.53        68.26109
549.97        68.26762
550.41        68.26021
550.84        68.23334
551.28         68.2804
551.72        68.37538
552.15        68.32611
552.59        68.11742
553.03         68.2222
553.46        67.92229
553.90        67.93645
554.34        68.02422
554.77        68.27676
555.21        68.61651
555.65        68.45803
556.08        68.46131
556.52         68.2569
556.96        68.09976
557.39         68.0471
557.83        68.10538
558.27         68.1007
558.70        68.02067
559.14        67.99703
559.57        68.01024
560.01        68.03426
560.45        68.03708
560.88        67.96916
561.32        67.91467
561.75        67.89659
562.19        67.94331
562.63        68.11305
563.06        68.29607
563.50        68.13056
563.93        67.71423
564.37        67.58614
564.80         67.7532
565.24        68.01584
565.68        68.29838
566.11        68.32471
566.55        68.48445
566.98        68.48199
567.42        68.45854
567.85         68.3449
568.29        68.23824
568.72        68.13126
569.16        68.07948
569.60        68.20761
570.03        68.47562
570.47        68.35324
570.90        68.65869
571.34         68.8875
571.77        68.93382
572.21        68.55377
572.64        68.91373
573.08        68.22398
573.51         68.3392
573.95        68.53304
574.38        69.14042
574.82        68.62717
