SpectraSmart Spectrum 2.9.0.0
--------- Device Information -----------
Spectrum Name :  反射率_0
Saving Time :  2024/04/28 00:10:09
Spectro-Module Model Name : SE2030-DUVN
Spectro-Module Serial Number : OS361AC55029948
Wavelength Start : 200
Wavelength End : 1025
Wavelength Unit : Wavelength(nm)
Spectrum Unit : Reflectance(%)
-----------Spectrum Setting ------------
Integration Time : 20ms
Average : 10
Boxcar : 0
Background removal :  enabled
linearity correction :  enabled
SC :  disabled
Intensity correction :  disabled
DWT denoise :  enabled
savitzky-golay :  disabled
FFT :  disabled
Running average :  disabled
Kalman :  disabled
High pass :  disabled
---------------BEGIN--------------------
Wavelength(nm)             Reflectance(%)
200.29               0
200.75        80.39217
201.21        89.26245
201.67        91.04076
202.13        86.81651
202.58        79.10167
203.04        69.01353
203.50        62.23516
203.96        67.09655
204.42        81.32119
204.88        98.76502
205.34        113.7059
205.80        121.7499
206.26         123.005
206.72        118.3278
207.18         105.217
207.64        87.42055
208.10         76.4782
208.55        73.87651
209.01        73.56615
209.47        70.84657
209.93        63.39898
210.39        45.59934
210.85       -5.158513
211.31       -57.94989
211.77         21.8409
212.23        68.06902
212.69        83.88049
213.14        90.26272
213.60        93.04366
214.06        94.98582
214.52        94.55984
214.98        86.88434
215.44        75.48553
215.90        66.57588
216.36        62.77332
216.81        64.07195
217.27        68.64855
217.73        75.74839
218.19        83.18401
218.65        86.78596
219.11        85.14373
219.57        79.18924
220.02        69.84103
220.48        61.78435
220.94        57.71832
221.40        56.58652
221.86        58.19049
222.32        62.09492
222.77        67.13932
223.23         72.6129
223.69        76.91076
224.15        78.21004
224.61         76.5601
225.06        72.50356
225.52        67.28075
225.98        63.45498
226.44        62.05217
226.90        61.95258
227.36        62.33042
227.81        62.42114
228.27        62.07803
228.73        61.48114
229.19        60.32663
229.65         58.1246
230.10         54.9722
230.56        51.51085
231.02        48.39508
231.48        46.56214
231.93        46.06693
232.39         46.6454
232.85        48.01702
233.31        49.81668
233.77        51.80008
234.22        54.05442
234.68        56.08627
235.14        57.37934
235.60        57.91806
236.05        57.69421
236.51        57.45286
236.97        58.70581
237.43        61.80267
237.88        66.31279
238.34        70.57714
238.80        73.23483
239.26        74.07542
239.71        73.12778
240.17        70.39965
240.63        68.94451
241.08        71.31577
241.54         75.2072
242.00        78.20531
242.46        79.28564
242.91        78.73573
243.37        76.15315
243.83        70.40405
244.28        63.59993
244.74        64.54002
245.20        72.71795
245.66        79.41447
246.11        81.61279
246.57        80.43748
247.03        76.00842
247.48        69.35137
247.94        68.27567
248.40        78.11182
248.85        93.41523
249.31        105.7581
249.77        108.8236
250.22        105.0461
250.68          98.423
251.14        93.01346
251.59        92.41636
252.05        97.00378
252.51        106.4899
252.96        118.7661
253.42        123.6269
253.88        115.8434
254.33        102.6294
254.79        91.90051
255.25        86.35969
255.70        84.44047
256.16        84.52221
256.62        85.69802
257.07        87.27271
257.53        89.05334
257.99        90.47249
258.44        90.60097
258.90        89.18717
259.35        86.17894
259.81        82.71795
260.27        79.29867
260.72        76.62151
261.18        75.15244
261.63        74.16303
262.09        73.60706
262.55        72.92627
263.00        71.92603
263.46        70.92397
263.91        69.86024
264.37        69.10333
264.83        68.56342
265.28        68.06927
265.74        67.53933
266.19        66.57866
266.65        65.25975
267.11        63.63894
267.56        61.91637
268.02        60.52611
268.47        59.51558
268.93        58.80204
269.38        58.17294
269.84        57.33315
270.30        56.20521
270.75        54.89167
271.21        53.55882
271.66        52.39169
272.12        51.46365
272.57        50.65352
273.03        49.90127
273.48        49.02693
273.94        48.05974
274.39        47.01812
274.85        46.02606
275.31        45.13687
275.76        44.34224
276.22        43.66145
276.67        43.00941
277.13         42.4027
277.58        41.76987
278.04        41.17325
278.49        40.56171
278.95        40.00254
279.40        39.43572
279.86        38.91453
280.31         38.3755
280.77        37.87639
281.22         37.3739
281.68        36.92791
282.13        36.49699
282.59        36.09935
283.04        35.70474
283.50        35.33375
283.95        34.99494
284.41        34.76066
284.86        34.61209
285.32        34.55579
285.77         34.5048
286.22        34.38517
286.68         34.2051
287.13        33.95607
287.59        33.73621
288.04        33.60839
288.50        33.61819
288.95        33.69373
289.41        33.81192
289.86         33.8768
290.32        33.89967
290.77        33.91502
291.22        33.95258
291.68        34.04038
292.13        34.19918
292.59        34.46031
293.04        34.88506
293.50          35.597
293.95         36.5967
294.40        37.85048
294.86        39.26908
295.31        40.70119
295.77        42.10386
296.22        43.48094
296.68        44.86971
297.13        46.30313
297.58        47.78827
298.04        49.30902
298.49        50.81992
298.95         52.3147
299.40        53.79973
299.85        55.30739
300.31        56.93121
300.76        58.74223
301.21        60.73884
301.67        62.89195
302.12        65.02383
302.58        66.97776
303.03        68.68385
303.48        70.21299
303.94        71.74979
304.39        73.48022
304.84        75.46686
305.30        77.65132
305.75        79.81178
306.20        81.71409
306.66        83.33544
307.11        84.71136
307.57         86.0405
308.02        87.49821
308.47        89.13747
308.93        90.87412
309.38        92.53277
309.83        93.96312
310.29        95.15194
310.74         96.1469
311.19        97.02329
311.65        97.86839
312.10        98.68394
312.55        99.44173
313.00        100.1804
313.46        100.9728
313.91        101.8056
314.36        102.6839
314.82        103.4982
315.27        104.0575
315.72        104.3343
316.18        104.4065
316.63        104.4146
317.08        104.6248
317.53        105.0993
317.99        105.7494
318.44        106.4611
318.89        107.0185
319.35        107.3571
319.80        107.5587
320.25        107.6797
320.70        107.8185
321.16        108.0021
321.61        108.2071
322.06        108.4413
322.51        108.7363
322.97         109.068
323.42        109.4694
323.87        109.8554
324.32        110.0997
324.78        110.1623
325.23        110.1213
325.68         110.046
326.13        110.0876
326.59        110.2653
327.04        110.5852
327.49        110.9806
327.94         111.375
328.39        111.7358
328.85        112.0516
329.30        112.3815
329.75        112.6577
330.20        112.8764
330.66        113.0094
331.11        113.1631
331.56        113.3953
332.01        113.7356
332.46        114.1683
332.92        114.6091
333.37        115.0659
333.82        115.4607
334.27        115.8066
334.72        116.1301
335.17        116.4786
335.63        116.8428
336.08        117.2724
336.53        117.7098
336.98        118.1076
337.43        118.4619
337.88        118.7915
338.34        119.1454
338.79        119.6597
339.24        120.3287
339.69        121.1022
340.14        121.8823
340.59        122.5115
341.05        122.9506
341.50        123.2637
341.95        123.4952
342.40        123.7365
342.85         124.027
343.30         124.328
343.75         124.684
344.20        125.1638
344.66        125.7656
345.11        126.4707
345.56        127.1322
346.01        127.5078
346.46        127.5577
346.91        127.3519
347.36        127.0984
347.81         127.124
348.26        127.4923
348.72        128.1025
349.17        128.7408
349.62         129.086
350.07        129.0552
350.52        128.7558
350.97        128.3517
351.42        128.1025
351.87        128.0793
352.32        128.1921
352.77        128.3295
353.22        128.3268
353.67        128.1325
354.13         127.809
354.58        127.3892
355.03        126.9862
355.48        126.6246
355.93        126.2664
356.38        125.8487
356.83         125.277
357.28        124.5461
357.73        123.7169
358.18        122.8713
358.63        122.1227
359.08        121.5075
359.53        120.9944
359.98        120.5494
360.43        120.1219
360.88        119.6737
361.33        119.1884
361.78        118.6587
362.23        118.0689
362.68        117.4101
363.13        116.7069
363.58        115.9101
364.03        114.8771
364.48        113.7397
364.93        112.4598
365.38        111.2237
365.83        110.2626
366.28        109.6165
366.73        109.2051
367.18        108.8732
367.63         108.367
368.08        107.6158
368.53        106.7009
368.98        105.7021
369.43        104.7505
369.88        103.9022
370.33        103.1185
370.78        102.4123
371.23        101.8095
371.68        101.2982
372.13        100.8656
372.58         100.462
373.03        99.99916
373.48        99.44604
373.93        98.81885
374.38        98.11967
374.83        97.35792
375.28        96.55398
375.72        95.70253
376.17        94.88858
376.62        94.17163
377.07        93.56874
377.52        93.05483
377.97        92.60558
378.42        92.17897
378.87        91.75072
379.32        91.32904
379.77         90.8776
380.22         90.3379
380.67        89.70563
381.11        89.00567
381.56        88.29938
382.01        87.70517
382.46        87.26867
382.91        86.97061
383.36        86.76428
383.81         86.5693
384.26         86.3494
384.71        86.10593
385.15        85.84515
385.60        85.64068
386.05        85.47095
386.50        85.31047
386.95        85.08332
387.40        84.68462
387.85        84.12408
388.29        83.42087
388.74        82.78217
389.19        82.29693
389.64        81.97716
390.09          81.756
390.54        81.58755
390.98        81.37909
391.43        81.14868
391.88        80.91453
392.33        80.60998
392.78        80.21688
393.23        79.77202
393.67        79.09763
394.12        78.37241
394.57        78.43461
395.02        78.07587
395.47        77.96378
395.91        77.72594
396.36        77.54627
396.81        77.41641
397.26        77.24236
397.71        77.05737
398.15        76.88752
398.60        76.80199
399.05         76.7411
399.50        76.70058
399.95        76.56446
400.39        76.35742
400.84        76.36052
401.29        76.47796
401.74        76.01544
402.18        75.13112
402.63        74.79522
403.08        75.00165
403.53        74.91025
403.97        74.50539
404.42        74.31516
404.87        74.30528
405.32        74.26453
405.76        74.17435
406.21        73.92067
406.66        73.60191
407.11        73.75941
407.55        74.24453
408.00         74.1294
408.45        73.44354
408.90        72.83863
409.34        72.48264
409.79        72.43316
410.24        72.58514
410.68        72.55595
411.13        72.30736
411.58         72.1249
412.03        72.03983
412.47        71.96776
412.92        71.89172
413.37         71.8506
413.81         71.8329
414.26        71.87493
414.71         71.9554
415.15        72.08476
415.60        72.19192
416.05        72.21877
416.49        72.15784
416.94        72.01507
417.39        71.85789
417.83        71.79406
418.28        71.83334
418.73        71.91801
419.17         72.0032
419.62        72.02039
420.07        71.96655
420.51        71.88519
420.96         71.7604
421.41        71.59798
421.85        71.40149
422.30        70.97685
422.74        70.50426
423.19          70.905
423.64        71.94972
424.08         72.2724
424.53        71.75767
424.98        71.63961
425.42        71.97692
425.87        71.81622
426.31        71.28436
426.76        71.38268
427.21        71.96312
427.65        71.87092
428.10        71.20916
428.54        71.03535
428.99        71.41054
429.44        71.82245
429.88        72.09491
430.33        72.10892
430.77         71.8657
431.22        71.74033
431.66        71.78163
432.11        71.98151
432.56        72.35035
433.00         72.5268
433.45        72.31113
433.89        72.46671
434.34        72.88791
434.78        71.80267
435.23        70.78482
435.67        70.90585
436.12         72.3563
436.57        72.76434
437.01        72.15663
437.46        72.28179
437.90        72.34309
438.35        73.42138
438.79         72.7677
439.24        72.79393
439.68        72.81631
440.13        72.85636
440.57        72.89869
441.02        73.11232
441.46        73.38367
441.91        73.15821
442.35        72.59397
442.80        72.78978
443.24        73.58462
443.69        73.84064
444.13        73.51559
444.58        73.49667
445.02         73.7588
445.47        73.76772
445.91        73.72703
446.36        73.66036
446.80        73.59933
447.24        73.87762
447.69        73.74355
448.13        73.85181
448.58        73.93642
449.02        73.82671
449.47        73.58641
449.91        73.46272
450.36        73.50507
450.80        73.54412
451.25        73.58118
451.69        73.65632
452.13        73.74467
452.58        73.77661
453.02        73.73228
453.47        73.61944
453.91        73.42834
454.36        73.25573
454.80        73.06897
455.24        72.66464
455.69        72.20554
456.13        72.00844
456.58        72.09033
457.02        72.31033
457.46        72.43203
457.91        72.21098
458.35        71.92728
458.79        71.72991
459.24        71.73453
459.68        71.62846
460.13         71.4137
460.57        71.39525
461.01        70.99004
461.46        70.81847
461.90        70.73797
462.34        70.30663
462.79        70.86398
463.23        70.73676
463.68        70.40879
464.12        70.40942
464.56        70.69757
465.01        70.84441
465.45        70.68839
465.89        70.51411
466.34        70.41014
466.78         70.1784
467.22        69.48473
467.67        70.31269
468.11        69.66544
468.55        69.58606
468.99        69.25658
469.44        69.05692
469.88        68.99171
470.32        68.89782
470.77        68.79703
471.21        68.74817
471.65        68.74407
472.10        68.77068
472.54        68.78271
472.98        68.75711
473.42        68.68701
473.87        68.57272
474.31        68.41023
474.75        68.34998
475.20        68.37846
475.64        68.30621
476.08         68.0923
476.52        68.04111
476.97        68.19622
477.41        67.79842
477.85        67.61187
478.29        67.97207
478.74        68.09713
479.18        67.54581
479.62        67.82944
480.06        67.72462
480.50        67.72652
480.95        67.84109
481.39        68.03841
481.83        67.67287
482.27        67.87772
482.72        67.62605
483.16        67.63765
483.60        67.55128
484.04        67.44697
484.48        67.48217
484.93        67.87649
485.37        67.60688
485.81        68.12232
486.25        68.76981
486.69        69.96714
487.14        68.77094
487.58        67.76463
488.02        67.97013
488.46        68.08676
488.90        68.05337
489.34        67.55074
489.79         66.4466
490.23        67.30045
490.67        67.23678
491.11        66.98236
491.55        66.78265
491.99        66.68719
492.43        66.63859
492.88         66.6191
493.32        66.66023
493.76        66.71593
494.20        66.79424
494.64        66.89926
495.08        66.91602
495.52        66.87064
495.96        67.07578
496.41        67.42603
496.85        67.24845
497.29        66.65344
497.73        66.59116
498.17        66.91127
498.61        66.99506
499.05        66.53645
499.49        66.52516
499.93         66.8344
500.37        66.75647
500.82        66.36492
501.26        66.20543
501.70        67.10258
502.14        66.55098
502.58        67.09456
503.02        67.10612
503.46        67.01154
503.90        66.75928
504.34        66.55431
504.78        66.40921
505.22        66.37376
505.66        66.29245
506.10        66.22171
506.54        66.34547
506.98        66.57069
507.42        66.91472
507.86        66.86575
508.30        66.65549
508.74        66.82909
509.18        66.68677
509.62        66.47321
510.06        66.32961
510.50         66.2922
510.94        66.30827
511.38        66.34849
511.82        66.38012
512.26        66.38403
512.70        66.37723
513.14        66.36515
513.58        66.32642
514.02        66.26031
514.46        66.21703
514.90        66.21164
515.34        66.03639
515.78         66.0775
516.22        66.02717
516.66        66.01115
517.10        66.03624
517.54         66.1025
517.98        66.19795
518.42        66.28626
518.86         66.3205
519.30        66.28802
519.74        66.20081
520.18        66.09348
520.62        66.02058
521.06        65.99897
521.50         66.0195
521.93        66.05576
522.37        66.05042
522.81         65.9967
523.25         65.9059
523.69        65.82095
524.13        65.80762
524.57         65.8741
525.01        65.99754
525.45        66.11102
525.89        66.10965
526.32        65.97174
526.76        65.74979
527.20        65.51885
527.64         65.4066
528.08        65.44109
528.52        65.57343
528.96        65.74633
529.40         65.8698
529.83        65.90778
530.27        65.90349
530.71        65.85384
531.15        65.76225
531.59        65.64199
532.03        65.49065
532.46        65.34679
532.90        65.29733
533.34        65.34917
533.78        65.47946
534.22        65.62875
534.66         65.7028
535.09        65.67175
535.53        65.58163
535.97         65.4649
536.41        65.38947
536.85        65.37646
537.28        65.40878
537.72        65.46249
538.16         65.4919
538.60        65.48656
539.04        65.47253
539.47        65.45495
539.91        65.47609
540.35        65.52509
540.79         65.6047
541.22        65.67052
541.66        65.66257
542.10        65.57014
542.54        65.41299
542.97        65.25179
543.41        65.21754
543.85        65.31641
544.29        65.51237
544.72        65.70444
545.16        65.76839
545.60        65.66183
546.04        65.42712
546.47        65.15401
546.91        64.98907
547.35        64.96043
547.79        65.04974
548.22        65.17072
548.66        65.15517
549.10        65.01862
549.53         65.0429
549.97        65.21874
550.41        65.27387
550.84        65.19372
551.28        65.17557
551.72        65.25124
552.15        65.13645
552.59        65.25782
553.03        65.29975
553.46        65.30599
553.90        65.31611
554.34         65.3003
554.77        65.27872
555.21        65.23204
555.65        65.15092
556.08        64.98248
556.52         64.8838
556.96        64.84819
557.39        64.95642
557.83         65.1525
558.27        65.14285
558.70        64.95806
559.14        64.88821
559.57        64.92987
560.01        65.00517
560.45        65.04956
560.88        64.91106
561.32        64.71462
561.75        64.70224
562.19        64.89347
562.63        65.13667
563.06        65.32602
563.50        65.26739
563.93          65.008
564.37        64.92292
564.80         65.0183
565.24        65.12699
565.68        65.19496
566.11        65.23438
566.55        65.26179
566.98        65.21468
567.42        65.15076
567.85        65.22717
568.29        65.44396
568.72        65.42625
569.16        65.26277
569.60        65.35517
570.03        65.70663
570.47         65.6277
570.90        65.94702
571.34        65.98669
571.77        66.18794
572.21        65.92428
572.64        66.29444
573.08        65.76651
573.51        65.55216
573.95        65.81222
574.38        66.22672
574.82         66.3041
