SpectraSmart Spectrum 2.9.0.0
--------- Device Information -----------
Spectrum Name :  反射率_0
Saving Time :  2024/04/27 23:48:17
Spectro-Module Model Name : SE2030-DUVN
Spectro-Module Serial Number : OS361AC55029948
Wavelength Start : 200
Wavelength End : 1025
Wavelength Unit : Wavelength(nm)
Spectrum Unit : Reflectance(%)
-----------Spectrum Setting ------------
Integration Time : 20ms
Average : 10
Boxcar : 0
Background removal :  enabled
linearity correction :  enabled
SC :  disabled
Intensity correction :  disabled
DWT denoise :  enabled
savitzky-golay :  disabled
FFT :  disabled
Running average :  disabled
Kalman :  disabled
High pass :  disabled
---------------BEGIN--------------------
Wavelength(nm)             Reflectance(%)
200.29               0
200.75        40.69091
201.21        53.32472
201.67        60.55808
202.13        60.17574
202.58        54.61309
203.04        46.20223
203.50        38.39579
203.96        36.27795
204.42        39.68387
204.88        45.66761
205.34        50.83031
205.80        52.19685
206.26        49.04781
206.72        40.21454
207.18        25.57741
207.64        15.98471
208.10        20.38379
208.55        32.43789
209.01         40.2045
209.47        39.65596
209.93        29.65316
210.39      -0.6096178
210.85       -91.34494
211.31       -180.8351
211.77       -33.15653
212.23        50.53171
212.69        77.32408
213.14        83.71532
213.60        80.00437
214.06        67.84205
214.52        43.35719
214.98        18.49536
215.44        15.13222
215.90        23.16979
216.36         33.9773
216.81        44.77157
217.27        55.51453
217.73         68.2819
218.19         79.5239
218.65        82.03548
219.11        73.67491
219.57        54.83199
220.02        31.18964
220.48        19.71854
220.94        25.95567
221.40        42.84407
221.86        60.27645
222.32        68.12231
222.77        66.62725
223.23        60.65077
223.69        53.65446
224.15        48.73597
224.61        46.36236
225.06        44.94801
225.52        44.82413
225.98        46.25407
226.44        48.46282
226.90        50.83853
227.36        52.56567
227.81        52.96063
228.27        52.15313
228.73        50.32122
229.19        47.57859
229.65        44.46964
230.10        41.45007
230.56        38.86671
231.02        36.91901
231.48        35.85683
231.93         35.5745
232.39        36.03922
232.85        37.05326
233.31        38.32783
233.77        39.72023
234.22        41.33529
234.68         42.7697
235.14        43.69136
235.60        44.08758
236.05         43.8446
236.51        43.74589
236.97        45.24966
237.43        48.64441
237.88        53.55902
238.34        58.03799
238.80        60.27465
239.26        59.83813
239.71        56.16703
240.17        49.50889
240.63        46.22808
241.08        51.58931
241.54           60.94
242.00        68.29507
242.46         71.2501
242.91        70.53026
243.37        65.50352
243.83        53.83669
244.28        40.43983
244.74        43.60995
245.20        60.50679
245.66        73.50132
246.11        76.65565
246.57        71.85696
247.03        59.10863
247.48        37.50696
247.94        19.31451
248.40        20.19443
248.85        33.96385
249.31        51.05226
249.77        63.43011
250.22        70.21984
250.68        74.08233
251.14         76.3035
251.59        78.02878
252.05        79.93462
252.51        81.60812
252.96        82.44836
253.42        81.85078
253.88        79.54153
254.33        76.96388
254.79        74.96147
255.25        72.80032
255.70        70.37766
256.16        68.41171
256.62        67.53257
257.07        68.47538
257.53        70.86882
257.99         73.3601
258.44        74.78032
258.90        74.62765
259.35        72.83858
259.81         70.4961
260.27        67.95581
260.72        65.70875
261.18        64.20532
261.63        62.89492
262.09        61.88215
262.55         60.8462
263.00        59.63909
263.46        58.50632
263.91        57.31666
264.37        56.26937
264.83        55.31833
265.28        54.40161
265.74        53.57269
266.19        52.66861
266.65        51.75034
267.11        50.80671
267.56        49.86551
268.02        49.08181
268.47        48.43139
268.93        47.87297
269.38         47.3532
269.84        46.82534
270.30        46.24611
270.75        45.61975
271.21        44.88603
271.66        43.90437
272.12        42.70498
272.57        41.31583
273.03        39.93791
273.48        38.79442
273.94        37.99516
274.39        37.42728
274.85        37.00985
275.31        36.53001
275.76        35.91318
276.22        35.25151
276.67        34.55226
277.13        33.93262
277.58        33.35841
278.04        32.83898
278.49        32.29065
278.95         31.7144
279.40        31.06885
279.86        30.45189
280.31        29.86501
280.77        29.42791
281.22        29.11345
281.68        28.91795
282.13        28.79345
282.59        28.73057
283.04        28.68373
283.50        28.66405
283.95        28.61021
284.41        28.47253
284.86        28.23552
285.32        27.95219
285.77        27.66024
286.22        27.45622
286.68        27.37401
287.13         27.3466
287.59        27.38865
288.04        27.44172
288.50        27.51485
288.95        27.59475
289.41         27.6661
289.86        27.65342
290.32        27.58121
290.77        27.47062
291.22        27.40625
291.68        27.50971
292.13        27.79992
292.59        28.26101
293.04        28.84381
293.50        29.49171
293.95        30.17435
294.40        30.92613
294.86        31.75518
295.31        32.66391
295.77        33.66763
296.22        34.74371
296.68        35.91965
297.13        37.20931
297.58        38.60424
298.04        40.08883
298.49         41.6022
298.95        43.09746
299.40        44.56377
299.85        46.01865
300.31        47.53545
300.76        49.17208
301.21        50.92775
301.67        52.77826
302.12        54.58543
302.58        56.22891
303.03        57.66969
303.48        58.98852
303.94        60.35008
304.39        61.91893
304.84        63.75254
305.30        65.79089
305.75         67.8743
306.20        69.84615
306.66        71.67493
307.11        73.36055
307.57        74.98528
308.02        76.55962
308.47        78.11369
308.93        79.63493
309.38        81.06732
309.83        82.42782
310.29        83.74789
310.74        85.02067
311.19        86.28592
311.65        87.57085
312.10         88.8386
312.55        90.07258
313.00        91.25484
313.46        92.37363
313.91        93.40759
314.36        94.37309
314.82          95.242
315.27        95.96477
315.72        96.54225
316.18        97.00967
316.63        97.42113
317.08        97.90267
317.53        98.48271
317.99        99.11736
318.44         99.7635
318.89        100.3185
319.35        100.7517
319.80        101.1128
320.25        101.4072
320.70        101.6523
321.16        101.8574
321.61        102.0301
322.06        102.2306
322.51        102.5692
322.97        103.0427
323.42        103.6558
323.87        104.2746
324.32        104.6939
324.78        104.8498
325.23        104.8371
325.68        104.7643
326.13        104.8475
326.59        105.1218
327.04        105.5668
327.49        106.0798
327.94        106.5265
328.39        106.8616
328.85        107.1041
329.30        107.3385
329.75        107.5458
330.20        107.7466
330.66        107.9052
331.11        108.1315
331.56        108.4934
332.01        109.0121
332.46        109.6604
332.92        110.3267
333.37        110.9627
333.82        111.4675
334.27        111.8577
334.72        112.1535
335.17        112.4013
335.63         112.604
336.08        112.8149
336.53        113.0206
336.98        113.2438
337.43        113.5014
337.88        113.8031
338.34         114.162
338.79        114.6428
339.24        115.2217
339.69        115.8715
340.14        116.5227
340.59        117.0636
341.05        117.4713
341.50        117.7967
341.95        118.0681
342.40        118.3553
342.85        118.6864
343.30        119.0195
343.75        119.4094
344.20        119.9443
344.66        120.6143
345.11        121.3829
345.56        122.0644
346.01         122.356
346.46        122.2218
346.91        121.7815
347.36        121.2861
347.81        121.1242
348.26        121.3868
348.72        121.9501
349.17        122.6407
349.62        123.2002
350.07        123.5243
350.52        123.6771
350.97        123.6884
351.42        123.6041
351.87        123.4584
352.32        123.2443
352.77        122.9675
353.22        122.6521
353.67        122.3108
354.13        121.9497
354.58        121.6089
355.03        121.4049
355.48        121.3323
355.93        121.3495
356.38        121.2783
356.83        120.8403
357.28        120.0003
357.73        118.8669
358.18        117.6591
358.63        116.7162
359.08        116.1272
359.53        115.7949
359.98        115.5802
360.43        115.2586
360.88        114.7541
361.33        114.1258
361.78        113.4379
362.23        112.7873
362.68        112.1981
363.13        111.6362
363.58        111.0417
364.03        110.2829
364.48        109.4316
364.93        108.4778
365.38        107.5194
365.83        106.6648
366.28        105.9387
366.73        105.2956
367.18        104.6973
367.63        104.0824
368.08        103.4267
368.53        102.7591
368.98         102.051
369.43        101.2545
369.88        100.3762
370.33        99.42963
370.78        98.51346
371.23        97.79223
371.68        97.29411
372.13        96.96688
372.58        96.69155
373.03        96.26754
373.48         95.6457
373.93        94.89735
374.38        94.10178
374.83        93.38351
375.28        92.78367
375.72        92.23644
376.17        91.77372
376.62        91.38023
377.07        91.03168
377.52        90.71635
377.97        90.37511
378.42        89.91302
378.87        89.31904
379.32        88.63752
379.77        87.91286
380.22        87.20908
380.67        86.55463
381.11        85.94051
381.56         85.3998
382.01        84.99638
382.46        84.73724
382.91        84.60262
383.36        84.51022
383.81        84.32554
384.26        84.01286
384.71        83.60374
385.15        83.14018
385.60         82.7562
386.05        82.46231
386.50        82.22045
386.95        82.00023
387.40        81.76006
387.85        81.49078
388.29        81.16903
388.74        80.88685
389.19        80.58028
389.64        80.23969
390.09        79.85047
390.54        79.45338
390.98        79.10003
391.43        78.85346
391.88        78.70171
392.33        78.56155
392.78        78.30446
393.23        77.93549
393.67        77.44492
394.12        77.04726
394.57         76.8827
395.02        77.01624
395.47        76.97587
395.91         76.7645
396.36        76.60626
396.81        76.51315
397.26        76.34637
397.71        76.10046
398.15        75.86783
398.60        75.73831
399.05        75.45434
399.50        75.12487
399.95        75.24706
400.39        75.65872
400.84        75.53306
401.29         74.8765
401.74        74.23479
402.18         73.7919
402.63        73.63135
403.08        73.72186
403.53        73.70934
403.97        73.55921
404.42        73.56428
404.87        73.67886
405.32        73.68724
405.76        73.55411
406.21        73.34574
406.66        73.10362
407.11        72.89031
407.55        72.73112
408.00        72.62182
408.45        72.55465
408.90        72.26143
409.34        71.84972
409.79         71.9035
410.24         72.3075
410.68        72.42152
411.13        72.19614
411.58        71.97954
412.03        71.85059
412.47        71.81116
412.92        71.86197
413.37        72.00258
413.81          72.158
414.26        72.27898
414.71        72.32497
415.15        72.33055
415.60        72.27522
416.05        72.19033
416.49        72.09899
416.94        71.98834
417.39        71.88426
417.83        71.82434
418.28         71.8096
418.73        71.81773
419.17        71.85056
419.62        71.91014
420.07        71.99873
420.51        72.11422
420.96        72.20835
421.41        72.22067
421.85        72.12572
422.30        71.80649
422.74        71.40561
423.19        71.65559
423.64        72.38952
424.08        72.58606
424.53        72.14934
424.98        72.02232
425.42        72.26269
425.87        72.13391
426.31        71.75522
426.76        71.96663
427.21         72.6271
427.65        72.70837
428.10        72.26886
428.54        72.19193
428.99        72.52343
429.44        72.91096
429.88        73.17297
430.33        72.94944
430.77         72.3724
431.22        72.27562
431.66        72.62634
432.11        72.85928
432.56        72.99646
433.00        73.08782
433.45        72.93092
433.89        73.11337
434.34        73.77246
434.78        72.08396
435.23        72.90998
435.67        72.88275
436.12        73.55038
436.57        73.65584
437.01        73.46472
437.46        73.28446
437.90        73.57053
438.35        74.63592
438.79        74.35445
439.24        74.54269
439.68        74.55788
440.13        74.22332
440.57        73.74175
441.02        73.97256
441.46        74.74512
441.91        74.96602
442.35        74.60416
442.80        74.65737
443.24        75.05228
443.69        75.16414
444.13        74.97903
444.58        74.89928
445.02         74.9149
445.47         74.9046
445.91        74.85032
446.36        74.79768
446.80        74.73307
447.24        74.64343
447.69        74.58162
448.13        74.65701
448.58         74.8476
449.02        74.95731
449.47        74.98859
449.91        75.05836
450.36        75.18243
450.80         75.2423
451.25        75.27027
451.69        75.35154
452.13        75.47893
452.58        75.56428
453.02        75.58624
453.47        75.55249
453.91        75.45108
454.36        75.38876
454.80        75.31689
455.24        74.98908
455.69        74.56192
456.13        74.36868
456.58        74.47012
457.02        74.67758
457.46        75.00642
457.91        74.82599
458.35        74.50558
458.79        74.26167
459.24        74.22835
459.68        74.07861
460.13        73.85616
460.57        73.66999
461.01        73.91235
461.46        73.58801
461.90        73.69321
462.34        73.97346
462.79        73.92583
463.23        73.86123
463.68         73.6113
464.12        73.32581
464.56         73.1168
465.01        73.30997
465.45        73.67715
465.89        73.71488
466.34        73.45918
466.78        73.13858
467.22        72.89896
467.67        73.04193
468.11        73.35942
468.55        73.34133
468.99         72.9976
469.44        72.94186
469.88        73.19227
470.32        73.37452
470.77        73.40453
471.21        73.34397
471.65        73.17067
472.10        72.89162
472.54         72.5644
472.98        72.31924
473.42        72.19305
473.87         72.1666
474.31        72.16628
474.75        72.20845
475.20        72.22805
475.64        72.14771
476.08        72.00014
476.52        71.93443
476.97        71.93688
477.41        72.21565
477.85        72.08205
478.29        72.31298
478.74        71.89642
479.18        71.74741
479.62        72.13416
480.06        72.20762
480.50        72.13896
480.95        72.04062
481.39        71.85486
481.83         72.1619
482.27        71.82514
482.72        71.64762
483.16        71.74981
483.60        71.56052
484.04        71.56754
484.48        71.61954
484.93        72.07214
485.37        71.75144
485.81        72.24329
486.25        72.95832
486.69        72.58181
487.14        71.79814
487.58        71.54402
488.02        72.53766
488.46        72.16285
488.90        71.90219
489.34         71.8475
489.79        71.34736
490.23        72.15094
490.67        72.02415
491.11        71.52134
491.55        71.29346
491.99        71.38515
492.43        71.39149
492.88        71.28883
493.32        71.32503
493.76        71.45431
494.20        71.56425
494.64        71.65128
495.08        71.65865
495.52        71.61131
495.96        71.76178
496.41        72.03256
496.85        71.88641
497.29         71.4106
497.73        71.41564
498.17        71.75777
498.61        71.85238
499.05        71.63802
499.49        71.60454
499.93        71.74243
500.37        71.64082
500.82         71.3421
501.26        71.10105
501.70        71.74746
502.14        71.01137
502.58        71.61978
503.02        71.64569
503.46        71.53414
503.90        71.45171
504.34        71.35458
504.78        71.34821
505.22        71.40366
505.66        71.38892
506.10        71.31145
506.54        71.36539
506.98        71.56648
507.42        71.51125
507.86        71.73576
508.30        71.75536
508.74        71.72956
509.18        71.65255
509.62        71.55394
510.06         71.4738
510.50        71.42235
510.94        71.39421
511.38        71.38678
511.82        71.39388
512.26        71.40807
512.70        71.43456
513.14        71.46183
513.58        71.44144
514.02        71.36677
514.46        71.30245
514.90        71.28013
515.34        71.10027
515.78         71.1823
516.22        71.18044
516.66        71.21793
517.10        71.28522
517.54        71.37411
517.98        71.47707
518.42        71.55027
518.86        71.53404
519.30        71.42308
519.74        71.24512
520.18        71.05698
520.62        70.94766
521.06        70.94211
521.50         71.0142
521.93         71.1413
522.37        71.26871
522.81        71.37663
523.25        71.47129
523.69        71.53811
524.13        71.55559
524.57        71.52275
525.01         71.4445
525.45        71.34008
525.89        71.24414
526.32        71.16457
526.76        71.11148
527.20        71.08207
527.64         71.0761
528.08        71.09015
528.52         71.1226
528.96        71.16415
529.40        71.19934
529.83        71.21448
530.27        71.22147
530.71        71.21115
531.15        71.18212
531.59        71.13687
532.03         71.0788
532.46        71.00922
532.90        70.95328
533.34         70.9121
533.78         70.8838
534.22        70.86965
534.66        70.86944
535.09         70.8717
535.53        70.89588
535.97        70.92059
536.41         70.9285
536.85        70.91632
537.28        70.89034
537.72        70.86404
538.16        70.85103
538.60        70.85697
539.04        70.88953
539.47        70.91819
539.91        70.93678
540.35        70.92429
540.79         70.9026
541.22        70.86701
541.66        70.81906
542.10        70.76049
542.54        70.69117
542.97        70.62678
543.41        70.63165
543.85        70.69847
544.29        70.81645
544.72        70.92516
545.16        70.96615
545.60        70.90954
546.04        70.76964
546.47        70.60809
546.91        70.52762
547.35        70.54028
547.79        70.64836
548.22        70.76192
548.66        70.70399
549.10        70.50096
549.53        70.44851
549.97        70.56078
550.41        70.61823
550.84        70.61672
551.28        70.68874
551.72        70.80188
552.15        70.84369
552.59        70.81422
553.03        70.70068
553.46        70.53505
553.90        70.47949
554.34        70.54235
554.77        70.59938
555.21        70.61774
555.65        70.76829
556.08        70.86073
556.52        70.63319
556.96        70.18622
557.39        70.08103
557.83        70.34869
558.27        70.58678
558.70        70.70827
559.14        70.80338
559.57        70.82625
560.01        70.74162
560.45        70.58836
560.88        70.48026
561.32         70.4796
561.75         70.4675
562.19        70.46432
562.63        70.51955
563.06        70.55847
563.50        70.54735
563.93        70.17184
564.37        70.15785
564.80        70.36837
565.24        70.56362
565.68        70.67619
566.11        70.75925
566.55        70.82313
566.98        70.79188
567.42        70.70531
567.85        70.66562
568.29        70.74451
568.72        70.69201
569.16        70.53091
569.60        70.84905
570.03        70.87237
570.47        70.65856
570.90        70.90704
571.34         70.8932
571.77        70.86209
572.21        70.84405
572.64        70.91122
573.08        70.54964
573.51        70.14384
573.95        70.67339
574.38        71.11497
574.82        70.70335
