SpectraSmart Spectrum 2.9.0.0
--------- Device Information -----------
Spectrum Name :  反射率_0
Saving Time :  2024/04/27 23:51:30
Spectro-Module Model Name : SE2030-DUVN
Spectro-Module Serial Number : OS361AC55029948
Wavelength Start : 200
Wavelength End : 1025
Wavelength Unit : Wavelength(nm)
Spectrum Unit : Reflectance(%)
-----------Spectrum Setting ------------
Integration Time : 20ms
Average : 10
Boxcar : 0
Background removal :  enabled
linearity correction :  enabled
SC :  disabled
Intensity correction :  disabled
DWT denoise :  enabled
savitzky-golay :  disabled
FFT :  disabled
Running average :  disabled
Kalman :  disabled
High pass :  disabled
---------------BEGIN--------------------
Wavelength(nm)             Reflectance(%)
200.29               0
200.75        40.10281
201.21        54.54306
201.67        65.20488
202.13        68.74531
202.58        67.45647
203.04        63.60825
203.50        60.33772
203.96         61.7319
204.42        67.25447
204.88        74.52821
205.34        80.40456
205.80        82.17013
206.26        79.34937
206.72        70.71364
207.18        56.44156
207.64        48.18893
208.10        54.05009
208.55         66.2804
209.01        73.64621
209.47        71.94586
209.93        59.30109
210.39        22.75108
210.85       -93.03146
211.31        -249.919
211.77       -94.46069
212.23        16.64017
212.69        57.07116
213.14        69.24683
213.60        68.11386
214.06        57.78926
214.52         35.5146
214.98        13.76704
215.44        12.62008
215.90        21.30681
216.36        30.75188
216.81        37.96329
217.27        43.23206
217.73        48.72243
218.19        53.15225
218.65        53.36516
219.11         48.6034
219.57        39.12717
220.02         27.1075
220.48        20.51435
220.94        21.98583
221.40        28.30497
221.86        36.31159
222.32         42.7695
222.77        47.07037
223.23        50.23253
223.69        51.66084
224.15        50.36768
224.61         46.6842
225.06        40.70941
225.52        34.99292
225.98        34.12721
226.44        38.06645
226.90        43.77119
227.36        48.55278
227.81        50.45797
228.27        49.70644
228.73        47.09761
229.19        43.18039
229.65        39.25877
230.10        36.12949
230.56        33.86678
231.02         32.3484
231.48        31.43242
231.93        30.95289
232.39        31.03919
232.85        31.77748
233.31         33.2248
233.77        35.23751
234.22        37.75397
234.68        40.03912
235.14        41.33472
235.60        41.58216
236.05        40.80687
236.51        40.09697
236.97        41.58704
237.43        45.81177
237.88        52.10633
238.34        58.21562
238.80        62.12971
239.26        63.57968
239.71        62.62886
240.17        59.57973
240.63        58.56242
241.08        62.56899
241.54        68.18862
242.00        72.42206
242.46        74.38804
242.91        74.71918
243.37        73.52498
243.83        70.15513
244.28        65.59806
244.74        64.99284
245.20        68.53604
245.66        71.58553
246.11        71.91009
246.57        69.69493
247.03        65.10902
247.48        58.04772
247.94        53.17741
248.40        55.72264
248.85        62.86465
249.31        71.10358
249.77        77.82212
250.22        82.43218
250.68        85.36615
251.14        87.45662
251.59        89.72145
252.05        92.80653
252.51        97.11417
252.96        101.3523
253.42        101.2302
253.88         95.4455
254.33        87.76048
254.79        82.71048
255.25        81.52302
255.70        82.73238
256.16        85.35526
256.62        87.99271
257.07         89.3121
257.53        89.73689
257.99        89.42161
258.44        88.25499
258.90        86.67484
259.35         84.4183
259.81        82.12006
260.27        79.83492
260.72        77.76501
261.18        76.35318
261.63        75.11132
262.09        74.17158
262.55        73.13583
263.00        71.85734
263.46        70.61993
263.91        69.33697
264.37        68.35922
264.83        67.60358
265.28        66.90496
265.74        66.25197
266.19        65.33736
266.65        64.21855
267.11        62.92168
267.56        61.48881
268.02        60.10995
268.47        58.80227
268.93        57.56089
269.38         56.3923
269.84        55.34853
270.30        54.40873
270.75        53.54268
271.21        52.68624
271.66        51.67356
272.12        50.49544
272.57        49.15904
273.03        47.75784
273.48        46.34769
273.94        45.04485
274.39         43.8145
274.85        42.73708
275.31        41.81175
275.76        41.00676
276.22        40.34953
276.67        39.77108
277.13        39.29271
277.58        38.83153
278.04        38.42314
278.49        37.95823
278.95         37.4206
279.40        36.75216
279.86        36.04081
280.31        35.30756
280.77        34.72633
281.22         34.2768
281.68        33.96939
282.13        33.70963
282.59        33.43013
283.04        33.08937
283.50        32.74306
283.95        32.42154
284.41        32.21967
284.86        32.13515
285.32        32.16094
285.77        32.22734
286.22        32.28869
286.68        32.34137
287.13        32.34912
287.59        32.37556
288.04        32.43115
288.50        32.54856
288.95        32.68809
289.41        32.80997
289.86        32.79737
290.32        32.67777
290.77        32.49473
291.22        32.38082
291.68        32.51916
292.13        32.94217
292.59        33.62564
293.04        34.47385
293.50        35.36153
293.95         36.2396
294.40        37.15541
294.86        38.17645
295.31         39.3972
295.77        40.84565
296.22        42.46561
296.68        44.18503
297.13        45.85805
297.58        47.44507
298.04        48.98393
298.49        50.52993
298.95        52.22806
299.40         54.0994
299.85        56.09822
300.31         58.1874
300.76        60.24236
301.21        62.21482
301.67         64.1498
302.12        65.97803
302.58         67.6991
303.03        69.30359
303.48        70.84627
303.94         72.4723
304.39        74.30402
304.84        76.39088
305.30        78.68678
305.75        81.03856
306.20        83.31307
306.66        85.47678
307.11        87.50552
307.57        89.44106
308.02         91.2198
308.47        92.86208
308.93        94.37849
309.38        95.76133
309.83        97.12129
310.29        98.50995
310.74        99.89095
311.19        101.2508
311.65        102.5273
312.10        103.6631
312.55        104.6767
313.00        105.6113
313.46         106.545
313.91        107.4778
314.36        108.4078
314.82        109.2605
315.27        109.9123
315.72         110.349
316.18        110.6324
316.63        110.8711
317.08        111.2763
317.53        111.8921
317.99         112.644
318.44        113.4227
318.89        114.0202
319.35        114.3787
319.80         114.576
320.25         114.682
320.70        114.8194
321.16        115.0212
321.61        115.2644
322.06         115.545
322.51        115.8702
322.97         116.212
323.42        116.6181
323.87        117.0159
324.32        117.3016
324.78        117.4391
325.23        117.4954
325.68        117.5381
326.13        117.7169
326.59        118.0436
327.04        118.5301
327.49         119.078
327.94        119.5625
328.39         119.945
328.85        120.2208
329.30        120.5113
329.75        120.8461
330.20        121.2395
330.66        121.6227
331.11        122.0355
331.56         122.418
332.01        122.7685
332.46        123.1138
332.92        123.3974
333.37        123.6908
333.82        123.9493
334.27        124.1758
334.72        124.4418
335.17        124.8657
335.63        125.4385
336.08        126.1873
336.53        126.9647
336.98        127.5744
337.43        127.9597
337.88        128.1607
338.34        128.2769
338.79        128.5441
339.24        128.9986
339.69        129.5879
340.14        130.1905
340.59        130.6066
341.05        130.8033
341.50        130.8756
341.95        130.9556
342.40        131.2609
342.85          131.84
343.30        132.5983
343.75        133.4359
344.20        134.1973
344.66        134.8168
345.11        135.3244
345.56        135.6938
346.01        135.8828
346.46        135.9112
346.91        135.8051
347.36        135.6704
347.81        135.6742
348.26        135.8536
348.72        136.1639
349.17         136.528
349.62        136.8386
350.07        137.0419
350.52         137.158
350.97        137.1715
351.42        137.0585
351.87        136.8343
352.32        136.5228
352.77        136.1623
353.22        135.8189
353.67        135.5113
354.13        135.2219
354.58         134.952
355.03        134.7666
355.48        134.6421
355.93        134.5452
356.38        134.3299
356.83        133.7673
357.28        132.8376
357.73        131.6473
358.18        130.3765
358.63        129.3012
359.08        128.5094
359.53        127.9307
359.98        127.5042
360.43        127.1278
360.88        126.7371
361.33        126.3328
361.78        125.8813
362.23         125.319
362.68        124.6237
363.13        123.8226
363.58        122.9013
364.03        121.7504
364.48        120.5687
364.93        119.2667
365.38        118.0047
365.83        116.9445
366.28        116.1192
366.73        115.4762
367.18        114.9259
367.63        114.3163
368.08        113.5981
368.53        112.8189
368.98        111.9879
369.43        111.1241
369.88        110.2504
370.33         109.356
370.78        108.5069
371.23        107.8175
371.68        107.3021
372.13        106.9252
372.58          106.59
373.03        106.1331
373.48        105.5087
373.93        104.7608
374.38        103.9531
374.83        103.1872
375.28        102.4981
375.72         101.842
376.17        101.2311
376.62        100.6133
377.07        99.97598
377.52        99.32487
377.97        98.69485
378.42        98.13612
378.87        97.65238
379.32        97.23294
379.77        96.79444
380.22        96.20502
380.67        95.45087
381.11        94.58448
381.56        93.73366
382.01        93.12499
382.46        92.81523
382.91        92.73006
383.36         92.7387
383.81        92.63264
384.26        92.34873
384.71        91.94714
385.15        91.46941
385.60        91.04619
386.05        90.69296
386.50        90.36887
386.95        90.06279
387.40          89.771
387.85        89.48802
388.29        89.16761
388.74        88.89321
389.19        88.57069
389.64        88.17888
390.09        87.70889
390.54        87.19724
390.98         86.6901
391.43        86.27525
391.88        85.95486
392.33        85.66312
392.78        85.34042
393.23        85.00351
393.67        84.50033
394.12        84.05863
394.57        84.16812
395.02        84.55323
395.47         84.4538
395.91        83.86565
396.36        83.56841
396.81        83.60565
397.26        83.52834
397.71        83.31303
398.15         83.1164
398.60        83.01605
399.05        82.81211
399.50        82.56943
399.95        82.53249
400.39        82.61266
400.84        82.44999
401.29        82.03833
401.74        81.39912
402.18          80.756
402.63        80.71259
403.08        81.18111
403.53        81.32056
403.97        81.06086
404.42        80.93555
404.87        80.91827
405.32        80.77689
405.76        80.50516
406.21        80.08516
406.66        79.62061
407.11        79.49402
407.55        79.65575
408.00         79.5525
408.45        79.18616
408.90        78.85555
409.34        78.63545
409.79        78.61411
410.24         78.7393
410.68         78.7917
411.13        78.74281
411.58        78.74976
412.03        78.79892
412.47        78.79045
412.92        78.68922
413.37        78.55112
413.81        78.38503
414.26        78.26102
414.71        78.17225
415.15        78.12356
415.60        78.07961
416.05        78.04839
416.49        78.03226
416.94        78.02051
417.39        78.00726
417.83        77.97784
418.28        77.91962
418.73        77.81578
419.17        77.69038
419.62        77.59013
420.07        77.53799
420.51         77.5287
420.96        77.51636
421.41        77.43267
421.85        77.24651
422.30        76.86255
422.74        76.42563
423.19        76.63161
423.64        77.33208
424.08        77.61063
424.53        77.30508
424.98          77.194
425.42        77.32042
425.87        76.93946
426.31        76.28449
426.76        76.52039
427.21        77.45595
427.65        77.58794
428.10        76.95552
428.54        76.82047
428.99        77.21941
429.44        77.55057
429.88        77.68598
430.33        77.44133
430.77        76.91612
431.22        76.98767
431.66         77.5427
432.11        77.48914
432.56        76.94364
433.00        77.06281
433.45        77.57971
433.89        77.58291
434.34        77.24857
434.78        75.99692
435.23        76.36893
435.67        76.95138
436.12        77.72713
436.57        77.76769
437.01        77.14351
437.46        76.80914
437.90        76.98994
438.35        78.02107
438.79        77.50047
439.24        77.62006
439.68        77.70625
440.13        77.77283
440.57        77.79578
441.02        78.01339
441.46         78.2896
441.91         77.9362
442.35        77.13237
442.80        77.21699
443.24        78.03814
443.69        78.15533
444.13        77.50134
444.58        77.98503
445.02        77.90482
445.47        78.13644
445.91        78.13416
446.36        78.15476
446.80        78.17892
447.24        78.10101
447.69        78.01424
448.13        78.18017
448.58        78.52656
449.02        78.57417
449.47        78.38047
449.91        78.38166
450.36        78.61059
450.80         78.7759
451.25        78.85818
451.69        78.93358
452.13        78.97737
452.58        78.90057
453.02        78.72826
453.47        78.54533
453.91        78.36102
454.36        78.26713
454.80        78.16634
455.24        77.76085
455.69        77.21355
456.13        76.81729
456.58        76.68021
457.02        76.96702
457.46        77.35818
457.91        77.14017
458.35        76.65662
458.79         76.4163
459.24        76.53565
459.68        76.58952
460.13        76.56944
460.57        76.30597
461.01        76.14425
461.46        75.90398
461.90        75.65316
462.34        75.39851
462.79        75.95712
463.23        75.95958
463.68         75.6835
464.12        75.43122
464.56        75.31262
465.01        75.53055
465.45        75.80601
465.89        75.68798
466.34         75.2851
466.78        74.80061
467.22        74.32069
467.67        74.97456
468.11         74.7589
468.55        74.81657
468.99        74.58508
469.44        74.54598
469.88        74.68999
470.32         74.7271
470.77         74.6405
471.21         74.5298
471.65        74.40038
472.10        74.24593
472.54        74.06015
472.98        73.91588
473.42        73.83586
473.87        73.70722
474.31        73.54589
474.75        73.75082
475.20        74.16403
475.64        74.10607
476.08        73.63487
476.52        73.43208
476.97        73.52514
477.41        73.63522
477.85        73.34447
478.29        73.40006
478.74        73.67293
479.18         72.7916
479.62         73.3923
480.06        73.31822
480.50        73.38778
480.95        73.36776
481.39        73.15304
481.83        73.65333
482.27        73.47912
482.72        73.00394
483.16        73.25114
483.60        73.13783
484.04        73.07366
484.48        73.03471
484.93        73.08611
485.37        73.16461
485.81        73.68927
486.25        73.68369
486.69         73.2045
487.14        72.39943
487.58        73.01007
488.02        72.95419
488.46        73.22805
488.90        73.69788
489.34        73.28187
489.79        72.15592
490.23        73.10439
490.67         73.0588
491.11        72.89815
491.55        72.64987
491.99        72.42425
492.43          72.372
492.88        72.47685
493.32        72.64616
493.76        72.78625
494.20         72.8852
494.64        72.93682
495.08        72.86685
495.52         72.7226
495.96        72.79704
496.41        73.03471
496.85        72.87494
497.29        72.41057
497.73        72.53647
498.17        73.04523
498.61        73.11607
499.05        72.69643
499.49        72.52851
499.93        72.68453
500.37        72.64771
500.82        72.40865
501.26        72.61956
501.70        73.30154
502.14        72.51372
502.58        72.88174
503.02        72.77145
503.46        72.66739
503.90        72.56825
504.34        72.41488
504.78        72.38101
505.22        72.44127
505.66        72.37946
506.10        72.23994
506.54        72.42972
506.98        72.89423
507.42        72.85873
507.86        72.88519
508.30        72.81726
508.74        72.83411
509.18        72.73073
509.62        72.54237
510.06        72.41483
510.50        72.36416
510.94         72.3578
511.38        72.37856
511.82        72.39378
512.26        72.39111
512.70        72.39185
513.14        72.39432
513.58        72.36397
514.02        72.29779
514.46        72.24918
514.90        72.25842
515.34        72.13615
515.78        72.30484
516.22        72.41413
516.66        72.54548
517.10        72.61975
517.54        72.62155
517.98        72.56357
518.42        72.47746
518.86        72.42786
519.30        72.43012
519.74        72.46595
520.18        72.50485
520.62        72.49844
521.06        72.43879
521.50        72.34811
521.93        72.26098
522.37        72.21564
522.81        72.22949
523.25        72.28381
523.69        72.35712
524.13        72.41836
524.57        72.45301
525.01        72.46454
525.45        72.45632
525.89        72.43388
526.32        72.39736
526.76        72.36301
527.20        72.31773
527.64        72.26474
528.08         72.2084
528.52         72.1088
528.96        72.00735
529.40        72.05544
529.83        72.20783
530.27        72.26238
530.71        72.18742
531.15        72.11715
531.59        72.05032
532.03         71.8904
532.46        71.69124
532.90        71.61609
533.34        71.67997
533.78        71.83636
534.22        72.00568
534.66        72.06673
535.09        71.98582
535.53        71.82433
535.97        71.64364
536.41        71.55611
536.85        71.58994
537.28        71.71172
537.72        71.86335
538.16        71.94181
538.60        71.92501
539.04        71.86337
539.47        71.78344
539.91        71.76518
540.35        71.80559
540.79        71.88863
541.22        71.97419
541.66         72.0106
542.10        71.98087
542.54        71.90693
542.97        71.80598
543.41        71.74294
543.85         71.7202
544.29         71.7281
544.72        71.73763
545.16        71.74197
545.60        71.71887
546.04        71.66556
546.47        71.60102
546.91        71.57639
547.35        71.59097
547.79        71.63023
548.22        71.61977
548.66        71.59731
549.10        71.29687
549.53        71.24509
549.97        71.36499
550.41        71.43649
550.84        71.45036
551.28        71.56068
551.72        71.71665
552.15        71.74577
552.59        71.65009
553.03        71.46456
553.46          71.256
553.90        71.18388
554.34        71.25601
554.77        71.42926
555.21        71.61246
555.65        71.68761
556.08        71.53878
556.52        71.34859
556.96        71.15621
557.39        71.09598
557.83        71.17683
558.27        71.21227
558.70         71.1979
559.14        71.23636
559.57        71.30343
560.01         71.4311
560.45        71.53519
560.88         71.4126
561.32        71.19048
561.75        71.04742
562.19        71.06456
562.63          71.326
563.06        71.67879
563.50        71.60917
563.93        71.18262
564.37        71.00948
564.80        71.08698
565.24         71.1946
565.68        71.32297
566.11        71.09452
566.55        71.37261
566.98        71.40146
567.42        71.44578
567.85        71.51228
568.29        71.62874
568.72        71.55654
569.16         71.3409
569.60        71.34611
570.03        71.62159
570.47         71.2767
570.90        71.16106
571.34        71.66966
571.77        71.57424
572.21        71.05253
572.64        71.19873
573.08        71.18997
573.51        71.14789
573.95        71.30388
574.38        71.29174
574.82        71.29005
