SpectraSmart Spectrum 2.9.0.0
--------- Device Information -----------
Spectrum Name :  反射率_0
Saving Time :  2024/04/27 23:57:07
Spectro-Module Model Name : SE2030-DUVN
Spectro-Module Serial Number : OS361AC55029948
Wavelength Start : 200
Wavelength End : 1025
Wavelength Unit : Wavelength(nm)
Spectrum Unit : Reflectance(%)
-----------Spectrum Setting ------------
Integration Time : 20ms
Average : 10
Boxcar : 0
Background removal :  enabled
linearity correction :  enabled
SC :  disabled
Intensity correction :  disabled
DWT denoise :  enabled
savitzky-golay :  disabled
FFT :  disabled
Running average :  disabled
Kalman :  disabled
High pass :  disabled
---------------BEGIN--------------------
Wavelength(nm)             Reflectance(%)
200.29               0
200.75         12.2166
201.21        25.89444
201.67        38.90137
202.13        44.53535
202.58         45.1523
203.04        43.99375
203.50        43.89707
203.96        48.03882
204.42        55.75325
204.88         64.6393
205.34        72.95727
205.80        80.39906
206.26        87.84186
206.72        96.55209
207.18        107.2272
207.64        113.8278
208.10        110.9172
208.55        103.9006
209.01        96.34783
209.47        87.48465
209.93        73.36418
210.39        41.16497
210.85       -52.57276
211.31       -165.4232
211.77       -30.31889
212.23        58.66815
212.69        90.56102
213.14        101.3558
213.60        103.2378
214.06        99.72044
214.52        88.54675
214.98        73.28932
215.44        65.73728
215.90        64.14427
216.36        65.47477
216.81        67.76588
217.27        70.23521
217.73        73.85114
218.19        76.72446
218.65        74.99982
219.11        67.72308
219.57        55.27126
220.02        40.77519
220.48        34.17325
220.94        38.55064
221.40        49.52455
221.86        61.83471
222.32        70.40448
222.77        74.66383
223.23        76.37583
223.69        76.25965
224.15         74.8396
224.61        72.45869
225.06        68.80737
225.52        64.82447
225.98        62.36932
226.44        61.97219
226.90        62.76633
227.36         63.8329
227.81        64.33066
228.27        64.25397
228.73        63.81247
229.19        62.92017
229.65        61.50269
230.10        59.63662
230.56        57.65832
231.02         55.9081
231.48        54.93772
231.93        54.73793
232.39        55.26332
232.85        56.15971
233.31        56.99151
233.77        57.62897
234.22        58.19834
234.68        58.70356
235.14        59.27371
235.60        59.95368
236.05        60.67002
236.51        61.48548
236.97        62.37349
237.43        63.26129
237.88        64.33748
238.34        65.17718
238.80        65.85472
239.26        66.47298
239.71        67.01491
240.17        67.98089
240.63        70.72441
241.08        74.77589
241.54        78.16281
242.00        79.86356
242.46        79.86887
242.91        78.45673
243.37        74.39452
243.83        66.41992
244.28        59.80384
244.74        67.52369
245.20        84.63673
245.66        96.58795
246.11        100.6224
246.57         99.4454
247.03        92.73337
247.48        80.68162
247.94        72.42262
248.40        77.14346
248.85        89.82601
249.31        101.8633
249.77        105.9291
250.22        103.4564
250.68        98.60268
251.14        94.06911
251.59        91.84914
252.05        92.03585
252.51        93.73115
252.96        95.92684
253.42        96.17516
253.88        93.28512
254.33        89.48068
254.79         86.7763
255.25        85.06389
255.70        83.75304
256.16        82.95155
256.62        82.64644
257.07        83.00194
257.53         84.0399
257.99         84.9326
258.44        84.82299
258.90        83.49785
259.35        80.84744
259.81        77.91713
260.27        75.02614
260.72        72.65403
261.18        71.24522
261.63        70.16975
262.09        69.52184
262.55        68.92557
263.00        68.19495
263.46        67.58397
263.91        66.87906
264.37        66.22274
264.83        65.53345
265.28        64.73787
265.74        63.96945
266.19        63.12959
266.65        62.29179
267.11        61.39483
267.56        60.38926
268.02        59.32018
268.47        58.16065
268.93        56.96473
269.38        55.75144
269.84        54.58671
270.30        53.48402
270.75        52.42485
271.21        51.42504
271.66        50.44151
272.12        49.48625
272.57        48.53233
273.03        47.59042
273.48        46.57928
273.94         45.5659
274.39        44.53414
274.85        43.59469
275.31        42.80076
275.76        42.12469
276.22         41.5625
276.67        41.02069
277.13        40.49436
277.58        39.90366
278.04        39.32021
278.49        38.65333
278.95        37.90762
279.40        37.04559
279.86          36.163
280.31        35.31232
280.77        34.71022
281.22        34.33166
281.68        34.15854
282.13        34.04836
282.59        33.87103
283.04         33.5632
283.50        33.18703
283.95        32.78354
284.41         32.4706
284.86        32.25477
285.32        32.12838
285.77        32.01554
286.22        31.85817
286.68        31.66265
287.13        31.41566
287.59        31.21095
288.04        31.10282
288.50        31.12882
288.95        31.22501
289.41        31.33637
289.86        31.32535
290.32        31.20063
290.77        31.00817
291.22        30.84054
291.68        30.82351
292.13         30.9873
292.59        31.32356
293.04        31.80492
293.50        32.41382
293.95        33.12466
294.40        33.95394
294.86        34.89555
295.31        35.92821
295.77         37.0477
296.22        38.22451
296.68        39.45419
297.13        40.70522
297.58        41.96422
298.04        43.23497
298.49         44.4996
298.95        45.77611
299.40        47.07984
299.85        48.43429
300.31        49.89584
300.76        51.48971
301.21        53.20836
301.67        55.02689
302.12           56.85
302.58        58.62667
303.03        60.30216
303.48        61.91332
303.94        63.51468
304.39        65.10587
304.84        66.73115
305.30        68.40738
305.75        70.08868
306.20        71.79269
306.66        73.53667
307.11         75.2651
307.57        77.02277
308.02        78.75657
308.47        80.45941
308.93        82.12789
309.38        83.66928
309.83        85.04853
310.29        86.28716
310.74        87.38232
311.19        88.40947
311.65        89.46259
312.10        90.53112
312.55        91.59589
313.00        92.62347
313.46        93.57021
313.91         94.4112
314.36         95.1787
314.82        95.87965
315.27        96.51597
315.72         97.0947
316.18        97.63023
316.63        98.12547
317.08        98.62582
317.53        99.14526
317.99        99.67007
318.44        100.2011
318.89        100.7106
319.35        101.1843
319.80        101.6326
320.25        102.0478
320.70        102.4277
321.16         102.762
321.61         103.069
322.06         103.349
322.51        103.6155
322.97        103.8578
323.42        104.1077
323.87        104.3505
324.32         104.583
324.78        104.7876
325.23        105.0029
325.68        105.2103
326.13        105.4062
326.59        105.5665
327.04        105.7428
327.49        105.9222
327.94        106.1201
328.39        106.3416
328.85        106.5496
329.30        106.8099
329.75        107.0765
330.20        107.3422
330.66        107.5837
331.11        107.8568
331.56        108.1332
332.01        108.4222
332.46         108.727
332.92        109.0197
333.37        109.4027
333.82        109.8336
334.27           110.3
334.72        110.7849
335.17        111.2645
335.63        111.7005
336.08        112.1448
336.53        112.5664
336.98        112.9626
337.43        113.3339
337.88        113.6828
338.34        113.9996
338.79        114.3223
339.24        114.6472
339.69        114.9858
340.14        115.3455
340.59        115.7351
341.05        116.1559
341.50        116.6027
341.95        117.0732
342.40        117.5817
342.85        118.1152
343.30        118.6505
343.75        119.1372
344.20        119.4965
344.66        119.7223
345.11        119.8503
345.56        119.9166
346.01        119.9765
346.46        120.0613
346.91        120.1571
347.36        120.3171
347.81        120.6203
348.26        121.0549
348.72         121.581
349.17         122.065
349.62        122.3155
350.07        122.2839
350.52        122.0313
350.97        121.6561
351.42        121.3196
351.87        121.0913
352.32        120.9499
352.77        120.8726
353.22        120.8218
353.67        120.7708
354.13        120.7186
354.58        120.6576
355.03        120.6365
355.48        120.6299
355.93        120.6034
356.38        120.4136
356.83        119.8469
357.28         118.899
357.73        117.6814
358.18        116.4156
358.63        115.4367
359.08        114.8363
359.53        114.5225
359.98        114.3722
360.43        114.1822
360.88        113.8646
361.33        113.4513
361.78        112.9552
362.23         112.396
362.68        111.7808
363.13        111.1054
363.58        110.3376
364.03        109.3977
364.48        108.3794
364.93        107.2716
365.38        106.2115
365.83        105.3653
366.28        104.7634
366.73        104.3511
367.18         104.012
367.63        103.5559
368.08        102.9255
368.53        102.1706
368.98        101.3523
369.43         100.574
369.88        99.87252
370.33         99.2159
370.78        98.58521
371.23        97.95426
371.68        97.31357
372.13        96.67712
372.58        96.06226
373.03         95.4911
373.48        94.96486
373.93        94.47106
374.38        93.97578
374.83        93.42482
375.28        92.81049
375.72        92.14035
376.17        91.48262
376.62        90.87568
377.07        90.33218
377.52        89.82092
377.97        89.34814
378.42        88.92505
378.87        88.54108
379.32        88.20116
379.77        87.82877
380.22        87.29993
380.67         86.6039
381.11        85.78603
381.56        84.97681
382.01        84.40652
382.46        84.13506
382.91        84.09618
383.36        84.14909
383.81        84.06978
384.26        83.79255
384.71        83.37258
385.15        82.88783
385.60        82.52289
386.05        82.29632
386.50        82.15111
386.95        81.99833
387.40        81.71134
387.85        81.27947
388.29        80.72183
388.74        80.21935
389.19        79.83213
389.64         79.5637
390.09        79.34705
390.54        79.14545
390.98         78.8883
391.43        78.60956
391.88        78.33475
392.33        77.99707
392.78        77.59629
393.23        77.17798
393.67         76.5005
394.12        75.77116
394.57        76.01584
395.02        75.98802
395.47        75.92737
395.91        75.51578
396.36        75.35765
396.81         75.4668
397.26        75.51041
397.71        75.43874
398.15        75.30558
398.60        75.17395
399.05        74.88661
399.50        74.56712
399.95        74.51566
400.39        74.62144
400.84        74.73815
401.29        74.15965
401.74        73.65852
402.18        73.17284
402.63        72.93896
403.08        72.95221
403.53        72.87531
403.97        72.69871
404.42        72.69518
404.87        72.79427
405.32        72.76615
405.76        72.56496
406.21        72.22405
406.66        71.84953
407.11        71.62521
407.55        71.55015
408.00        71.59119
408.45        71.64158
408.90        71.08565
409.34        70.17532
409.79        70.16447
410.24        70.90011
410.68        71.12101
411.13        70.75048
411.58        70.51221
412.03        70.48376
412.47        70.46779
412.92        70.45423
413.37        70.50823
413.81        70.55955
414.26        70.56004
414.71        70.47934
415.15        70.34569
415.60         70.1769
416.05         70.0739
416.49        70.06897
416.94        70.12281
417.39        70.19759
417.83        70.23245
418.28        70.20106
418.73        70.10426
419.17        69.98373
419.62        69.91007
420.07        69.90754
420.51         69.9593
420.96        70.00038
421.41        69.92507
421.85        69.70293
422.30        69.29784
422.74        68.86346
423.19        68.99611
423.64        69.59412
424.08        69.95979
424.53        69.90474
424.98        69.91854
425.42        70.01069
425.87        69.64724
426.31        69.02479
426.76        69.06015
427.21        69.60949
427.65        69.51456
428.10        68.87063
428.54        68.69569
428.99         69.0267
429.44        69.47946
429.88        69.84291
430.33        69.61255
430.77        68.95313
431.22        68.96464
431.66        69.56343
432.11        69.73499
432.56        69.46542
433.00        69.48153
433.45         69.6195
433.89        69.51725
434.34        69.26454
434.78        68.73761
435.23        68.35387
435.67        69.22575
436.12        69.93151
436.57        70.20596
437.01        69.76508
437.46         69.4474
437.90        69.74593
438.35        70.17835
438.79        69.77179
439.24        69.65913
439.68         69.5666
440.13        69.46561
440.57        69.43072
441.02        69.68697
441.46        70.06242
441.91        70.20604
442.35        70.09538
442.80        69.74533
443.24        69.96808
443.69         70.1196
444.13        70.33347
444.58        70.39525
445.02        70.27269
445.47         70.1153
445.91        69.98366
446.36        69.93764
446.80        69.98071
447.24         70.1153
447.69        70.29905
448.13        70.42688
448.58        70.48485
449.02        70.48899
449.47        70.48351
449.91        70.50029
450.36        70.56689
450.80        70.63922
451.25        70.69646
451.69        70.69807
452.13        70.62577
452.58        70.44216
453.02        70.19263
453.47        69.99476
453.91        69.86788
454.36        69.84444
454.80        69.83447
455.24        69.62621
455.69        69.30315
456.13        68.98061
456.58        68.80868
457.02         68.9129
457.46        69.48175
457.91        69.28988
458.35        68.77061
458.79        68.48933
459.24        68.56572
459.68        68.47513
460.13        68.23447
460.57        68.02988
461.01        68.23212
461.46        67.80454
461.90        67.90269
462.34        68.05361
462.79        67.56468
463.23        67.52295
463.68        67.61116
464.12        67.77171
464.56        67.90753
465.01        67.82336
465.45        67.48331
465.89        67.43739
466.34        67.68188
466.78        67.36535
467.22        66.52937
467.67        67.07368
468.11        66.81213
468.55        66.77509
468.99        66.36978
469.44        66.23025
469.88        66.36499
470.32        66.48679
470.77        66.55218
471.21        66.57331
471.65        66.53235
472.10        66.44514
472.54        66.31683
472.98        66.23363
473.42        66.21946
473.87        66.13906
474.31        65.99814
474.75        66.19692
475.20        66.57662
475.64        66.42404
476.08        65.83622
476.52         65.5965
476.97        65.73707
477.41          65.826
477.85        65.67503
478.29        65.71425
478.74        66.19264
479.18        65.43401
479.62        65.52072
480.06        65.29636
480.50        65.34241
480.95        65.41399
481.39        65.49108
481.83        65.62485
482.27        65.72596
482.72        66.03642
483.16        65.63535
483.60        65.47739
484.04        65.68298
484.48        65.78415
484.93        66.05197
485.37        66.05319
485.81         65.9417
486.25        66.84819
486.69        67.34868
487.14        66.30475
487.58        65.95103
488.02        66.30408
488.46        65.81155
488.90         66.0736
489.34        65.53967
489.79        65.10675
490.23        65.97127
490.67        65.92722
491.11        65.49786
491.55         65.3068
491.99        65.40633
492.43        65.39848
492.88        65.26978
493.32        65.25848
493.76        65.34145
494.20        65.44559
494.64        65.57342
495.08        65.65538
495.52        65.70271
495.96        65.93138
496.41        66.23631
496.85        66.11537
497.29         65.6625
497.73        65.50656
498.17        65.58688
498.61         65.8397
499.05         66.0854
499.49        65.97783
499.93        65.62167
500.37        65.50563
500.82        65.59357
501.26        65.67989
501.70        65.85242
502.14        65.04996
502.58         65.6342
503.02        65.69463
503.46        65.64487
503.90        65.71322
504.34        65.78995
504.78        65.82367
505.22        65.74919
505.66        65.49003
506.10        65.21003
506.54        65.17416
506.98        65.31018
507.42        65.84003
507.86        66.06406
508.30        65.55093
508.74         66.1103
509.18        65.95222
509.62        65.72227
510.06        65.54818
510.50        65.48314
510.94        65.44566
511.38        65.40984
511.82        65.39761
512.26        65.39584
512.70        65.40813
513.14        65.43724
513.58        65.45317
514.02        65.44698
514.46         65.4718
514.90         65.5173
515.34        65.33729
515.78        65.31068
516.22         65.1452
516.66        65.01195
517.10        64.99352
517.54        65.10592
517.98         65.3154
518.42        65.53967
518.86        65.65414
519.30        65.62706
519.74        65.49702
520.18         65.3309
520.62        65.23535
521.06         65.2395
521.50        65.30854
521.93        65.40514
522.37         65.4564
522.81        65.44544
523.25        65.39414
523.69        65.32239
524.13        65.25756
524.57         65.2099
525.01        65.17122
525.45        65.13084
525.89        65.07395
526.32        64.99442
526.76         64.9137
527.20        64.84745
527.64        64.82603
528.08        64.85207
528.52        64.90941
528.96        64.97491
529.40        65.01278
529.83        65.00713
530.27        64.98247
530.71         64.9358
531.15        64.87305
531.59        64.80088
532.03        64.71568
532.46        64.63579
532.90        64.61244
533.34         64.6449
533.78        64.72118
534.22        64.79743
534.66        64.80486
535.09         64.7248
535.53        64.59815
535.97        64.45846
536.41        64.38271
536.85        64.38909
537.28        64.44035
537.72        64.50477
538.16        64.58875
538.60        64.57418
539.04        64.57957
539.47        64.55953
539.91        64.54014
540.35        64.51324
540.79        64.45904
541.22        64.39513
541.66        64.42181
542.10        64.50974
542.54        64.50639
542.97        64.41729
543.41        64.41013
543.85         64.4782
544.29        64.53851
544.72        64.56217
545.16        64.57548
545.60        64.56155
546.04        64.51318
546.47        64.45358
546.91        64.42422
547.35        64.42696
547.79        64.47048
548.22        64.50719
548.66        64.45823
549.10         64.3608
549.53        64.34583
549.97        64.62108
550.41        64.68848
550.84        64.56863
551.28        64.58698
551.72        64.80154
552.15        64.41586
552.59        64.46489
553.03        64.71593
553.46         64.4302
553.90        64.44772
554.34        64.45715
554.77        64.49022
555.21        64.50269
555.65        64.47753
556.08        64.36079
556.52        64.30054
556.96        64.29225
557.39        64.41919
557.83        64.62724
558.27        64.62253
558.70        64.43791
559.14        64.36871
559.57        64.41382
560.01        64.49237
560.45        64.54002
560.88        64.41533
561.32        64.24445
561.75        64.23763
562.19        64.40891
562.63        64.68036
563.06        64.91689
563.50        64.73483
563.93        64.24253
564.37        64.13049
564.80        64.37531
565.24        64.49409
565.68        64.44225
566.11        64.45941
566.55        64.56557
566.98        64.57682
567.42        64.52563
567.85        64.58939
568.29        64.80286
568.72        64.66685
569.16        64.65836
569.60        64.73075
570.03        65.03114
570.47          64.892
570.90        64.93562
571.34        65.31932
571.77        65.41307
572.21        65.03269
572.64        65.26241
573.08        65.21194
573.51        64.86723
573.95        65.12173
574.38        65.54356
574.82        65.19939
