SpectraSmart Spectrum 2.9.0.0
--------- Device Information -----------
Spectrum Name :  反射率_0
Saving Time :  2024/04/27 23:38:39
Spectro-Module Model Name : SE2030-DUVN
Spectro-Module Serial Number : OS361AC55029948
Wavelength Start : 200
Wavelength End : 1025
Wavelength Unit : Wavelength(nm)
Spectrum Unit : Reflectance(%)
-----------Spectrum Setting ------------
Integration Time : 20ms
Average : 10
Boxcar : 0
Background removal :  enabled
linearity correction :  enabled
SC :  disabled
Intensity correction :  disabled
DWT denoise :  enabled
savitzky-golay :  disabled
FFT :  disabled
Running average :  disabled
Kalman :  disabled
High pass :  disabled
---------------BEGIN--------------------
Wavelength(nm)             Reflectance(%)
200.29               0
200.75        4.098859
201.21        46.68746
201.67        74.98092
202.13        81.35441
202.58        73.68095
203.04        58.68606
203.50        43.28929
203.96        37.63848
204.42        42.15514
204.88        51.26195
205.34        59.94939
205.80        64.20683
206.26        63.41015
206.72        57.45105
207.18        45.97206
207.64        36.59109
208.10        37.20945
208.55        44.31725
209.01        48.41572
209.47         45.2782
209.93        32.56918
210.39       -2.466841
210.85       -106.1472
211.31        -213.119
211.77       -48.10581
212.23        48.62215
212.69        80.62749
213.14        89.56978
213.60        87.83807
214.06        77.43226
214.52         55.2635
214.98        33.21518
215.44        31.09844
215.90        39.47149
216.36        48.53631
216.81          54.297
217.27        57.27964
217.73        59.83271
218.19        61.32407
218.65        59.90692
219.11        55.25136
219.57         47.1971
220.02        37.58445
220.48        33.19464
220.94        35.86688
221.40        42.74363
221.86        50.48957
222.32        55.76809
222.77        58.28778
223.23        59.29917
223.69        58.97806
224.15        57.21736
224.61        54.27609
225.06        49.93545
225.52        45.83913
225.98        44.89202
226.44        47.05908
226.90         50.3933
227.36        53.09368
227.81         53.7401
228.27        52.41854
228.73        49.62682
229.19        45.65394
229.65        41.39365
230.10        37.57098
230.56        34.49002
231.02        32.29194
231.48        31.14269
231.93        30.88615
232.39        31.45376
232.85        32.74925
233.31        34.61449
233.77        36.80366
234.22        39.27301
234.68        41.30028
235.14        42.11375
235.60        41.64546
236.05        39.91703
236.51        37.95081
236.97        37.92308
237.43        40.60159
237.88        45.52921
238.34        50.64954
238.80        54.02417
239.26        55.33144
239.71        54.59241
240.17        52.43623
240.63        53.02238
241.08        58.54261
241.54         65.0639
242.00        69.34518
242.46        70.52052
242.91        69.03055
243.37        63.80861
243.83        52.34672
244.28        38.21249
244.74        38.55176
245.20        52.95366
245.66        64.98611
246.11        67.88743
246.57        63.23914
247.03        51.58892
247.48         32.2863
247.94        17.08798
248.40        20.10038
248.85        34.27281
249.31        52.03479
249.77        67.56211
250.22        78.91261
250.68        87.28197
251.14        92.42857
251.59        94.19557
252.05         93.1548
252.51        88.66726
252.96        80.40101
253.42         72.6869
253.88        69.42678
254.33        69.91982
254.79        71.32483
255.25        70.47404
255.70        67.57488
256.16        64.48527
256.62        62.36036
257.07        62.43979
257.53        64.38844
257.99        66.58864
258.44        67.88367
258.90        67.76847
259.35        66.14666
259.81        64.02166
260.27        61.67103
260.72        59.46574
261.18        57.86762
261.63        56.46371
262.09         55.3806
262.55        54.36831
263.00        53.29663
263.46        52.34074
263.91        51.43632
264.37        50.83644
264.83        50.44848
265.28        50.14589
265.74        49.81228
266.19        49.09606
266.65        48.04359
267.11        46.71999
267.56         45.3057
268.02        44.18817
268.47        43.41501
268.93        42.89997
269.38        42.47918
269.84        41.91943
270.30        41.15182
270.75        40.25554
271.21        39.32058
271.66        38.43254
272.12        37.64409
272.57        36.88079
273.03        36.15402
273.48        35.40905
273.94         34.6883
274.39        33.98076
274.85        33.33108
275.31        32.71632
275.76        32.11224
276.22        31.54104
276.67        30.97562
277.13        30.47278
277.58        29.98922
278.04        29.56595
278.49        29.11182
278.95         28.6024
279.40        27.99528
279.86        27.36814
280.31        26.77418
280.77        26.40532
281.22        26.23629
281.68        26.23717
282.13        26.26224
282.59        26.15281
283.04         25.8688
283.50         25.4885
283.95        25.09913
284.41        24.86975
284.86        24.82204
285.32        24.91338
285.77         25.0587
286.22        25.17258
286.68        25.24298
287.13        25.26439
287.59        25.28899
288.04        25.31996
288.50        25.38808
288.95        25.45231
289.41        25.51288
289.86        25.52887
290.32        25.52101
290.77        25.50706
291.22        25.52543
291.68        25.62132
292.13        25.80785
292.59        26.10074
293.04        26.50529
293.50        27.04808
293.95        27.72299
294.40        28.53808
294.86        29.47451
295.31        30.49221
295.77        31.58604
296.22        32.73953
296.68         33.9716
297.13        35.28605
297.58        36.66664
298.04        38.08571
298.49        39.48941
298.95        40.84301
299.40        42.14193
299.85        43.41199
300.31        44.71431
300.76         46.0861
301.21        47.53983
301.67         49.0719
302.12        50.59738
302.58        52.06477
303.03        53.43695
303.48        54.74838
303.94        56.10429
304.39        57.58836
304.84        59.22755
305.30        60.98302
305.75         62.6976
306.20        64.21387
306.66        65.51686
307.11        66.61932
307.57         67.6517
308.02        68.71097
308.47        69.84317
308.93        71.00843
309.38        72.11383
309.83        73.10016
310.29        73.97251
310.74        74.74841
311.19        75.47164
311.65        76.18286
312.10        76.86972
312.55        77.52474
313.00        78.16167
313.46        78.81229
313.91        79.46619
314.36         80.1255
314.82        80.74481
315.27        81.24502
315.72        81.60733
316.18        81.86041
316.63        82.04659
317.08        82.27054
317.53        82.56062
317.99        82.89066
318.44        83.21817
318.89         83.4473
319.35        83.56284
319.80        83.61198
320.25        83.66078
320.70        83.81942
321.16        84.10078
321.61        84.47298
322.06        84.87797
322.51        85.23213
322.97        85.48898
323.42         85.7021
323.87         85.8503
324.32        85.91873
324.78        85.90966
325.23        85.86203
325.68        85.82986
326.13        85.92767
326.59        86.15911
327.04        86.53248
327.49        86.96954
327.94        87.36332
328.39        87.67516
328.85        87.90543
329.30        88.10959
329.75        88.26719
330.20        88.38853
330.66        88.44041
331.11        88.51883
331.56        88.68286
332.01        88.95792
332.46        89.33943
332.92        89.73389
333.37        90.09098
333.82        90.34127
334.27        90.50679
334.72        90.66557
335.17        90.95187
335.63        91.37582
336.08        91.94292
336.53        92.53104
336.98        92.97466
337.43        93.23714
337.88        93.37548
338.34        93.49057
338.79        93.79107
339.24        94.31094
339.69        94.98198
340.14        95.71086
340.59        96.34575
341.05        96.83888
341.50        97.25195
341.95        97.60227
342.40        97.93199
342.85        98.26659
343.30        98.57716
343.75        98.91605
344.20        99.37396
344.66        99.95484
345.11        100.6258
345.56        101.2608
346.01        101.6491
346.46        101.7583
346.91        101.6682
347.36        101.5313
347.81        101.5833
348.26        101.8851
348.72        102.3654
349.17        102.9281
349.62        103.4345
350.07        103.8241
350.52        104.1272
350.97        104.3544
351.42         104.523
351.87        104.6387
352.32        104.6854
352.77        104.6544
353.22        104.5455
353.67        104.3673
354.13        104.1456
354.58        103.8886
355.03        103.6644
355.48        103.4845
355.93        103.3342
356.38        103.1678
356.83        102.9101
357.28        102.5463
357.73        102.1069
358.18        101.6332
358.63        101.1861
359.08        100.7893
359.53        100.4313
359.98        100.0969
360.43        99.76485
360.88        99.41957
361.33        99.04922
361.78        98.66972
362.23        98.30804
362.68        97.96039
363.13        97.61862
363.58        97.20424
364.03        96.61063
364.48        95.81039
364.93        94.87562
365.38        93.94128
365.83        93.23019
366.28        92.78578
366.73        92.53703
367.18        92.35133
367.63        92.00893
368.08        91.45233
368.53        90.75631
368.98        89.99925
369.43        89.30843
369.88          88.728
370.33        88.20856
370.78        87.74265
371.23        87.32444
371.68        86.93436
372.13        86.57529
372.58        86.19797
373.03        85.71649
373.48         85.1199
373.93        84.44059
374.38        83.73744
374.83        83.10337
375.28        82.57033
375.72        82.10211
376.17        81.71705
376.62         81.3746
377.07        81.05335
377.52         80.7439
377.97        80.43879
378.42        80.12664
378.87        79.80032
379.32        79.46798
379.77        79.09192
380.22        78.61426
380.67        78.03909
381.11        77.39478
381.56        76.78017
382.01        76.36795
382.46        76.19505
382.91        76.20482
383.36        76.27456
383.81        76.20827
384.26         75.9526
384.71        75.56422
385.15        75.09949
385.60        74.70795
386.05        74.40969
386.50        74.15806
386.95        73.93094
387.40        73.70156
387.85        73.46213
388.29        73.19328
388.74        72.96133
389.19        72.68184
389.64        72.34403
390.09        71.94242
390.54        71.53896
390.98        71.22345
391.43         71.0608
391.88        71.01495
392.33        70.96365
392.78         70.8073
393.23        70.55642
393.67        70.05376
394.12        69.48766
394.57        69.71359
395.02        69.63325
395.47        69.65244
395.91        69.44574
396.36        69.34045
396.81        69.34023
397.26        69.27764
397.71        69.13055
398.15        68.93811
398.60        68.77733
399.05        68.46003
399.50        68.10778
399.95        68.12425
400.39        68.39851
400.84         68.3651
401.29        67.98336
401.74        67.42807
402.18        66.87893
402.63        66.73793
403.08         66.9521
403.53        66.91427
403.97        66.60218
404.42        66.45106
404.87         66.4473
405.32        66.43477
405.76        66.39795
406.21        66.21214
406.66         65.9721
407.11        66.16597
407.55        66.63808
408.00        66.60222
408.45        66.05551
408.90        65.34578
409.34        64.75114
409.79        64.84671
410.24        65.46764
410.68        65.70143
411.13        65.47207
411.58         65.3595
412.03        65.42109
412.47        65.46986
412.92        65.48847
413.37        65.53745
413.81        65.58597
414.26        65.64117
414.71        65.68453
415.15         65.7328
415.60        65.75327
416.05        65.74961
416.49        65.73027
416.94         65.6855
417.39        65.64595
417.83        65.65966
418.28        65.72432
418.73        65.80654
419.17        65.88628
419.62        65.93291
420.07        65.95162
420.51        65.96949
420.96        65.96476
421.41        65.91893
421.85        65.82238
422.30        65.54001
422.74        65.22899
423.19        65.62599
423.64        66.57174
424.08        67.05985
424.53        66.90808
424.98        66.91782
425.42        67.12251
425.87        66.80142
426.31        66.18214
426.76        66.32645
427.21        67.10474
427.65        67.30994
428.10        66.95889
428.54         66.9607
428.99        67.33706
429.44        67.79834
429.88        68.14103
430.33        67.78944
430.77        67.01646
431.22         67.0537
431.66        67.81934
432.11        68.39376
432.56        68.65097
433.00        68.66727
433.45        68.32487
433.89         68.3142
434.34        68.78856
434.78        67.74023
435.23        68.05759
435.67        68.49947
436.12        69.20579
436.57        69.40325
437.01        69.03679
437.46        69.11523
437.90        69.32372
438.35        69.96453
438.79        69.82104
439.24        69.93247
439.68         70.0036
440.13        70.09263
440.57        70.22485
441.02        70.44331
441.46         70.5909
441.91        70.66628
442.35        70.16966
442.80        70.01579
443.24        70.74232
443.69        71.01083
444.13        70.97892
444.58        71.07782
445.02        71.28923
445.47        71.37934
445.91         71.3358
446.36        71.33247
446.80        71.37078
447.24        71.34185
447.69         71.3027
448.13        71.49014
448.58        71.82807
449.02        71.88398
449.47        71.70325
449.91        71.67297
450.36        71.82886
450.80        71.91454
451.25        71.93884
451.69        72.01463
452.13        72.12617
452.58        72.17289
453.02        72.16295
453.47        72.14851
453.91        72.12663
454.36        72.19177
454.80        72.22561
455.24        71.91777
455.69        71.41432
456.13        70.96709
456.58        70.74684
457.02        71.05721
457.46         71.6008
457.91        71.59474
458.35        71.26882
458.79        71.05062
459.24        71.02369
459.68        70.80357
460.13        70.53597
460.57         70.1922
461.01        70.09904
461.46        70.44891
461.90        70.67828
462.34        70.34879
462.79        70.66453
463.23        70.52179
463.68        70.36948
464.12        70.16785
464.56        70.06804
465.01        70.09489
465.45        70.60994
465.89        70.60477
466.34        70.33784
466.78        69.82938
467.22        69.18256
467.67        69.97063
468.11        69.72144
468.55        69.88403
468.99        69.71857
469.44        69.71256
469.88        69.84994
470.32        69.85313
470.77        69.74616
471.21        69.67771
471.65        69.65656
472.10        69.64571
472.54        69.60236
472.98        69.52341
473.42        69.41327
473.87        69.24434
474.31        69.03175
474.75        69.03578
475.20        69.18388
475.64        69.09978
476.08        68.81605
476.52        68.75086
476.97        68.91864
477.41        69.04237
477.85        68.97544
478.29        69.13832
478.74        69.49644
479.18        68.74451
479.62        68.87464
480.06        68.65794
480.50         68.7263
480.95         68.7373
481.39        68.57941
481.83        68.91679
482.27        69.05618
482.72        68.41087
483.16        68.87727
483.60        68.80637
484.04        68.80155
484.48        68.77534
484.93        68.89484
485.37        69.04659
485.81        69.17659
486.25        69.60008
486.69        69.51326
487.14        68.71773
487.58        68.96974
488.02        68.77293
488.46        69.39915
488.90        69.00757
489.34        69.13074
489.79        68.51379
490.23        68.62738
490.67         68.4508
491.11        68.32413
491.55        68.36308
491.99        68.51234
492.43        68.59539
492.88        68.56616
493.32        68.52636
493.76        68.49084
494.20        68.51114
494.64        68.61945
495.08        68.71796
495.52        68.77852
495.96        69.00485
496.41          69.291
496.85        68.99744
497.29        68.33682
497.73        68.36597
498.17        69.15971
498.61        69.32027
499.05        68.83953
499.49        68.59714
499.93        68.66854
500.37        68.56283
500.82        68.29876
501.26        68.39323
501.70        68.88034
502.14         68.4287
502.58        68.82808
503.02        68.81685
503.46        68.64804
503.90        68.42484
504.34        68.14791
504.78        68.02776
505.22        68.06197
505.66        68.09212
506.10        68.10384
506.54         68.2166
506.98        68.42134
507.42        68.46861
507.86        68.65154
508.30        68.65843
508.74        68.58246
509.18         68.4264
509.62        68.25053
510.06         68.1526
510.50        68.15466
510.94        68.23022
511.38        68.34047
511.82        68.41904
512.26          68.443
512.70        68.43541
513.14        68.40156
513.58        68.33125
514.02        68.23338
514.46        68.12498
514.90        68.10794
515.34        67.95964
515.78        68.09899
516.22        68.19112
516.66        68.32797
517.10         68.4558
517.54        68.55602
517.98        68.63136
518.42        68.66547
518.86        68.64634
519.30        68.57714
519.74        68.46587
520.18        68.34299
520.62         68.2562
521.06        68.22192
521.50        68.23489
521.93        68.28419
522.37        68.33331
522.81        68.37427
523.25        68.40736
523.69        68.43876
524.13        68.47919
524.57        68.52641
525.01        68.57278
525.45        68.59195
525.89        68.54557
526.32         68.4263
526.76         68.2649
527.20        68.10141
527.64        68.00712
528.08        67.99757
528.52        68.04825
528.96        68.12537
529.40        68.17413
529.83        68.17171
530.27        68.14933
530.71        68.10622
531.15        68.05284
531.59        67.99821
532.03        67.93514
532.46        67.88488
532.90        67.90636
533.34        67.99742
533.78         68.1398
534.22        68.28315
534.66        68.35043
535.09        68.31696
535.53        68.22412
535.97        68.10332
536.41        68.02193
536.85         67.9995
537.28        68.02003
537.72        68.05685
538.16        68.05739
538.60         68.0123
539.04        67.95403
539.47        67.88889
539.91         67.8627
540.35        67.86476
540.79        67.89413
541.22        67.91856
541.66        67.89568
542.10        67.81793
542.54        67.70736
542.97        67.59026
543.41        67.54413
543.85        67.56582
544.29        67.63381
544.72        67.71341
545.16        67.76124
545.60        67.74704
546.04        67.75636
546.47        67.78156
546.91        67.65115
547.35        67.44931
547.79        67.55161
548.22        67.86056
548.66        67.95657
549.10        67.80611
549.53        67.68398
549.97        67.64286
550.41        67.60421
550.84        67.54679
551.28        67.62325
551.72        67.83247
552.15        67.75755
552.59        67.32053
553.03         68.1107
553.46        67.44912
553.90        67.55803
554.34        67.62066
554.77        67.81806
555.21          68.103
555.65        67.82868
556.08        67.86192
556.52         67.7075
556.96        67.69029
557.39        67.52792
557.83        67.85332
558.27        67.82432
558.70        67.64492
559.14        67.53721
559.57        67.51331
560.01        67.59463
560.45        67.70638
560.88        67.58226
561.32        67.34196
561.75         67.3623
562.19        67.64098
562.63         67.7752
563.06        67.71479
563.50        67.68316
563.93          67.719
564.37        67.51727
564.80        67.72234
565.24        67.77689
565.68        67.83916
566.11        67.87231
566.55        67.89768
566.98        67.87013
567.42        67.80901
567.85        67.80217
568.29        67.89891
568.72        67.81826
569.16        67.59833
569.60        67.88274
570.03        68.02526
570.47        67.85011
570.90         67.9997
571.34        68.25373
571.77        68.38808
572.21        67.95428
572.64        68.27366
573.08        67.95324
573.51        67.81683
573.95        67.87893
574.38        68.20799
574.82         67.7342
