SpectraSmart Spectrum 2.9.0.0
--------- Device Information -----------
Spectrum Name :  反射率_0
Saving Time :  2024/04/28 00:07:28
Spectro-Module Model Name : SE2030-DUVN
Spectro-Module Serial Number : OS361AC55029948
Wavelength Start : 200
Wavelength End : 1025
Wavelength Unit : Wavelength(nm)
Spectrum Unit : Reflectance(%)
-----------Spectrum Setting ------------
Integration Time : 20ms
Average : 10
Boxcar : 0
Background removal :  enabled
linearity correction :  enabled
SC :  disabled
Intensity correction :  disabled
DWT denoise :  enabled
savitzky-golay :  disabled
FFT :  disabled
Running average :  disabled
Kalman :  disabled
High pass :  disabled
---------------BEGIN--------------------
Wavelength(nm)             Reflectance(%)
200.29               0
200.75        149.7616
201.21        154.0116
201.67        149.9275
202.13        137.6226
202.58         119.478
203.04        98.37961
203.50        80.58169
203.96        76.44377
204.42        85.05805
204.88        99.37248
205.34        113.1678
205.80        121.8699
206.26         125.538
206.72        125.7254
207.18         121.565
207.64        114.1451
208.10        108.4436
208.55        105.7938
209.01        104.0679
209.47        101.0153
209.93          94.713
210.39        79.66116
210.85        37.14713
211.31       -4.619666
211.77        63.53651
212.23        102.2706
212.69        114.2789
213.14        116.2773
213.60        112.4068
214.06        102.6181
214.52        83.74706
214.98        64.68822
215.44        61.89685
215.90        68.03834
216.36        75.66273
216.81        81.80267
217.27         86.7829
217.73        92.28762
218.19        96.69323
218.65        96.50117
219.11        90.83353
219.57        79.80158
220.02        66.59733
220.48        61.07557
220.94        66.00689
221.40          76.922
221.86        88.10226
222.32        93.96865
222.77        94.39336
223.23        92.01665
223.69         88.1859
224.15        83.93512
224.61        79.53699
225.06        74.31024
225.52        69.50851
225.98        67.60001
226.44         68.7529
226.90        71.46561
227.36        74.03903
227.81        75.06584
228.27         74.7031
228.73        73.33528
229.19        71.28799
229.65        69.35042
230.10         67.8846
230.56        66.92465
231.02        66.28916
231.48        65.84344
231.93        65.43067
232.39        65.24039
232.85        65.28659
233.31        65.61661
233.77        66.20461
234.22        67.08479
234.68        67.87911
235.14        68.14813
235.60        67.86493
236.05        67.03687
236.51         66.3941
236.97        67.47891
237.43        70.62168
237.88        75.30539
238.34        79.78575
238.80        82.60721
239.26        83.53608
239.71        82.75537
240.17        79.89752
240.63        77.23901
241.08        77.56786
241.54        79.57035
242.00        81.77923
242.46        83.55168
242.91        85.37603
243.37        88.12599
243.83        93.47885
244.28        101.6484
244.74        105.2143
245.20        101.6234
245.66        96.13401
246.11        91.57433
246.57        86.98838
247.03        80.75853
247.48        72.91683
247.94        69.08057
248.40        74.61894
248.85        85.79131
249.31        97.48011
249.77        105.5708
250.22        109.8873
250.68        111.8503
251.14        112.5437
251.59        113.1643
252.05         114.118
252.51        114.9712
252.96        114.6939
253.42        111.6794
253.88        106.2803
254.33        100.8343
254.79        97.04447
255.25        94.06043
255.70        91.21735
256.16        89.05193
256.62        87.71918
257.07        87.53512
257.53        88.51102
257.99        89.59909
258.44        89.77343
258.90        88.76924
259.35        86.39208
259.81        83.66524
260.27        80.95508
260.72        78.78683
261.18         77.6034
261.63        76.73808
262.09        76.14735
262.55        75.25244
263.00        73.90771
263.46        72.48586
263.91        71.04508
264.37        70.12728
264.83        69.65436
265.28        69.38231
265.74        69.13671
266.19        68.39619
266.65        67.21304
267.11        65.68233
267.56        64.03651
268.02        62.75877
268.47        61.90585
268.93        61.37047
269.38         60.9176
269.84        60.22808
270.30        59.21193
270.75        57.97064
271.21         56.6804
271.66         55.5425
272.12        54.62687
272.57        53.79665
273.03        52.97442
273.48        51.94785
273.94        50.76377
274.39        49.48881
274.85        48.27087
275.31        47.18218
275.76        46.23393
276.22        45.43922
276.67        44.76999
277.13        44.33257
277.58        44.02791
278.04        43.85478
278.49        43.62499
278.95        43.21747
279.40        42.54288
279.86        41.73936
280.31        40.83366
280.77         40.0283
281.22        39.32496
281.68        38.74465
282.13        38.25079
282.59        37.87045
283.04        37.55818
283.50        37.34264
283.95        37.16071
284.41        36.97422
284.86        36.74594
285.32        36.50862
285.77        36.27082
286.22        36.10847
286.68        36.04371
287.13         36.0097
287.59        35.98973
288.04        35.86809
288.50        35.66807
288.95        35.39439
289.41        35.13404
289.86        34.95178
290.32        34.89683
290.77         34.9376
291.22        35.05402
291.68        35.20125
292.13        35.36509
292.59        35.59874
293.04        35.93533
293.50        36.45403
293.95        37.15821
294.40        38.02922
294.86        39.04255
295.31        40.15174
295.77        41.34262
296.22        42.60042
296.68        43.91768
297.13        45.24872
297.58        46.58198
298.04        47.92803
298.49        49.27814
298.95        50.67598
299.40        52.13708
299.85         53.6701
300.31        55.33189
300.76        57.14359
301.21        59.08761
301.67        61.14409
302.12        63.17379
302.58        65.07143
303.03        66.78223
303.48        68.37356
303.94        69.97849
304.39         71.7066
304.84        73.61848
305.30        75.68415
305.75        77.77827
306.20        79.81072
306.66        81.76603
307.11        83.61192
307.57        85.42349
308.02        87.18491
308.47        88.91156
308.93        90.60034
309.38        92.15188
309.83        93.53181
310.29        94.77135
310.74        95.87526
311.19        96.95037
311.65         98.1348
312.10        99.40838
312.55        100.7149
313.00          101.97
313.46        103.0535
313.91        103.9213
314.36        104.6436
314.82        105.2273
315.27        105.6786
315.72        106.0294
316.18        106.2965
316.63        106.5794
317.08        107.0755
317.53        107.8122
317.99        108.7251
318.44        109.6605
318.89        110.3325
319.35        110.6703
319.80        110.7712
320.25        110.7657
320.70        110.8803
321.16        111.1752
321.61         111.598
322.06        112.0966
322.51         112.598
322.97        113.0468
323.42        113.5068
323.87        113.9306
324.32        114.2564
324.78        114.4578
325.23        114.5818
325.68        114.6649
326.13        114.8109
326.59        115.0239
327.04        115.3355
327.49        115.6894
327.94        116.0252
328.39        116.3251
328.85        116.5753
329.30        116.8665
329.75        117.1768
330.20        117.5082
330.66        117.8148
331.11        118.1617
331.56        118.5333
332.01        118.9357
332.46        119.3689
332.92        119.7612
333.37        120.1564
333.82        120.4916
334.27        120.7721
334.72        121.0416
335.17        121.3739
335.63        121.7647
336.08        122.2668
336.53        122.7973
336.98        123.2611
337.43        123.6424
337.88        123.9713
338.34        124.3225
338.79          124.88
339.24        125.6483
339.69        126.5613
340.14        127.4951
340.59        128.2517
341.05        128.7784
341.50        129.1499
341.95        129.4299
342.40        129.7392
342.85        130.1287
343.30        130.5578
343.75        131.0465
344.20        131.6283
344.66        132.2887
345.11        133.0021
345.56          133.67
346.01        134.1268
346.46        134.3376
346.91         134.353
347.36        134.2691
347.81        134.2402
348.26        134.3162
348.72        134.4651
349.17        134.6453
349.62        134.8119
350.07        134.9397
350.52        135.0441
350.97        135.1296
351.42        135.1939
351.87        135.2383
352.32        135.2648
352.77        135.2445
353.22        135.1446
353.67        134.9553
354.13        134.6756
354.58        134.3508
355.03        134.1213
355.48        133.9956
355.93        133.9379
356.38        133.7741
356.83        133.2309
357.28        132.2806
357.73        131.0345
358.18        129.7436
358.63        128.7905
359.08        128.2648
359.53         128.056
359.98        127.9532
360.43         127.621
360.88        126.9607
361.33        126.0573
361.78        125.0704
362.23        124.2466
362.68        123.6459
363.13        123.2071
363.58        122.7641
364.03        121.9601
364.48        120.9213
364.93        119.6264
365.38        118.3285
365.83        117.3352
366.28        116.7101
366.73        116.3341
367.18        116.0353
367.63        115.5431
368.08        114.7816
368.53        113.8519
368.98        112.8267
369.43        111.8198
369.88        110.8877
370.33        109.9892
370.78         109.179
371.23        108.5509
371.68        108.1049
372.13        107.8173
372.58        107.5601
373.03        107.1158
373.48        106.4321
373.93        105.5671
374.38        104.6388
374.83        103.8397
375.28         103.223
375.72         102.716
376.17        102.2808
376.62        101.7837
377.07         101.191
377.52        100.5368
377.97        99.88293
378.42        99.32123
378.87         98.8684
379.32        98.49418
379.77        98.11162
380.22        97.58805
380.67        96.90194
381.11        96.10332
381.56        95.30089
382.01        94.68826
382.46        94.31714
382.91         94.1278
383.36        94.00756
383.81        93.77567
384.26        93.38375
384.71        92.89146
385.15        92.35105
385.60        91.90758
386.05        91.57452
386.50        91.30205
386.95        91.06157
387.40        90.82095
387.85        90.56261
388.29        90.24604
388.74        89.95597
389.19        89.59376
389.64        89.14951
390.09        88.63215
390.54        88.08623
390.98        87.56919
391.43        87.16383
391.88        86.85062
392.33        86.57878
392.78        86.31875
393.23        86.08047
393.67        85.75912
394.12        85.43568
394.57        85.64648
395.02        85.14967
395.47        85.21004
395.91        85.37281
396.36        85.30613
396.81        84.98801
397.26        84.63287
397.71        84.30285
398.15        83.96541
398.60        83.72981
399.05        83.46246
399.50        83.21588
399.95        83.18501
400.39         83.2942
400.84        83.23627
401.29        82.97092
401.74        82.45902
402.18        81.86388
402.63        81.67112
403.08        81.83702
403.53        81.75126
403.97        81.38298
404.42        81.14252
404.87        81.03697
405.32        80.92242
405.76        80.78867
406.21        80.63392
406.66        80.46806
407.11        80.43324
407.55        80.49306
408.00        80.33418
408.45        79.99966
408.90        79.69197
409.34        79.47526
409.79        79.44505
410.24        79.53011
410.68        79.51075
411.13        79.36099
411.58        79.21983
412.03        79.12377
412.47        79.08755
412.92        79.09698
413.37        79.16015
413.81        79.23578
414.26         79.3279
414.71        79.40625
415.15        79.49069
415.60        79.54142
416.05        79.56164
416.49        79.55476
416.94        79.50456
417.39        79.42726
417.83        79.34792
418.28        79.26386
418.73        79.15451
419.17        79.02654
419.62        78.89198
420.07        78.77329
420.51        78.68783
420.96         78.6114
421.41        78.51115
421.85        78.36472
422.30         78.0405
422.74        77.68061
423.19        78.03182
423.64        78.91209
424.08        79.28076
424.53        78.97551
424.98        78.83282
425.42        78.95593
425.87        78.59143
426.31        77.96807
426.76        78.02048
427.21         78.6544
427.65        78.90389
428.10        78.74073
428.54         78.8143
428.99        79.13754
429.44        79.51636
429.88        79.76611
430.33        79.35336
430.77        78.49883
431.22        78.35673
431.66        78.86787
432.11        79.10086
432.56        79.07987
433.00        79.30737
433.45        79.46935
433.89        79.57828
434.34        79.85931
434.78        78.14793
435.23        78.51977
435.67        79.44516
436.12        79.94308
436.57        80.05821
437.01        79.45935
437.46        79.11253
437.90        79.53461
438.35        80.46712
438.79        80.19339
439.24        80.31219
439.68        80.32543
440.13        80.28031
440.57        80.20616
441.02        80.32468
441.46        80.53529
441.91        80.37214
442.35         79.9043
442.80        79.97688
443.24        80.47165
443.69        80.64654
444.13        80.47041
444.58        80.49757
445.02        80.70675
445.47        80.83029
445.91        80.84259
446.36        80.89074
446.80        80.96188
447.24        80.96247
447.69         80.9457
448.13        81.10928
448.58         81.3919
449.02        81.42247
449.47        81.23969
449.91        81.16173
450.36        81.22487
450.80        81.20917
451.25        81.13821
451.69        81.12398
452.13        81.15687
452.58        81.14018
453.02        81.06988
453.47        80.97874
453.91        80.85462
454.36        80.81538
454.80         80.8093
455.24        80.44498
455.69        79.85592
456.13        79.64386
456.58         79.9671
457.02        79.54641
457.46        80.40592
457.91        80.14915
458.35        79.56911
458.79        79.21595
459.24        79.16344
459.68        78.99614
460.13        78.75777
460.57        78.44511
461.01        78.43453
461.46        78.34892
461.90        78.41586
462.34        78.34244
462.79        78.60371
463.23        78.65081
463.68        78.60041
464.12        78.38412
464.56        78.11683
465.01        78.19411
465.45        78.41113
465.89         78.3826
466.34        78.14462
466.78        77.74203
467.22        77.29522
467.67        77.61315
468.11        77.64408
468.55        77.72488
468.99        77.53107
469.44        77.45204
469.88        77.48022
470.32        77.37206
470.77        77.15468
471.21        76.99649
471.65        76.91654
472.10        76.88618
472.54        76.85206
472.98        76.81484
473.42        76.77768
473.87        76.64041
474.31        76.42307
474.75        76.57664
475.20        76.94991
475.64        76.73951
476.08        76.05119
476.52        75.84086
476.97        76.15326
477.41        76.14253
477.85        76.30482
478.29        76.48244
478.74        76.11226
479.18        75.90584
479.62        76.31479
480.06        76.35377
480.50        76.24054
480.95        76.10909
481.39        75.89557
481.83        76.08538
482.27        76.02813
482.72        75.44448
483.16        75.77779
483.60        75.67035
484.04        75.55392
484.48        75.61635
484.93        76.12046
485.37        75.61096
485.81        76.29803
486.25        76.56025
486.69        77.31789
487.14        75.88669
487.58        75.55679
488.02        76.03812
488.46        76.14281
488.90        76.02676
489.34        75.76875
489.79        75.42832
490.23        75.87185
490.67        75.76216
491.11        75.36858
491.55        75.14818
491.99         75.1321
492.43        75.07463
492.88        74.96886
493.32        74.98241
493.76        75.07299
494.20        75.16522
494.64        75.25704
495.08        75.27274
495.52        75.24417
495.96        75.44222
496.41        75.75971
496.85        75.65247
497.29        75.19959
497.73        75.10052
498.17        75.27431
498.61        75.52318
499.05        75.66755
499.49        75.63438
499.93        75.45436
500.37        75.10885
500.82        74.70297
501.26        74.70989
501.70        75.41811
502.14        74.74995
502.58        75.38659
503.02        75.42851
503.46        75.33116
503.90         75.1647
504.34        74.92043
504.78        74.82063
505.22        74.83807
505.66        74.85315
506.10        74.88705
506.54        74.91348
506.98        74.88409
507.42        75.25011
507.86        75.40189
508.30        75.05752
508.74        75.31476
509.18         75.1625
509.62        75.00806
510.06        74.87549
510.50        74.79974
510.94        74.75085
511.38        74.72366
511.82        74.74005
512.26        74.78984
512.70        74.87013
513.14        74.95638
513.58        74.97763
514.02        74.91858
514.46        74.84969
514.90        74.80715
515.34        74.58702
515.78        74.63561
516.22        74.59534
516.66        74.59692
517.10        74.63204
517.54        74.69357
517.98        74.77209
518.42         74.8389
518.86        74.84932
519.30        74.79443
519.74        74.71764
520.18          74.634
520.62        74.51027
521.06        74.38953
521.50          74.396
521.93        74.52224
522.37         74.6246
522.81        74.68868
523.25        74.78075
523.69        74.88072
524.13        74.92242
524.57        74.89784
525.01        74.82826
525.45         74.7194
525.89        74.58299
526.32        74.42839
526.76         74.2728
527.20        74.14832
527.64        74.11272
528.08         74.1718
528.52        74.30332
528.96        74.45873
529.40        74.55975
529.83        74.57633
530.27        74.54203
530.71         74.4693
531.15        74.39253
531.59        74.32625
532.03        74.25974
532.46        74.19368
532.90        74.15466
533.34         74.1385
533.78        74.14333
534.22        74.15414
534.66        74.14364
535.09        74.09782
535.53        74.04904
535.97        73.99501
536.41        73.94963
536.85        73.92132
537.28        73.91013
537.72        73.92508
538.16        73.97091
538.60        74.04448
539.04        74.14857
539.47        74.24506
539.91        74.32048
540.35        74.34631
540.79        74.34261
541.22        74.29436
541.66        74.18768
542.10        74.03161
542.54        73.84667
542.97        73.66905
543.41        73.59335
543.85        73.61932
544.29        73.72432
544.72        73.86275
545.16        73.97794
545.60        74.02716
546.04         74.0781
546.47        74.12239
546.91        74.01105
547.35         73.8134
547.79        73.87332
548.22        74.09287
548.66        74.05596
549.10        73.76498
549.53        73.58227
549.97          73.562
550.41        73.55976
550.84         73.5863
551.28        73.73114
551.72        73.92676
552.15        74.01441
552.59         73.9839
553.03        73.85762
553.46        73.69523
553.90        73.64641
554.34         73.7178
554.77        73.88459
555.21        74.05302
555.65           74.08
556.08        73.86784
556.52        73.65534
556.96        73.48692
557.39        73.49105
557.83         73.6249
558.27         73.6964
558.70        73.45069
559.14        73.46378
559.57        73.64557
560.01        73.81422
560.45         73.8904
560.88         73.9277
561.32        73.95654
561.75        73.72577
562.19        73.38787
562.63        73.48314
563.06        73.89243
563.50        73.84969
563.93        73.39043
564.37        73.24843
564.80        73.41489
565.24        73.52579
565.68        73.54996
566.11        73.59821
566.55        73.68797
566.98        73.78571
567.42        73.86568
567.85        73.86462
568.29        73.88905
568.72        73.81469
569.16        73.64008
569.60        74.23179
570.03        74.15905
570.47        73.97142
570.90        74.17509
571.34        74.43329
571.77         74.4919
572.21         74.2095
572.64        74.40843
573.08        74.17756
573.51        74.00459
573.95        74.24458
574.38        74.24251
574.82        74.42388
