SpectraSmart Spectrum 2.9.0.0
--------- Device Information -----------
Spectrum Name :  反射率_0
Saving Time :  2024/04/28 00:05:31
Spectro-Module Model Name : SE2030-DUVN
Spectro-Module Serial Number : OS361AC55029948
Wavelength Start : 200
Wavelength End : 1025
Wavelength Unit : Wavelength(nm)
Spectrum Unit : Reflectance(%)
-----------Spectrum Setting ------------
Integration Time : 20ms
Average : 10
Boxcar : 0
Background removal :  enabled
linearity correction :  enabled
SC :  disabled
Intensity correction :  disabled
DWT denoise :  enabled
savitzky-golay :  disabled
FFT :  disabled
Running average :  disabled
Kalman :  disabled
High pass :  disabled
---------------BEGIN--------------------
Wavelength(nm)             Reflectance(%)
200.29               0
200.75        82.56753
201.21        96.85234
201.67        102.5729
202.13        98.79045
202.58        89.00608
203.04        75.99586
203.50        64.79551
203.96        63.39438
204.42        71.00386
204.88        82.26134
205.34        92.95773
205.80        100.1787
206.26        104.1224
206.72        106.3204
207.18        105.2527
207.64        97.68019
208.10         87.3368
208.55        79.75528
209.01        74.79853
209.47        70.28491
209.93        63.74384
210.39          49.884
210.85        14.18288
211.31       -8.223263
211.77         58.5161
212.23        90.00924
212.69        98.89631
213.14        100.9563
213.60        99.31828
214.06        94.11553
214.52        83.16514
214.98        70.64008
215.44        66.71152
215.90        68.64729
216.36        72.33823
216.81        75.79342
217.27        78.83818
217.73        82.25324
218.19        84.96789
218.65        84.67731
219.11        80.75556
219.57        73.47628
220.02        64.15768
220.48        58.18588
220.94        57.75047
221.40        61.09399
221.86        66.41684
222.32        71.81027
222.77        76.43122
223.23        80.38377
223.69        83.04795
224.15        83.70106
224.61        82.47811
225.06        79.52799
225.52        75.67841
225.98        72.59911
226.44        71.08629
226.90        70.52386
227.36        70.35149
227.81        69.92597
228.27        69.14256
228.73        68.08881
229.19        66.55811
229.65        64.30895
230.10        61.48774
230.56        58.61578
231.02        56.14956
231.48        54.76776
231.93        54.42101
232.39        54.88383
232.85        55.88569
233.31        57.09785
233.77        58.33282
234.22        59.73309
234.68        60.81981
235.14        61.02488
235.60        60.31829
236.05        58.66816
236.51        57.02142
236.97        57.46329
237.43        60.62106
237.88        65.96864
238.34        71.37968
238.80        74.87395
239.26        76.12706
239.71        75.27672
240.17        72.52148
240.63        71.74579
241.08        75.67574
241.54        81.06554
242.00        85.12464
242.46        87.14045
242.91        87.82423
243.37        87.28191
243.83        85.51788
244.28        84.62328
244.74         87.7132
245.20        92.64162
245.66        95.03049
246.11         93.8386
246.57        89.32957
247.03        80.47049
247.48           66.93
247.94        57.07108
248.40        60.50724
248.85        72.48931
249.31        85.80331
249.77        94.40385
250.22        98.19697
250.68        99.63231
251.14        100.0387
251.59        100.6699
252.05        102.0347
252.51        103.6457
252.96        105.1078
253.42        105.6953
253.88        104.5594
254.33        102.5125
254.79        100.5191
255.25        97.82656
255.70        94.45766
256.16        91.53634
256.62        89.56366
257.07        89.24483
257.53        90.51324
257.99         91.9422
258.44        92.61903
258.90        92.43349
259.35        91.00838
259.81        89.28593
260.27        87.13467
260.72        84.50092
261.18        82.06387
261.63        79.56686
262.09        77.56338
262.55        76.09111
263.00        74.96577
263.46        74.24141
263.91        73.59503
264.37        73.07151
264.83        72.51263
265.28          71.878
265.74        71.19273
266.19        70.16415
266.65        68.89094
267.11        67.36994
267.56         65.7549
268.02        64.42973
268.47        63.42075
268.93        62.66064
269.38        61.96799
269.84        61.09549
270.30         59.9705
270.75        58.67728
271.21        57.32739
271.66        56.02287
272.12        54.82816
272.57        53.65208
273.03        52.52447
273.48        51.39322
273.94        50.32641
274.39        49.31899
274.85        48.40289
275.31        47.49379
275.76        46.55923
276.22        45.64985
276.67         44.8007
277.13        44.20705
277.58        43.79639
278.04          43.556
278.49        43.24075
278.95         42.6495
279.40         41.6967
279.86        40.55544
280.31        39.37841
280.77        38.53931
281.22         38.0499
281.68        37.85858
282.13        37.75377
282.59         37.5203
283.04        37.08207
283.50        36.54411
283.95         36.0184
284.41        35.73418
284.86        35.69732
285.32        35.83785
285.77         35.9864
286.22        35.96345
286.68        35.75351
287.13        35.39224
287.59         35.0131
288.04        34.72461
288.50        34.59712
288.95        34.54889
289.41        34.56845
289.86        34.57682
290.32        34.58539
290.77        34.62326
291.22        34.70361
291.68        34.82592
292.13        34.99878
292.59        35.25507
293.04        35.65407
293.50        36.32068
293.95        37.25716
294.40        38.43047
294.86        39.75747
295.31        41.09562
295.77        42.40987
296.22        43.71028
296.68        45.03598
297.13        46.42257
297.58        47.87292
298.04        49.35778
298.49        50.84056
298.95        52.32755
299.40         53.8218
299.85        55.35802
300.31        56.97569
300.76        58.66457
301.21        60.42126
301.67         62.2471
302.12        64.08193
302.58        65.93808
303.03        67.77399
303.48        69.61641
303.94        71.51112
304.39        73.43204
304.84        75.41119
305.30        77.46346
305.75        79.52592
306.20         81.6049
306.66         83.7129
307.11        85.78891
307.57        87.87059
308.02        89.88416
308.47        91.82651
308.93        93.70566
309.38        95.45634
309.83        97.10027
310.29        98.67342
310.74        100.1578
311.19        101.5928
311.65        103.0084
312.10        104.3689
312.55        105.6637
313.00        106.8968
313.46        108.0861
313.91        109.2175
314.36        110.3125
314.82        111.3195
315.27        112.1483
315.72        112.7909
316.18          113.29
316.63        113.7426
317.08        114.3458
317.53        115.1393
317.99        116.0605
318.44        116.9892
318.89        117.6982
319.35         118.131
319.80        118.3695
320.25        118.5247
320.70        118.7869
321.16        119.1971
321.61        119.7097
322.06        120.2562
322.51        120.7397
322.97        121.1045
323.42        121.4283
323.87        121.6947
324.32        121.8959
324.78        122.0273
325.23        122.1353
325.68        122.2484
326.13        122.4527
326.59        122.7388
327.04        123.1362
327.49        123.5851
327.94        124.0228
328.39        124.4237
328.85        124.7661
329.30        125.1145
329.75         125.392
330.20        125.6001
330.66        125.7187
331.11         125.886
331.56        126.1943
332.01        126.6823
332.46        127.3235
332.92        127.9985
333.37        128.6725
333.82        129.2361
334.27        129.7029
334.72        130.1103
335.17        130.5307
335.63        130.9572
336.08        131.4346
336.53        131.8822
336.98        132.2248
337.43        132.4555
337.88        132.6075
338.34        132.7657
338.79        133.1266
339.24        133.7038
339.69        134.4488
340.14        135.2287
340.59        135.8235
341.05        136.1839
341.50        136.3907
341.95          136.55
342.40        136.8544
342.85        137.3486
343.30         137.943
343.75        138.5841
344.20        139.1876
344.66        139.7163
345.11        140.2089
345.56        140.5878
346.01        140.7215
346.46          140.62
346.91        140.3318
347.36        140.0728
347.81          140.18
348.26        140.7013
348.72        141.5205
349.17        142.3795
349.62         142.889
350.07        142.9335
350.52        142.6222
350.97        142.1128
351.42        141.6629
351.87        141.3674
352.32        141.1685
352.77         140.991
353.22        140.7228
353.67        140.3319
354.13        139.8621
354.58        139.3838
355.03        139.0637
355.48        138.9081
355.93        138.8474
356.38        138.6761
356.83        138.0835
357.28        137.0292
357.73          135.64
358.18        134.1685
358.63        132.9987
359.08        132.2363
359.53         131.783
359.98        131.4697
360.43        131.0229
360.88        130.3553
361.33        129.5291
361.78         128.663
362.23        127.9368
362.68        127.3749
363.13        126.9153
363.58        126.3941
364.03        125.4484
364.48        124.2382
364.93        122.7327
365.38        121.1765
365.83        119.8501
366.28        118.8368
366.73         118.048
367.18        117.4063
367.63        116.7838
368.08        116.1259
368.53        115.4803
368.98        114.8094
369.43        114.0472
369.88        113.1899
370.33        112.2354
370.78        111.2819
371.23        110.5059
371.68        109.9382
372.13        109.5255
372.58        109.1393
373.03        108.5667
373.48        107.7557
373.93        106.7761
374.38        105.7366
374.83        104.8047
375.28        104.0291
375.72         103.343
376.17        102.7245
376.62        102.0635
377.07        101.3384
377.52         100.588
377.97        99.86205
378.42        99.23253
378.87        98.71479
379.32        98.27982
379.77        97.87616
380.22        97.42674
380.67        96.90742
381.11        96.34031
381.56        95.76006
382.01        95.23904
382.46        94.80623
382.91         94.4499
383.36        94.12682
383.81        93.76696
384.26        93.35275
384.71        92.90069
385.15        92.45158
385.60        92.13234
386.05        91.93181
386.50        91.80399
386.95        91.65745
387.40         91.3594
387.85         90.8952
388.29        90.27454
388.74        89.67545
389.19        89.13569
389.64        88.66374
390.09        88.20647
390.54        87.77704
390.98        87.38011
391.43        87.07676
391.88        86.87602
392.33        86.66458
392.78         86.3517
393.23        85.96067
393.67        85.28835
394.12        84.60694
394.57        84.82338
395.02        85.07362
395.47        85.13239
395.91        84.74471
396.36        84.54401
396.81         84.5242
397.26        84.29803
397.71        83.92332
398.15        83.56335
398.60        83.30463
399.05        83.17553
399.50        83.12521
399.95        82.70085
400.39        82.04116
400.84        82.06548
401.29        82.62916
401.74         82.3517
402.18        81.35818
402.63        81.04993
403.08        81.43017
403.53        81.43984
403.97        81.04419
404.42        80.83655
404.87        80.79636
405.32        80.68465
405.76          80.487
406.21         80.2159
406.66        79.91919
407.11        79.82061
407.55        79.88962
408.00        79.75356
408.45        79.43856
408.90        79.14947
409.34        78.94518
409.79        78.92915
410.24         79.0266
410.68         78.9989
411.13        78.81923
411.58        78.63866
412.03        78.49378
412.47        78.39619
412.92        78.33762
413.37        78.33245
413.81        78.34958
414.26        78.40334
414.71         78.4649
415.15        78.55178
415.60        78.61485
416.05        78.63973
416.49        78.62417
416.94         78.5556
417.39        78.45938
417.83        78.37489
418.28        78.30389
418.73        78.22346
419.17        78.12835
419.62        78.01267
420.07         77.8921
420.51        77.78444
420.96         77.6858
421.41        77.58752
421.85        77.46975
422.30        77.21469
422.74        76.92216
423.19        77.23495
423.64        77.98506
424.08        78.24873
424.53        77.90238
424.98        77.77762
425.42        77.92139
425.87        77.65417
426.31        77.14243
426.76        77.23111
427.21        77.81579
427.65          77.969
428.10         77.6608
428.54        77.59055
428.99        77.79324
429.44        77.89449
429.88        77.84896
430.33        77.70804
430.77        77.47267
431.22        77.49604
431.66        77.73087
432.11        77.74941
432.56        77.63358
433.00        77.83499
433.45        78.08968
433.89        78.15084
434.34          78.111
434.78        77.13887
435.23        76.79288
435.67        77.76382
436.12         78.3516
436.57        78.49204
437.01        77.82426
437.46        77.45246
437.90        77.92459
438.35        78.71513
438.79        78.52017
439.24        78.61617
439.68        78.62992
440.13        78.53856
440.57        78.42664
441.02        78.68961
441.46         79.1556
441.91        79.12447
442.35        78.64841
442.80        78.57777
443.24        79.03512
443.69        79.19731
444.13        79.05759
444.58        79.22319
445.02         79.2489
445.47        79.33511
445.91        79.33499
446.36        79.34791
446.80         79.3622
447.24        79.30077
447.69        79.23707
448.13        79.41218
448.58        79.75654
449.02        79.82993
449.47        79.66743
449.91        79.64153
450.36        79.78129
450.80        79.81976
451.25        79.78279
451.69        79.80766
452.13        79.88375
452.58        79.90829
453.02        79.84304
453.47        79.68427
453.91        79.42906
454.36        79.16247
454.80        78.87057
455.24        78.49015
455.69        78.15419
456.13        77.88406
456.58        77.77508
457.02         78.1442
457.46        78.63085
457.91        78.52458
458.35         77.8516
458.79        77.51669
459.24        77.54446
459.68         77.4538
460.13        77.29806
460.57        77.03035
461.01        77.01044
461.46        77.22831
461.90        77.02119
462.34        77.28138
462.79        76.94247
463.23        76.93581
463.68        76.99754
464.12        76.90295
464.56        76.68197
465.01        76.77547
465.45        77.01894
465.89        76.82461
466.34        76.22608
466.78        76.21518
467.22        75.71175
467.67        75.67214
468.11        75.88307
468.55        75.89871
468.99        75.72408
469.44        75.70303
469.88        75.83193
470.32        75.87393
470.77        75.79348
471.21        75.67493
471.65        75.51625
472.10         75.3175
472.54        75.09612
472.98        74.93277
473.42        74.84849
473.87        74.80674
474.31        74.77199
474.75        74.87833
475.20        75.04088
475.64         75.0463
476.08        74.91759
476.52        74.82621
476.97         74.7551
477.41        75.00441
477.85        74.81734
478.29        74.66917
478.74        75.06535
479.18        74.39548
479.62         74.7269
480.06        74.64995
480.50         74.7547
480.95        74.71108
481.39        74.38441
481.83        75.03465
482.27         74.4777
482.72        74.29375
483.16        74.32102
483.60        74.24933
484.04        74.14124
484.48        74.18636
484.93         74.6718
485.37        74.42091
485.81        74.71595
486.25        75.79263
486.69        75.56343
487.14        74.32378
487.58        73.95098
488.02        74.86926
488.46        74.60059
488.90        74.21204
489.34        74.27779
489.79        73.37103
490.23         74.0343
490.67        73.94254
491.11        73.76557
491.55        73.73535
491.99        73.83927
492.43        73.88166
492.88        73.82047
493.32        73.76798
493.76        73.71967
494.20        73.72163
494.64        73.80119
495.08        73.82496
495.52        73.81021
495.96        74.07402
496.41        74.46742
496.85        74.26815
497.29        73.63519
497.73         73.4476
498.17        73.89884
498.61        74.08509
499.05         73.9529
499.49        73.74325
499.93        73.56657
500.37        73.42911
500.82        73.32708
501.26        73.52699
501.70        74.07273
502.14        73.30541
502.58        73.86339
503.02        73.88185
503.46        73.82774
503.90        73.78828
504.34        73.69038
504.78        73.63043
505.22        73.55927
505.66        73.38729
506.10        73.19873
506.54        73.15778
506.98         73.2338
507.42        73.71084
507.86         73.6806
508.30        73.82848
508.74        73.87652
509.18        73.81163
509.62        73.66573
510.06        73.54066
510.50        73.47195
510.94        73.42502
511.38        73.39924
511.82        73.39134
512.26        73.39591
512.70        73.42212
513.14        73.45919
513.58        73.47671
514.02        73.46852
514.46        73.45138
514.90        73.43789
515.34        73.39679
515.78        73.42902
516.22        73.44701
516.66         73.4736
517.10          73.496
517.54        73.51014
517.98        73.51962
518.42         73.5183
518.86        73.49843
519.30        73.46149
519.74        73.41117
520.18        73.36352
520.62        73.34288
521.06        73.35543
521.50        73.39614
521.93        73.45177
522.37        73.48516
522.81        73.49186
523.25        73.47524
523.69        73.45019
524.13        73.44113
524.57        73.45191
525.01        73.47424
525.45        73.48401
525.89         73.4445
526.32        73.34438
526.76        73.21085
527.20        73.07398
527.64        72.98907
528.08        72.96892
528.52        72.99759
528.96        73.04311
529.40        73.05351
529.83        73.01115
530.27        72.94897
530.71        72.88397
531.15        72.85313
531.59         72.8653
532.03        72.90303
532.46        72.95006
532.90        73.00484
533.34        73.05373
533.78        73.10071
534.22         73.1307
534.66        73.12118
535.09        73.06172
535.53        72.97762
535.97        72.88674
536.41        72.83583
536.85        72.83459
537.28        72.87514
537.72        72.92433
538.16        72.91463
538.60         72.8373
539.04        72.73686
539.47        72.63184
539.91        72.58171
540.35        72.59106
540.79        72.67645
541.22         72.7806
541.66        72.86568
542.10        72.78847
542.54        72.69338
542.97        72.58651
543.41        72.56792
543.85        72.63877
544.29        72.77333
544.72        72.90501
545.16        72.95542
545.60        72.88877
546.04        72.76083
546.47         72.6203
546.91        72.47668
547.35        72.37989
547.79        72.49139
548.22         72.7068
548.66        72.71409
549.10        72.51794
549.53        72.44878
549.97          72.534
550.41        72.57551
550.84        72.57104
551.28        72.65145
551.72        72.77431
552.15        72.77378
552.59        72.64814
553.03        72.56342
553.46        72.32851
553.90        72.28299
554.34        72.36298
554.77        72.52086
555.21        72.67171
555.65        72.77809
556.08        72.70574
556.52        72.47017
556.96        72.15684
557.39        72.15965
557.83        72.44867
558.27        72.54719
558.70        72.43433
559.14        72.40297
559.57        72.43309
560.01        72.45305
560.45        72.42001
560.88        72.23724
561.32        72.05318
561.75        72.03367
562.19        72.21084
562.63        72.59174
563.06        72.98347
563.50        72.86613
563.93        72.24965
564.37        72.07931
564.80         72.3194
565.24         72.4759
565.68        72.48696
566.11        72.44159
566.55        72.53425
566.98        72.48129
567.42        72.38884
567.85        72.40633
568.29        72.55803
568.72        72.49486
569.16         72.2657
569.60        72.34438
570.03         72.7757
570.47        72.52089
570.90        72.42622
571.34        73.22391
571.77        72.94991
572.21        72.54839
572.64        72.88609
573.08        72.47667
573.51        72.58582
573.95         72.6232
574.38        72.79113
574.82        72.79035
