SpectraSmart Spectrum 2.9.0.0
--------- Device Information -----------
Spectrum Name :  反射率_0
Saving Time :  2024/04/27 23:50:58
Spectro-Module Model Name : SE2030-DUVN
Spectro-Module Serial Number : OS361AC55029948
Wavelength Start : 200
Wavelength End : 1025
Wavelength Unit : Wavelength(nm)
Spectrum Unit : Reflectance(%)
-----------Spectrum Setting ------------
Integration Time : 20ms
Average : 10
Boxcar : 0
Background removal :  enabled
linearity correction :  enabled
SC :  disabled
Intensity correction :  disabled
DWT denoise :  enabled
savitzky-golay :  disabled
FFT :  disabled
Running average :  disabled
Kalman :  disabled
High pass :  disabled
---------------BEGIN--------------------
Wavelength(nm)             Reflectance(%)
200.29               0
200.75        71.14391
201.21        79.17451
201.67        84.40868
202.13        80.90828
202.58        70.84231
203.04        58.21854
203.50        47.88389
203.96        46.82428
204.42        54.30148
204.88        65.34353
205.34        75.55338
205.80        81.87888
206.26        84.40635
206.72        83.86809
207.18        80.13363
207.64        75.91167
208.10        74.67305
208.55        75.79362
209.01        75.68765
209.47         72.3337
209.93        63.57721
210.39        40.73601
210.85       -28.95923
211.31       -118.2974
211.77       -21.76376
212.23         44.8047
212.69        67.73909
213.14        72.29501
213.60        66.41232
214.06        50.84039
214.52        22.96826
214.98        2.229434
215.44        10.56993
215.90        29.49582
216.36        45.57194
216.81        55.22357
217.27        60.37151
217.73        64.08672
218.19        65.81221
218.65        63.69451
219.11        57.45087
219.57        46.79197
220.02        34.37839
220.48        29.03134
220.94        33.10838
221.40        42.81948
221.86        53.12752
222.32        58.94855
222.77        60.18699
223.23         59.0756
223.69         56.5187
224.15        53.07939
224.61        49.05489
225.06        43.82619
225.52        39.21561
225.98        38.52408
226.44        41.48465
226.90        45.80879
227.36        49.15638
227.81        49.63446
228.27        47.38364
228.73        43.09113
229.19        37.36956
229.65        31.89955
230.10         27.7628
230.56        25.01081
231.02         23.5619
231.48        23.25491
231.93        23.77788
232.39        25.12794
232.85        27.06763
233.31        29.20907
233.77         31.3502
234.22        33.58246
234.68        35.41325
235.14        36.43285
235.60         36.6937
236.05        36.18325
236.51        35.93928
236.97        37.89261
237.43        42.47482
237.88        49.04173
238.34        55.54671
238.80        60.39705
239.26        63.61656
239.71        65.72491
240.17        67.14177
240.63        69.16854
241.08         71.7982
241.54        73.32979
242.00        73.82636
242.46        73.71278
242.91        73.15344
243.37        71.74883
243.83        69.01134
244.28        65.72979
244.74        65.85422
245.20        69.81319
245.66        72.74322
246.11         72.3485
246.57        68.76775
247.03        61.24479
247.48        50.29195
247.94        45.64565
248.40        55.14093
248.85        72.17413
249.31         87.2635
249.77        93.22736
250.22        91.99413
250.68        87.69671
251.14        83.60297
251.59        82.45535
252.05        84.62664
252.51        89.47151
252.96        96.33015
253.42         101.199
253.88        100.6553
254.33        97.17223
254.79        93.48386
255.25        90.15103
255.70        87.00983
256.16        84.27022
256.62        82.70932
257.07        83.29706
257.53        85.65291
257.99        88.31945
258.44        89.62292
258.90        88.70632
259.35        85.61539
259.81        81.79449
260.27        78.08337
260.72        75.56033
261.18        74.58141
261.63        74.13529
262.09        73.90279
262.55        73.03011
263.00        71.36173
263.46        69.44043
263.91        67.35659
264.37        65.67155
264.83        64.39854
265.28        63.32445
265.74        62.43628
266.19        61.45131
266.65        60.39632
267.11        59.27585
267.56        58.09574
268.02        56.97947
268.47        55.90014
268.93        54.83794
269.38        53.75211
269.84        52.62843
270.30        51.45813
270.75         50.2682
271.21        49.06386
271.66        47.78539
272.12        46.47189
272.57        45.11408
273.03        43.84787
273.48        42.78856
273.94        42.00721
274.39        41.40117
274.85        40.90047
275.31        40.30545
275.76        39.55263
276.22        38.74048
276.67         37.8855
277.13        37.13168
277.58         36.4491
278.04        35.84703
278.49        35.24312
278.95        34.64939
279.40        34.00697
279.86        33.39667
280.31        32.79489
280.77         32.2919
281.22        31.85949
281.68        31.53312
282.13        31.25543
282.59        31.00857
283.04        30.76201
283.50        30.53862
283.95        30.36508
284.41        30.32739
284.86        30.40977
285.32        30.60488
285.77        30.80681
286.22        30.91187
286.68        30.92241
287.13        30.83533
287.59        30.77518
288.04        30.84969
288.50        31.10586
288.95        31.46096
289.41        31.83949
289.86        32.07172
290.32        32.15977
290.77        32.16662
291.22        32.19535
291.68        32.38318
292.13        32.77518
292.59         33.3751
293.04        34.16857
293.50        35.15831
293.95        36.32087
294.40        37.65984
294.86        39.17932
295.31        40.87067
295.77        42.72441
296.22        44.70861
296.68        46.75025
297.13        48.70418
297.58        50.53722
298.04        52.28199
298.49        54.02942
298.95         55.9895
299.40        58.20166
299.85        60.62157
300.31        63.17464
300.76        65.66089
301.21         68.0163
301.67         70.3081
302.12        72.51224
302.58        74.71358
303.03        76.89657
303.48        79.06343
303.94        81.29845
304.39         83.6269
304.84        86.07842
305.30        88.64927
305.75          91.191
306.20        93.59152
306.66        95.84305
307.11        97.91634
307.57        99.91772
308.02        101.8689
308.47        103.7989
308.93        105.6912
309.38        107.4446
309.83        109.0405
310.29        110.5036
310.74        111.8305
311.19        113.0787
311.65        114.3011
312.10        115.4683
312.55         116.563
313.00        117.5756
313.46        118.5035
313.91         119.327
314.36        120.0787
314.82        120.7328
315.27        121.2388
315.72        121.6047
316.18        121.8741
316.63        122.1197
317.08        122.4968
317.53        123.0407
317.99        123.7038
318.44        124.4136
318.89        125.0161
319.35        125.4654
319.80        125.8137
320.25        126.1067
320.70        126.4341
321.16        126.8051
321.61        127.1946
322.06        127.5804
322.51        127.9461
322.97        128.2574
323.42         128.573
323.87        128.8323
324.32        128.9568
324.78        128.9286
325.23        128.8294
325.68        128.7474
326.13        128.8619
326.59        129.1894
327.04        129.7377
327.49          130.39
327.94        130.9921
328.39        131.4856
328.85        131.8559
329.30        132.2145
329.75        132.5579
330.20        132.8976
330.66        133.1761
331.11        133.4572
331.56        133.7129
332.01         133.957
332.46         134.205
332.92        134.4266
333.37        134.7487
333.82        135.1249
334.27        135.5535
334.72        136.0159
335.17        136.4803
335.63        136.9058
336.08        137.3621
336.53        137.8342
336.98        138.3549
337.43        138.9254
337.88        139.5244
338.34        140.0995
338.79         140.641
339.24        141.1117
339.69        141.5215
340.14        141.8863
340.59        142.2309
341.05        142.5784
341.50        142.9517
341.95        143.3387
342.40        143.7365
342.85        144.1452
343.30        144.5432
343.75        144.9872
344.20        145.5653
344.66        146.2732
345.11         147.073
345.56        147.7786
346.01        148.0945
346.46        147.9865
346.91        147.5641
347.36        147.1043
347.81        147.0344
348.26        147.4401
348.72        148.1814
349.17        149.0058
349.62        149.5372
350.07        149.6526
350.52         149.456
350.97         149.075
351.42        148.7131
351.87        148.4473
352.32        148.2305
352.77        147.9937
353.22        147.6391
353.67        147.1481
354.13        146.5666
354.58        145.9879
355.03        145.6158
355.48        145.4633
355.93         145.449
356.38        145.3481
356.83        144.8159
357.28        143.7991
357.73         142.433
358.18        140.9589
358.63        139.7472
359.08        138.9019
359.53         138.318
359.98        137.8614
360.43        137.3167
360.88        136.6052
361.33        135.7806
361.78        134.8998
362.23        134.0361
362.68        133.2062
363.13        132.4025
363.58        131.5603
364.03        130.4478
364.48        129.2949
364.93        127.9834
365.38        126.6937
365.83        125.5853
366.28        124.6996
366.73        123.9815
367.18        123.3539
367.63        122.6971
368.08        121.9626
368.53        121.1744
368.98        120.3433
369.43        119.4889
369.88        118.6221
370.33        117.7362
370.78        116.8298
371.23         115.908
371.68        114.9816
372.13        114.0605
372.58        113.1857
373.03        112.4193
373.48        111.7671
373.93        111.2026
374.38        110.6629
374.83        110.0431
375.28        109.3165
375.72        108.5009
376.17         107.663
376.62        106.8363
377.07        106.0426
377.52        105.2547
377.97        104.5158
378.42        103.8968
378.87        103.3979
379.32        103.0092
379.77        102.6134
380.22         102.019
380.67        101.2003
381.11        100.2244
381.56        99.24937
382.01        98.55671
382.46        98.21915
382.91        98.14583
383.36        98.18431
383.81        98.09248
384.26        97.79681
384.71        97.36774
385.15        96.85722
385.60        96.41369
386.05        96.05441
386.50        95.72847
386.95        95.41284
387.40        95.08856
387.85        94.74789
388.29        94.34907
388.74        93.98945
389.19        93.58177
389.64        93.10471
390.09        92.54253
390.54        91.93652
390.98        91.33981
391.43        90.85199
391.88        90.48416
392.33        90.15292
392.78        89.78297
393.23        89.39165
393.67        88.78656
394.12        88.24889
394.57        88.40736
395.02        88.98569
395.47        88.92567
395.91        88.21069
396.36        87.79491
396.81        87.72746
397.26        87.45846
397.71        87.00132
398.15         86.6228
398.60        86.42194
399.05        86.15855
399.50        85.90157
399.95        85.91621
400.39        86.09544
400.84        86.03822
401.29        85.70493
401.74        85.07815
402.18        84.37934
402.63        84.25367
403.08        84.62542
403.53        84.63988
403.97        84.24969
404.42        84.02404
404.87        83.94267
405.32         83.7857
405.76        83.54453
406.21        83.13493
406.66        82.67471
407.11        82.68028
407.55        83.02924
408.00        82.91601
408.45        82.33691
408.90        81.71426
409.34        81.23138
409.79         81.1731
410.24        81.43223
410.68        81.47629
411.13        81.25705
411.58        81.12897
412.03        81.12463
412.47        81.12252
412.92        81.09321
413.37         81.0925
413.81        81.06802
414.26         81.0012
414.71        80.87007
415.15        80.70606
415.60        80.52424
416.05        80.42837
416.49        80.44662
416.94        80.52962
417.39        80.63673
417.83        80.70018
418.28        80.68546
418.73        80.59404
419.17         80.4354
419.62        80.23154
420.07        80.01089
420.51        79.78242
420.96        79.55641
421.41        79.32851
421.85        79.08301
422.30        78.76968
422.74        78.47071
423.19        78.66255
423.64        79.23046
424.08        79.57624
424.53        79.51575
424.98        79.48936
425.42        79.51024
425.87        79.08541
426.31        78.43476
426.76        78.43148
427.21         78.9668
427.65        79.02727
428.10        78.59911
428.54        78.46794
428.99        78.66794
429.44        78.79653
429.88        78.78617
430.33        78.63494
430.77        78.35929
431.22        78.39198
431.66          78.685
432.11         78.7626
432.56        78.72044
433.00        78.96814
433.45        79.25304
433.89         79.3643
434.34        79.34362
434.78        77.74738
435.23        78.15639
435.67        77.38616
436.12        79.15538
436.57         79.2157
437.01        78.61227
437.46        78.22812
437.90        78.58395
438.35         79.4758
438.79        78.95657
439.24        78.95908
439.68        78.93788
440.13        78.82674
440.57        78.70216
441.02        79.02728
441.46        79.59881
441.91        79.55968
442.35        78.97993
442.80        78.92137
443.24         79.3078
443.69        79.43637
444.13        79.27319
444.58         79.2565
445.02        79.36742
445.47        79.44515
445.91        79.46896
446.36        79.52714
446.80        79.60255
447.24        79.60483
447.69        79.58178
448.13        79.74783
448.58        80.05096
449.02        79.98667
449.47        79.64229
449.91        79.49667
450.36        79.59737
450.80        79.63796
451.25        79.61974
451.69        79.65031
452.13        79.71111
452.58        79.71273
453.02        79.63122
453.47        79.48986
453.91        79.28333
454.36        79.06209
454.80        78.82083
455.24        78.47581
455.69        78.11926
456.13         77.8519
456.58        77.79587
457.02        77.67982
457.46        78.23283
457.91        78.02928
458.35        77.64329
458.79        77.39767
459.24        77.42533
459.68        77.28117
460.13        76.95077
460.57        76.95994
461.01        76.50255
461.46        76.29065
461.90        76.01019
462.34         75.8633
462.79        76.53062
463.23        76.42683
463.68         75.8728
464.12        75.57908
464.56        75.61066
465.01        75.76883
465.45        75.84391
465.89        75.71367
466.34        75.42189
466.78        75.32944
467.22        74.57211
467.67        75.28919
468.11        74.70949
468.55        74.76706
468.99        74.69918
469.44        74.66767
469.88        74.66042
470.32        74.60912
470.77        74.52329
471.21        74.40865
471.65        74.26683
472.10         74.1116
472.54        73.94097
472.98        73.80988
473.42        73.73161
473.87        73.65831
474.31         73.5638
474.75        73.63253
475.20        73.78094
475.64        73.70029
476.08        73.42963
476.52         73.2831
476.97        73.26443
477.41        73.26904
477.85        73.28105
478.29        72.92393
478.74        73.46767
479.18        72.70768
479.62        73.12509
480.06         72.9608
480.50        72.83421
480.95        72.78418
481.39         72.7906
481.83        72.58085
482.27        72.60267
482.72        72.59684
483.16        72.58043
483.60        72.61311
484.04         72.6531
484.48         72.7284
484.93        72.94433
485.37        72.84397
485.81        73.29771
486.25        73.01114
486.69        73.57722
487.14        72.70153
487.58        72.61766
488.02        72.88347
488.46        72.79082
488.90        72.57101
489.34        72.34731
489.79        71.36156
490.23        72.50611
490.67        72.38506
491.11        71.89208
491.55        71.67564
491.99        71.78416
492.43        71.80983
492.88        71.71387
493.32        71.72603
493.76        71.80235
494.20        71.87188
494.64        71.94351
495.08        71.91368
495.52        71.80547
495.96        71.98238
496.41        72.31963
496.85        72.01198
497.29        71.24651
497.73        71.22732
498.17        71.81371
498.61        72.13217
499.05        72.01809
499.49        72.03617
499.93        72.15869
500.37        71.83434
500.82        71.20969
501.26        71.02615
501.70        71.81451
502.14        71.25939
502.58         71.7493
503.02        71.77793
503.46        71.71236
503.90        71.57652
504.34        71.35651
504.78        71.28802
505.22         71.3493
505.66        71.38456
506.10        71.39669
506.54        71.47511
506.98        71.57514
507.42        71.78741
507.86        71.68094
508.30        71.64191
508.74        71.55198
509.18        71.38086
509.62        71.17441
510.06        71.04271
510.50        71.01395
510.94         71.0574
511.38        71.14069
511.82        71.20538
512.26         71.2299
512.70        71.23367
513.14        71.23009
513.58        71.21307
514.02        71.18481
514.46        71.19063
514.90        71.24162
515.34        71.10732
515.78        71.19707
516.22        71.17812
516.66        71.17925
517.10        71.19728
517.54        71.23325
517.98        71.28288
518.42        71.31492
518.86        71.29128
519.30        71.20692
519.74        71.07439
520.18        70.94299
520.62        70.88885
521.06        70.92767
521.50        71.03894
521.93        71.16782
522.37        71.21078
522.81        71.14792
523.25        71.00285
523.69        70.83764
524.13        70.74887
524.57        70.75979
525.01        70.84668
525.45        70.94003
525.89        70.93042
526.32        70.79336
526.76        70.57845
527.20        70.37408
527.64         70.3274
528.08        70.46185
528.52        70.71873
528.96        70.99236
529.40          71.119
529.83        71.05494
530.27        70.87274
530.71        70.63752
531.15        70.46178
531.59        70.38248
532.03        70.36097
532.46        70.38116
532.90        70.43994
533.34         70.5174
533.78        70.62309
534.22        70.71696
534.66        70.73434
535.09        70.65757
535.53        70.51836
535.97        70.36517
536.41        70.29671
536.85        70.33339
537.28        70.45067
537.72        70.58144
538.16        70.60658
538.60        70.50477
539.04        70.33076
539.47        70.13783
539.91         70.0452
540.35        70.05888
540.79        70.15701
541.22        70.27088
541.66        70.29948
542.10        70.21932
542.54        70.07106
542.97        69.91034
543.41        69.86052
543.85        69.92963
544.29        70.07846
544.72        70.24033
545.16        70.34113
545.60        70.34106
546.04        70.28453
546.47        70.19524
546.91        70.06324
547.35        69.94073
547.79        69.90743
548.22        70.08371
548.66        69.99275
549.10        69.72327
549.53        69.65691
549.97        69.80479
550.41        69.87085
550.84        69.81213
551.28        69.88646
551.72        70.09575
552.15        70.03981
552.59        69.65791
553.03        70.26645
553.46        69.68202
553.90        69.71675
554.34        69.71119
554.77        69.88262
555.21        69.82011
555.65        69.88466
556.08        69.86509
556.52        69.70682
556.96        69.45187
557.39        69.44862
557.83        69.66603
558.27        69.65392
558.70        69.42934
559.14        69.36452
559.57        69.45521
560.01        69.52094
560.45        69.52077
560.88        69.51732
561.32        69.55664
561.75        69.47735
562.19        69.34652
562.63        69.46947
563.06        69.73466
563.50        69.54619
563.93        69.01304
564.37        68.91914
564.80        69.23722
565.24        69.47689
565.68        69.57103
566.11        69.66603
566.55        69.75792
566.98        69.80221
567.42        69.81013
567.85        69.65136
568.29        69.45567
568.72        69.43279
569.16        69.58723
569.60        69.74655
570.03         69.9124
570.47        69.82412
570.90         69.7599
571.34         70.2642
571.77         70.1614
572.21        69.72861
572.64        70.12365
573.08        69.57292
573.51        69.65996
573.95         69.7665
574.38        70.10873
574.82        70.04585
