SpectraSmart Spectrum 2.9.0.0
--------- Device Information -----------
Spectrum Name :  反射率_0
Saving Time :  2024/04/27 23:37:55
Spectro-Module Model Name : SE2030-DUVN
Spectro-Module Serial Number : OS361AC55029948
Wavelength Start : 200
Wavelength End : 1025
Wavelength Unit : Wavelength(nm)
Spectrum Unit : Reflectance(%)
-----------Spectrum Setting ------------
Integration Time : 20ms
Average : 10
Boxcar : 0
Background removal :  enabled
linearity correction :  enabled
SC :  disabled
Intensity correction :  disabled
DWT denoise :  enabled
savitzky-golay :  disabled
FFT :  disabled
Running average :  disabled
Kalman :  disabled
High pass :  disabled
---------------BEGIN--------------------
Wavelength(nm)             Reflectance(%)
200.29               0
200.75        47.47479
201.21        65.48523
201.67        79.48576
202.13        85.72506
202.58        86.95025
203.04        86.07552
203.50        83.86189
203.96        81.58675
204.42         79.9021
204.88        78.31172
205.34        77.36802
205.80        77.78315
206.26        79.49994
206.72        82.85268
207.18        86.94888
207.64        85.79961
208.10         78.3864
208.55        71.29597
209.01        65.69355
209.47        60.32745
209.93        52.45861
210.39        34.17102
210.85       -16.64399
211.31       -62.02792
211.77        22.90579
212.23         69.9922
212.69        83.81959
213.14        84.43255
213.60        76.43202
214.06        58.12669
214.52        26.52486
214.98        4.061682
215.44        14.84747
215.90        38.00784
216.36        56.54185
216.81        65.16049
217.27        66.64227
217.73          64.724
218.19        60.68726
218.65        55.97715
219.11        51.47455
219.57        46.49931
220.02         41.7485
220.48        40.70501
220.94         43.7532
221.40        49.29047
221.86        55.73503
222.32        61.53909
222.77        66.18909
223.23        69.82507
223.69        71.68966
224.15        70.86391
224.61        67.51065
225.06        61.73498
225.52        55.46261
225.98        52.40524
226.44        53.15782
226.90        55.75372
227.36        57.99503
227.81        57.97455
228.27         55.7501
228.73        51.93312
229.19        47.26818
229.65         43.5383
230.10        41.57185
230.56        41.10331
231.02        41.48464
231.48        41.90459
231.93        42.02921
232.39        42.20239
232.85        42.52874
233.31        43.15214
233.77        44.05986
234.22        45.18624
234.68        46.15738
235.14        46.66157
235.60        46.67701
236.05        46.19048
236.51        45.83036
236.97        46.74517
237.43        49.22072
237.88        53.00336
238.34        56.60624
238.80        58.84014
239.26        59.50312
239.71         58.4223
240.17         55.9177
240.63        55.43752
241.08        59.28153
241.54        64.54274
242.00        68.19082
242.46        69.04166
242.91        67.31537
243.37        61.79448
243.83        50.04044
244.28        36.53574
244.74        39.27245
245.20        56.33894
245.66        69.60217
246.11        72.54775
246.57        67.10255
247.03        53.02874
247.48        30.06575
247.94        13.87015
248.40        20.97249
248.85         41.7819
249.31        63.50981
249.77        76.15038
250.22        80.04364
250.68        79.76031
251.14        77.44999
251.59        74.28741
252.05        70.34727
252.51        64.13058
252.96        55.23254
253.42        48.36555
253.88        47.23297
254.33        50.64616
254.79         55.0843
255.25        57.55109
255.70         58.1903
256.16        58.41165
256.62        58.83195
257.07         60.1004
257.53        62.11148
257.99        63.82706
258.44        64.62576
258.90        64.40334
259.35        63.04366
259.81        61.34232
260.27        59.36495
260.72        57.24401
261.18        55.45777
261.63        53.74425
262.09        52.38662
262.55         51.3168
263.00        50.39767
263.46         49.7064
263.91        49.06082
264.37        48.54029
264.83         48.0535
265.28        47.57247
265.74        47.07657
266.19        46.34402
266.65        45.43953
267.11         44.3791
267.56        43.30431
268.02        42.54609
268.47        42.11121
268.93        41.90067
269.38        41.73752
269.84        41.36738
270.30        40.71717
270.75        39.88457
271.21        38.92457
271.66        37.87611
272.12        36.81499
272.57        35.70158
273.03        34.70098
273.48        33.98588
273.94        33.61791
274.39        33.49597
274.85         33.4577
275.31        33.18781
275.76        32.61193
276.22        31.84908
276.67        31.02826
277.13        30.43322
277.58        30.05927
278.04        29.85925
278.49        29.62911
278.95        29.18821
279.40        28.46564
279.86        27.60837
280.31        26.75372
280.77        26.20615
281.22        25.97249
281.68         25.9917
282.13        26.06301
282.59        25.95417
283.04        25.60963
283.50        25.12173
283.95        24.63926
284.41        24.42284
284.86         24.4949
285.32        24.76923
285.77        25.05387
286.22        25.11087
286.68        24.91779
287.13        24.53918
287.59        24.14722
288.04        23.92649
288.50        23.94807
288.95        24.10785
289.41        24.33049
289.86        24.46293
290.32        24.48483
290.77        24.44435
291.22        24.38882
291.68        24.37639
292.13        24.42719
292.59        24.54295
293.04        24.73335
293.50        25.04059
293.95        25.46162
294.40        26.00095
294.86        26.64052
295.31        27.33681
295.77        28.08414
296.22        28.87601
296.68         29.7204
297.13        30.60688
297.58         31.5273
298.04        32.46331
298.49        33.40694
298.95        34.37548
299.40        35.37495
299.85        36.42002
300.31        37.51306
300.76         38.6048
301.21        39.69303
301.67        40.79015
302.12        41.90484
302.58         43.1105
303.03        44.38687
303.48        45.71736
303.94         47.0784
304.39        48.37217
304.84        49.60363
305.30        50.81255
305.75        51.98936
306.20        53.18296
306.66        54.41888
307.11        55.63724
307.57        56.87375
308.02        58.09067
308.47        59.28717
308.93        60.46946
309.38        61.56134
309.83        62.51452
310.29        63.34683
310.74        64.06128
311.19        64.74377
311.65        65.51416
312.10        66.36531
312.55         67.2607
313.00        68.13347
313.46        68.88641
313.91        69.48846
314.36        69.98856
314.82         70.4107
315.27        70.78749
315.72        71.14011
316.18        71.46681
316.63        71.79263
317.08        72.19128
317.53        72.67028
317.99        73.20502
318.44        73.73412
318.89        74.13147
319.35        74.36719
319.80        74.48392
320.25        74.54462
320.70        74.66157
321.16        74.86051
321.61        75.12386
322.06        75.41677
322.51        75.68855
322.97        75.91008
323.42        76.12775
323.87        76.33416
324.32        76.52933
324.78        76.70621
325.23        76.88393
325.68        77.06428
326.13        77.27638
326.59        77.50184
327.04        77.76509
327.49        78.03201
327.94         78.2715
328.39        78.47652
328.85        78.64174
329.30        78.81062
329.75        78.95183
330.20        79.07306
330.66        79.15607
331.11        79.29789
331.56        79.56303
332.01        79.97073
332.46        80.50082
332.92        81.04583
333.37        81.52307
333.82        81.85383
334.27        82.06463
334.72        82.22625
335.17        82.46545
335.63        82.80261
336.08         83.2466
336.53        83.71633
336.98        84.11093
337.43        84.40581
337.88        84.63753
338.34         84.8686
338.79        85.23183
339.24        85.74542
339.69        86.37567
340.14        87.03603
340.59        87.58923
341.05        88.00056
341.50         88.3121
341.95        88.60474
342.40        89.02412
342.85        89.59633
343.30        90.25938
343.75        90.92017
344.20        91.43071
344.66        91.75893
345.11        91.96246
345.56        92.09136
346.01        92.21938
346.46        92.38432
346.91        92.56374
347.36        92.80375
347.81        93.17526
348.26        93.67522
348.72        94.28292
349.17        94.88726
349.62        95.31992
350.07        95.53877
350.52        95.58739
350.97        95.56211
351.42        95.62518
351.87        95.81805
352.32        96.08733
352.77        96.36258
353.22         96.5388
353.67          96.586
354.13        96.55154
354.58        96.44657
355.03        96.34534
355.48        96.26364
355.93        96.17666
356.38        96.04834
356.83         95.8254
357.28        95.50341
357.73        95.11674
358.18        94.70737
358.63          94.333
359.08         94.0136
359.53        93.73359
359.98         93.4826
360.43         93.2447
360.88        93.00421
361.33        92.75361
361.78         92.4762
362.23        92.15231
362.68        91.77388
363.13        91.33625
363.58        90.83366
364.03        90.30389
364.48        89.68925
364.93        89.06474
365.38        88.44061
365.83        87.86456
366.28        87.34843
366.73        86.88079
367.18        86.45444
367.63        86.05002
368.08        85.65835
368.53        85.28822
368.98        84.91416
369.43        84.49551
369.88        84.02715
370.33        83.51344
370.78        83.00601
371.23        82.59488
371.68        82.29085
372.13        82.05861
372.58        81.82671
373.03        81.47714
373.48        80.98684
373.93        80.40891
374.38        79.79326
374.83        79.21579
375.28        78.70602
375.72        78.21916
376.17        77.81123
376.62        77.50562
377.07        77.28777
377.52        77.13605
377.97        76.96307
378.42        76.63106
378.87          76.122
379.32        75.49403
379.77        74.83188
380.22        74.26151
380.67        73.82149
381.11        73.48105
381.56        73.22369
382.01        73.02888
382.46        72.88021
382.91        72.78151
383.36        72.69674
383.81        72.56619
384.26        72.37243
384.71        72.12186
385.15        71.82463
385.60        71.55918
386.05          71.327
386.50        71.11774
386.95        70.92101
387.40        70.72243
387.85         70.5219
388.29        70.28474
388.74        70.09634
389.19        69.91762
389.64        69.72949
390.09        69.49996
390.54        69.23483
390.98        68.93364
391.43        68.65675
391.88        68.42279
392.33        68.15037
392.78         67.8307
393.23        67.50605
393.67         66.8962
394.12        66.24239
394.57        66.69561
395.02        67.09006
395.47        67.21465
395.91        66.77609
396.36        66.64614
396.81        66.84981
397.26        66.89233
397.71        66.73176
398.15        66.56245
398.60        66.47017
399.05        66.14892
399.50        65.75921
399.95        65.96828
400.39        66.58817
400.84        66.54585
401.29        65.85426
401.74        65.33159
402.18        65.12253
402.63        65.02283
403.08         65.0023
403.53        64.91854
403.97        64.76666
404.42         64.7502
404.87        64.82292
405.32        64.85145
405.76        64.81183
406.21          64.617
406.66        64.38098
407.11        64.54485
407.55        65.00058
408.00        65.11808
408.45        64.85011
408.90         64.3427
409.34        63.81626
409.79        63.86458
410.24        64.36454
410.68        64.51764
411.13        64.27206
411.58        64.13918
412.03        64.17771
412.47        64.23679
412.92        64.29826
413.37        64.41434
413.81        64.53527
414.26        64.63653
414.71        64.69621
415.15        64.74237
415.60        64.76073
416.05        64.78686
416.49        64.83678
416.94        64.88601
417.39         64.9592
417.83        65.09412
418.28         65.2836
418.73        65.50211
419.17        65.70113
419.62        65.80417
420.07         65.8026
420.51         65.7286
420.96        65.62275
421.41        65.52567
421.85        65.43659
422.30        65.31471
422.74        65.21102
423.19        65.46313
423.64        66.00001
424.08        66.43594
424.53        66.59779
424.98        66.74291
425.42        66.87926
425.87        66.62928
426.31        66.19635
426.76        66.38734
427.21        67.09801
427.65        67.32977
428.10        67.07031
428.54        67.10634
428.99        67.47819
429.44        67.82169
429.88        68.02007
430.33        67.96707
430.77        67.73445
431.22        67.75527
431.66        68.06145
432.11        68.58401
432.56        69.26247
433.00        69.55326
433.45        69.17545
433.89        69.22394
434.34        69.89603
434.78        68.27629
435.23        68.06241
435.67        69.33076
436.12        70.20261
436.57        70.72372
437.01        70.21324
437.46        70.05579
437.90        70.72148
438.35        71.18891
438.79        70.99411
439.24        71.05809
439.68        71.27943
440.13        71.51266
440.57        71.72121
441.02        72.23728
441.46        72.81977
441.91        72.48379
442.35        71.53979
442.80        71.67146
443.24        72.70602
443.69        73.08264
444.13        72.72845
444.58        72.73716
445.02        73.08251
445.47        73.21803
445.91        73.15723
446.36        73.12544
446.80        73.10464
447.24        73.18551
447.69        73.48441
448.13        73.13644
448.58        73.97731
449.02        74.03703
449.47         73.9051
449.91        73.89055
450.36        74.03741
450.80        74.07252
451.25        74.03593
451.69         74.1401
452.13        74.37925
452.58        74.63044
453.02        74.83171
453.47        74.91055
453.91        74.83273
454.36        74.75098
454.80        74.64471
455.24         74.1937
455.69        73.81548
456.13        73.57397
456.58        73.58797
457.02        73.88912
457.46        74.18181
457.91        73.91338
458.35        73.43001
458.79        73.17275
459.24          73.258
459.68        73.29012
460.13        73.30123
460.57        73.14695
461.01        73.14694
461.46        73.15905
461.90        73.34571
462.34        72.89701
462.79        72.93701
463.23        72.90694
463.68        73.08627
464.12        72.99744
464.56        72.74445
465.01         72.9248
465.45        73.27534
465.89        73.36209
466.34        73.24274
466.78        72.72599
467.22        71.93439
467.67         72.8982
468.11        72.91723
468.55        72.94025
468.99        72.27951
469.44        72.07537
469.88        72.35074
470.32        72.49306
470.77        72.44861
471.21        72.38187
471.65        72.28645
472.10        72.14196
472.54        71.95661
472.98        71.83458
473.42        71.80588
473.87        71.71419
474.31        71.57551
474.75        71.87348
475.20        72.42519
475.64        72.33532
476.08        71.69274
476.52        71.51505
476.97        71.85308
477.41        71.82043
477.85        71.80762
478.29        72.03835
478.74        72.13889
479.18        71.76048
479.62        72.09233
480.06        71.95766
480.50        71.68642
480.95        71.67882
481.39         72.0316
481.83         71.0949
482.27        71.57423
482.72        71.88469
483.16        71.77039
483.60        71.85359
484.04        71.83804
484.48        71.63467
484.93        71.45549
485.37        71.62251
485.81        72.05393
486.25        72.22411
486.69        72.92828
487.14        71.81053
487.58        71.83577
488.02        72.18015
488.46         72.1767
488.90        72.12289
489.34        71.95158
489.79        70.73741
490.23        71.64554
490.67          71.568
491.11        71.41064
491.55        71.33018
491.99        71.34962
492.43        71.37229
492.88        71.35863
493.32        71.35394
493.76        71.33209
494.20        71.35861
494.64        71.45725
495.08        71.45576
495.52        71.39502
495.96        71.71344
496.41        72.25677
496.85        72.11331
497.29        71.41833
497.73        71.37105
498.17        71.83837
498.61        72.00955
499.05        71.81456
499.49        71.78023
499.93        71.86983
500.37         71.8681
500.82        71.81825
501.26        71.30022
501.70        71.55378
502.14        71.34406
502.58          71.688
503.02        71.84669
503.46          71.716
503.90        71.65019
504.34        71.59685
504.78        71.60819
505.22        71.64671
505.66        71.65392
506.10        71.63868
506.54        71.55653
506.98        71.37109
507.42         71.6622
507.86        71.34441
508.30         71.3846
508.74          71.459
509.18        71.57594
509.62        71.66943
510.06        71.65688
510.50        71.53451
510.94        71.32052
511.38        71.10225
511.82        71.01582
512.26        71.08829
512.70        71.27937
513.14        71.50726
513.58        71.61125
514.02         71.5513
514.46        71.42686
514.90        71.31616
515.34        71.09248
515.78        71.19653
516.22        71.25773
516.66        71.36506
517.10        71.45825
517.54        71.51804
517.98        71.55746
518.42        71.56625
518.86        71.53554
519.30        71.47015
519.74        71.37671
520.18        71.28049
520.62        71.22266
521.06        71.21638
521.50        71.25385
521.93        71.32918
522.37        71.41467
522.81        71.50146
523.25        71.58569
523.69        71.65765
524.13        71.70383
524.57        71.72054
525.01        71.71129
525.45        71.67272
525.89         71.6024
526.32        71.50119
526.76        71.38776
527.20        71.28681
527.64        71.24432
528.08        71.26635
528.52         71.3363
528.96        71.41868
529.40         71.4557
529.83        71.42633
530.27        71.36282
530.71        71.27631
531.15        71.19551
531.59        71.13338
532.03         71.0816
532.46        71.04181
532.90        71.04042
533.34        71.06995
533.78        71.12199
534.22        71.17527
534.66        71.19639
535.09        71.16753
535.53        71.11837
535.97        71.04662
536.41        70.96574
536.85        70.88769
537.28        70.81956
537.72        70.77175
538.16        70.75143
538.60        70.76051
539.04        70.80227
539.47        70.85995
539.91        70.94719
540.35        71.03932
540.79        71.15082
541.22        71.22586
541.66        71.18627
542.10        71.02538
542.54        70.77157
542.97        70.51993
543.41        70.45877
543.85        70.60291
544.29        70.89869
544.72        71.21117
545.16        71.35906
545.60        71.28128
546.04        71.04715
546.47        70.76043
546.91        70.56179
547.35        70.50797
547.79        70.63737
548.22          70.828
548.66        70.83999
549.10        70.65915
549.53        70.52074
549.97        70.48441
550.41        70.49434
550.84        70.56176
551.28        70.73168
551.72        70.95741
552.15        71.10149
552.59        71.08264
553.03        71.13898
553.46        70.89446
553.90        70.75656
554.34        70.54452
554.77        71.26924
555.21        71.06811
555.65         71.0283
556.08        71.06298
556.52        70.88699
556.96        70.70012
557.39        70.74548
557.83         71.0037
558.27        71.06023
558.70        70.91854
559.14        70.88451
559.57        70.94221
560.01        71.01403
560.45        71.04527
560.88        70.89661
561.32        70.70729
561.75        70.71474
562.19         70.9268
562.63        71.18943
563.06        71.36961
563.50        71.19746
563.93        70.75623
564.37        70.56407
564.80        70.63789
565.24        70.73943
565.68        70.81864
566.11        70.89707
566.55        70.98078
566.98        71.06258
567.42        71.14505
567.85        71.15401
568.29        71.16214
568.72        71.12178
569.16        71.08358
569.60         71.2608
570.03        71.49477
570.47        71.31555
570.90        71.55716
571.34           71.76
571.77        71.79305
572.21        71.45718
572.64        71.68313
573.08        71.20443
573.51         71.4029
573.95        71.43961
574.38        71.59924
574.82        71.44801
