SpectraSmart Spectrum 2.9.0.0
--------- Device Information -----------
Spectrum Name :  反射率_0
Saving Time :  2024/05/01 16:26:36
Spectro-Module Model Name : SE2030-DUVN
Spectro-Module Serial Number : OS361AC55029948
Wavelength Start : 200
Wavelength End : 1025
Wavelength Unit : Wavelength(nm)
Spectrum Unit : Reflectance(%)
-----------Spectrum Setting ------------
Integration Time : 20ms
Average : 10
Boxcar : 0
Background removal :  enabled
linearity correction :  enabled
SC :  disabled
Intensity correction :  disabled
DWT denoise :  enabled
savitzky-golay :  disabled
FFT :  disabled
Running average :  disabled
Kalman :  disabled
High pass :  disabled
---------------BEGIN--------------------
Wavelength(nm)             Reflectance(%)
200.29               0
200.75        88.92361
201.21        540.5091
201.67       -246.1351
202.13       -77.23754
202.58       -13.03931
203.04        28.91841
203.50        56.05233
203.96        68.41523
204.42        68.89194
204.88        50.79189
205.34       -491.8199
205.80        159.5271
206.26        117.3836
206.72         85.5098
207.18       -24.32331
207.64        263.0239
208.10        153.3958
208.55        124.1321
209.01        107.5493
209.47         95.9197
209.93        86.62411
210.39         76.2604
210.85        66.70786
211.31        61.76051
211.77        66.29691
212.23       -20.07337
212.69        30.21165
213.14        39.85368
213.60        64.81452
214.06       -186.5579
214.52       -10.16244
214.98        3.992417
215.44         11.8231
215.90        24.86851
216.36        190.8984
216.81       -61.66498
217.27       -70.48395
217.73        137.4268
218.19        21.40538
218.65      -0.7720097
219.11       -30.97596
219.57       -117.5304
220.02       -460.6718
220.48       -221.3121
220.94       -40.82078
221.40        5.533947
221.86        21.96269
222.32        28.35902
222.77        31.18434
223.23        32.71344
223.69        33.36932
224.15        33.28542
224.61        32.87302
225.06        31.92594
225.52        31.84019
225.98        33.29834
226.44        36.36007
226.90        41.37912
227.36        47.24851
227.81        48.84379
228.27        44.88449
228.73        39.09677
229.19        34.43002
229.65        32.16209
230.10        31.83187
230.56        33.03052
231.02         35.4666
231.48        37.97162
231.93        39.52478
232.39        40.51193
232.85        41.20363
233.31        42.01695
233.77        43.02307
234.22        44.00345
234.68        44.95938
235.14        46.10762
235.60        47.61789
236.05        49.85592
236.51        52.88244
236.97        55.88308
237.43        57.65269
237.88        57.72804
238.34        56.59385
238.80        56.16647
239.26        57.17102
239.71        60.15744
240.17        64.63087
240.63        66.83041
241.08        63.65564
241.54        57.12268
242.00        52.56168
242.46        54.65394
242.91        65.30638
243.37        87.01843
243.83        122.8948
244.28        147.9443
244.74        136.7274
245.20        112.3956
245.66         92.5136
246.11        80.50454
246.57        72.91055
247.03        65.30322
247.48        55.31426
247.94        43.62994
248.40        34.84877
248.85        32.09964
249.31        36.14918
249.77         42.5206
250.22        48.47065
250.68        53.25478
251.14        57.06452
251.59        61.00967
252.05        66.57355
252.51        76.98911
252.96        100.6371
253.42        141.5074
253.88        151.9987
254.33        124.0545
254.79        102.9904
255.25        93.20587
255.70        88.37827
256.16        86.00819
256.62        84.37209
257.07        82.54295
257.53        81.22597
257.99           80.23
258.44        79.26969
258.90         78.7123
259.35        78.02878
259.81        77.42611
260.27        76.75549
260.72         75.9771
261.18        75.38235
261.63        74.60118
262.09        73.75018
262.55        72.42952
263.00        70.57663
263.46        68.56952
263.91        66.47757
264.37        64.80488
264.83        63.50589
265.28        62.44398
265.74        61.51125
266.19        60.23766
266.65        58.71331
267.11        56.99845
267.56         55.4287
268.02        54.62755
268.47        54.62411
268.93        55.16367
269.38        55.76994
269.84        55.63821
270.30        54.59658
270.75        52.88573
271.21        50.92624
271.66        49.22021
272.12        47.98332
272.57        46.99051
273.03        46.16771
273.48        45.33273
273.94        44.47107
274.39        43.64071
274.85        42.86356
275.31        42.05463
275.76        41.19953
276.22        40.36524
276.67         39.5579
277.13        38.93452
277.58        38.42788
278.04        38.02311
278.49        37.61323
278.95        37.17739
279.40        36.64293
279.86        36.08514
280.31        35.44189
280.77        34.74191
281.22        33.95394
281.68        33.16388
282.13        32.38301
282.59        31.72724
283.04        31.18402
283.50        30.78277
283.95        30.48827
284.41        30.30601
284.86        30.20613
285.32        30.19456
285.77        30.25764
286.22        30.42978
286.68        30.69634
287.13        31.00412
287.59        31.27792
288.04        31.35303
288.50        31.23744
288.95        30.95859
289.41        30.66368
289.86        30.47187
290.32        30.45775
290.77        30.57937
291.22         30.8109
291.68        31.09555
292.13        31.41466
292.59        31.82527
293.04        32.33943
293.50        33.02353
293.95        33.86726
294.40        34.85447
294.86        35.94842
295.31        37.10215
295.77        38.29122
296.22        39.50963
296.68        40.76586
297.13         42.0568
297.58        43.40923
298.04        44.84621
298.49        46.35458
298.95        47.95105
299.40        49.59586
299.85         51.2663
300.31         52.9986
300.76        54.83635
301.21        56.80071
301.67        58.89092
302.12          60.952
302.58        62.76798
303.03        64.25155
303.48        65.49516
303.94        66.74979
304.39        68.28333
304.84        70.21291
305.30         72.4371
305.75        74.75237
306.20        76.86989
306.66        78.70407
307.11         80.2859
307.57        81.73306
308.02        83.10768
308.47        84.48469
308.93        85.83501
309.38        87.11534
309.83        88.36021
310.29        89.58573
310.74        90.78589
311.19        91.94242
311.65        92.99494
312.10        93.91251
312.55        94.70683
313.00        95.47719
313.46        96.38564
313.91        97.44018
314.36        98.58968
314.82        99.63374
315.27        100.2643
315.72        100.4111
316.18        100.2167
316.63         99.8852
317.08        99.79788
317.53        100.0548
317.99        100.5528
318.44        101.1613
318.89        101.6322
319.35        101.8932
319.80         102.051
320.25        102.1744
320.70        102.3736
321.16          102.67
321.61        103.0156
322.06        103.4176
322.51        103.9194
322.97        104.4765
323.42        105.1115
323.87        105.6604
324.32        105.8766
324.78        105.7102
325.23        105.2782
325.68        104.7641
326.13        104.4932
326.59        104.5437
327.04        104.8853
327.49        105.3951
327.94        105.8807
328.39        106.2595
328.85         106.532
329.30        106.8044
329.75        107.0935
330.20        107.4141
330.66        107.7185
331.11        107.9975
331.56        108.1193
332.01        108.0877
332.46        107.9518
332.92        107.8696
333.37        108.2066
333.82        109.0069
334.27        110.1998
334.72        111.5387
335.17        112.5782
335.63        113.1405
336.08        113.3689
336.53        113.4485
336.98         113.766
337.43        114.4286
337.88        115.3201
338.34         116.209
338.79        116.8049
339.24        116.9863
339.69        116.8703
340.14        116.6843
340.59        116.7713
341.05        117.2132
341.50        117.9312
341.95        118.7153
342.40        119.2289
342.85        119.3987
343.30        119.3473
343.75         119.299
344.20        119.5978
344.66        120.3052
345.11        121.2791
345.56        122.3242
346.01        123.1122
346.46         123.539
346.91        123.7287
347.36        123.7612
347.81        123.7563
348.26         123.784
348.72        123.8149
349.17        123.9089
349.62        124.2389
350.07        124.7869
350.52        125.4602
350.97        126.0738
351.42        126.3109
351.87         126.106
352.32        125.6113
352.77         124.878
353.22        123.9952
353.67        123.0548
354.13        122.0629
354.58        121.2453
355.03        121.0634
355.48         121.552
355.93         122.601
356.38        123.6815
356.83        123.8933
357.28        123.0496
357.73        121.4323
358.18        119.6746
358.63        118.7277
359.08        118.7733
359.53        119.4944
359.98        120.3767
360.43        120.5671
360.88        119.8273
361.33        118.4624
361.78        116.8578
362.23        115.5447
362.68        114.6728
363.13        114.0798
363.58        113.5806
364.03        112.9131
364.48        112.0023
364.93        110.9302
365.38        109.8842
365.83        109.1171
366.28        108.6585
366.73        108.4289
367.18        108.1215
367.63        107.2646
368.08        105.8128
368.53        103.9622
368.98        102.1611
369.43        101.0545
369.88        100.7544
370.33        101.0532
370.78        101.5592
371.23        101.5832
371.68        100.9202
372.13        99.79996
372.58        98.51305
373.03        97.48989
373.48        96.84081
373.93        96.39559
374.38         96.0563
374.83        95.68723
375.28        95.23046
375.72        94.74717
376.17        94.22197
376.62        93.54972
377.07        92.73395
377.52        91.79119
377.97        90.86754
378.42        90.20503
378.87        89.84606
379.32        89.72162
379.77        89.65314
380.22        89.35637
380.67        88.77208
381.11        87.99609
381.56        87.18551
382.01         86.6227
382.46        86.38293
382.91        86.36646
383.36          86.434
383.81        86.37577
384.26        86.12353
384.71        85.73618
385.15        85.26429
385.60        84.83617
386.05        84.47303
386.50        84.14191
386.95        83.80119
387.40         83.4015
387.85        82.94037
388.29        82.39657
388.74        81.92634
389.19        81.55405
389.64        81.28243
390.09         81.0751
390.54        80.86024
390.98        80.54096
391.43        80.16453
391.88         79.6715
392.33        79.14088
392.78        78.90612
393.23        78.88652
393.67        78.49057
394.12        77.87719
394.57        77.71753
395.02        77.91063
395.47        77.66298
395.91        77.05441
396.36        76.78751
396.81        76.89262
397.26        77.02728
397.71        77.05201
398.15        76.87288
398.60        76.55165
399.05        76.03114
399.50        75.49434
399.95        75.31633
400.39        75.48667
400.84        75.58421
401.29        75.51348
401.74        75.37849
402.18        75.15196
402.63        74.71078
403.08        74.16895
403.53        73.74818
403.97         73.4816
404.42        73.31767
404.87        73.22974
405.32        73.14601
405.76        73.02737
406.21        73.03589
406.66        73.11398
407.11        72.88304
407.55        72.48982
408.00        72.57756
408.45         73.0585
408.90        73.18945
409.34        72.86483
409.79        72.38247
410.24        71.90214
410.68        71.62314
411.13        71.60164
411.58        71.70998
412.03         71.8567
412.47        71.94237
412.92        71.89584
413.37        71.77175
413.81        71.59895
414.26        71.47819
414.71        71.41589
415.15        71.39391
415.60        71.39791
416.05        71.46801
416.49        71.59917
416.94          71.768
417.39        71.92438
417.83        71.97275
418.28        71.90012
418.73        71.74429
419.17        71.54266
419.62        71.36421
420.07        71.22677
420.51        71.09441
420.96        71.03953
421.41        71.03072
421.85        71.03405
422.30        71.28538
422.74        71.62952
423.19        71.50314
423.64         71.0511
424.08        71.24794
424.53        72.01025
424.98        72.36344
425.42        72.20529
425.87        72.27178
426.31        72.55918
426.76        72.19572
427.21        71.48682
427.65        71.94669
428.10        73.17989
428.54        73.42529
428.99        72.74217
429.44         71.6693
429.88        70.68449
430.33        71.49754
430.77        73.41939
431.22        73.15399
431.66        71.33817
432.11        70.76542
432.56          71.645
433.00        72.17683
433.45        72.17051
433.89         71.9902
434.34        71.42856
434.78        72.99885
435.23        72.78991
435.67         72.9221
436.12        72.44511
436.57        72.79321
437.01        73.84109
437.46          74.243
437.90        73.94519
438.35        73.77662
438.79         73.7677
439.24        73.45962
439.68        72.97079
440.13        72.97852
440.57        73.46275
441.02        73.71454
441.46        73.62261
441.91        74.19118
442.35        74.29572
442.80        74.35757
443.24        74.31149
443.69        74.24063
444.13        74.22593
444.58        74.20006
445.02        74.12858
445.47        74.20501
445.91        74.46155
446.36        74.52684
446.80        74.29488
447.24        75.38856
447.69        74.98997
448.13         75.2348
448.58        75.30011
449.02        75.25002
449.47        75.13606
449.91        75.04874
450.36        75.05673
450.80        75.09306
451.25        75.13656
451.69        75.10046
452.13        74.97404
452.58        74.79747
453.02        74.63066
453.47        74.50389
453.91         74.3998
454.36        74.50521
454.80        74.78426
455.24        74.20483
455.69        74.25494
456.13        73.88253
456.58        73.67553
457.02        73.34284
457.46        73.23191
457.91        73.76809
458.35        74.67284
458.79        74.83808
459.24         74.1918
459.68        73.43362
460.13        72.93963
460.57        71.84656
461.01        72.33598
461.46        72.48722
461.90        72.60262
462.34        73.39589
462.79        72.46297
463.23        72.50489
463.68        72.77023
464.12        72.76941
464.56        72.49812
465.01        72.38104
465.45        72.35708
465.89        72.36086
466.34        72.35099
466.78        72.14383
467.22        71.79503
467.67        71.70573
468.11        71.71165
468.55        71.81896
468.99        71.90513
469.44        71.94204
469.88         71.9164
470.32        71.83096
470.77        71.72734
471.21        71.69292
471.65        71.72617
472.10        71.80605
472.54        71.86835
472.98        71.82188
473.42        71.64536
473.87        71.48043
474.31        71.31871
474.75         70.9916
475.20        70.62725
475.64        70.72461
476.08        71.17952
476.52        71.29874
476.97        70.98885
477.41        71.19683
477.85        70.54974
478.29        71.07039
478.74        71.12312
479.18        71.56556
479.62         70.6442
480.06        70.57324
480.50        70.94643
480.95        70.33107
481.39         71.1621
481.83        70.19559
482.27        70.39565
482.72        70.63815
483.16          70.334
483.60        70.51043
484.04        70.70567
484.48        70.79642
484.93        71.08634
485.37        71.46105
485.81        71.19808
486.25        72.43436
486.69        72.39966
487.14         69.6407
487.58        68.62353
488.02        71.05034
488.46        70.34975
488.90        69.93941
489.34        71.11026
489.79        70.34857
490.23        70.48433
490.67        70.03913
491.11        69.77528
491.55        69.95431
491.99        70.42838
492.43        70.57639
492.88        70.31578
493.32        70.06397
493.76        69.90405
494.20        69.81982
494.64        69.83416
495.08        69.90112
495.52         70.0176
495.96        70.15736
496.41        70.25558
496.85        70.39577
497.29        70.51082
497.73        70.00514
498.17        69.74903
498.61        69.44782
499.05        69.43604
499.49        69.71918
499.93        70.13987
500.37        70.29147
500.82        70.19987
501.26        70.05825
501.70        70.19776
502.14        70.51984
502.58        70.18853
503.02        70.07965
503.46        69.93955
503.90        69.73943
504.34        69.55322
504.78        69.53503
505.22        69.71048
505.66        70.03153
506.10        70.36507
506.54        70.48082
506.98        70.32915
507.42          69.992
507.86        69.60253
508.30        69.35594
508.74        69.30718
509.18        69.41375
509.62        69.62267
510.06        69.73829
510.50        69.89048
510.94        69.97255
511.38        70.02863
511.82        70.04227
512.26        70.01582
512.70        69.92814
513.14        69.78824
513.58        69.70611
514.02         69.7101
514.46        69.63958
514.90        69.41788
515.34        69.71896
515.78        69.26485
516.22        69.10917
516.66        68.94003
517.10        68.88842
517.54        68.96459
517.98        69.14394
518.42        69.37642
518.86        69.54369
519.30        69.61365
519.74        69.61468
520.18        69.57217
520.62        69.53185
521.06        69.50799
521.50        69.47761
521.93        69.44663
522.37        69.41763
522.81        69.39554
523.25        69.39243
523.69        69.37975
524.13        69.30562
524.57        69.17149
525.01        68.99883
525.45        68.85293
525.89        68.83628
526.32        68.96297
526.76        69.19215
527.20        69.44853
527.64        69.61459
528.08        69.65314
528.52        69.59909
528.96        69.48508
529.40        69.36465
529.83        69.25453
530.27        69.15916
530.71        69.08314
531.15        69.05073
531.59        69.06608
532.03        69.12544
532.46         69.2022
532.90        69.27116
533.34         69.3204
533.78        69.29966
534.22        69.22482
534.66        69.24321
535.09        69.29671
535.53        69.13184
535.97        68.79931
536.41        68.62813
536.85        68.64165
537.28        68.66853
537.72        68.69049
538.16        68.72081
538.60        68.74043
539.04        68.80207
539.47        68.87325
539.91        68.80991
540.35        68.65749
540.79        68.73933
541.22        69.01176
541.66        69.04826
542.10        69.00645
542.54        68.93438
542.97        68.89748
543.41        68.87151
543.85        68.85101
544.29        68.84035
544.72        68.83804
545.16        68.85092
545.60        68.85619
546.04        68.93178
546.47        69.03046
546.91        68.88158
547.35        68.58735
547.79        68.61301
548.22        68.85072
548.66        68.89516
549.10        68.73351
549.53        68.31393
549.97        68.31329
550.41        68.31485
550.84        68.51237
551.28        68.84206
551.72        69.21039
552.15        69.48528
552.59          69.598
553.03        69.54365
553.46        69.21005
553.90        69.10479
554.34        69.21946
554.77         69.2047
555.21        69.01001
555.65        69.49443
556.08        69.26116
556.52        69.15389
556.96        68.85065
557.39        68.53327
557.83        68.53564
558.27        68.58344
558.70        68.69476
559.14        68.91795
559.57        68.66556
560.01        68.89447
560.45        69.27431
560.88        69.21738
561.32        68.84432
561.75        68.51181
562.19        68.38708
562.63        68.68927
563.06        69.24374
563.50        69.18916
563.93        68.60149
564.37        68.48659
564.80        68.80486
565.24        68.88458
565.68        68.70123
566.11         68.6329
566.55         68.7168
566.98        68.70001
567.42        68.65781
567.85        68.84001
568.29         69.1851
568.72        69.28867
569.16        69.24841
569.60        69.21653
570.03        69.13164
570.47        69.37827
570.90        69.63766
571.34        68.85353
571.77        69.22583
572.21        69.08778
572.64        69.23885
573.08        68.85056
573.51        69.27119
573.95        70.00056
574.38        69.09331
574.82        69.34083
