SpectraSmart Spectrum 2.9.0.0
--------- Device Information -----------
Spectrum Name :  反射率_0
Saving Time :  2024/05/01 16:39:10
Spectro-Module Model Name : SE2030-DUVN
Spectro-Module Serial Number : OS361AC55029948
Wavelength Start : 200
Wavelength End : 1025
Wavelength Unit : Wavelength(nm)
Spectrum Unit : Reflectance(%)
-----------Spectrum Setting ------------
Integration Time : 20ms
Average : 10
Boxcar : 0
Background removal :  enabled
linearity correction :  enabled
SC :  disabled
Intensity correction :  disabled
DWT denoise :  enabled
savitzky-golay :  disabled
FFT :  disabled
Running average :  disabled
Kalman :  disabled
High pass :  disabled
---------------BEGIN--------------------
Wavelength(nm)             Reflectance(%)
200.29               0
200.75        179.7633
201.21        869.6937
201.67       -381.6997
202.13       -137.2284
202.58       -54.51567
203.04       -4.722993
203.50        26.84974
203.96        43.36636
204.42        50.39386
204.88        50.66059
205.34       -47.37216
205.80        66.73988
206.26        51.32396
206.72        31.11304
207.18       -63.20918
207.64        211.5884
208.10        117.4643
208.55        97.10602
209.01        86.78061
209.47        78.46554
209.93        70.09529
210.39        59.72878
210.85         49.0802
211.31        40.15279
211.77        28.47293
212.23        74.75654
212.69        47.49197
213.14        58.56371
213.60        113.3254
214.06        -499.294
214.52       -74.24753
214.98       -43.98899
215.44       -32.97935
215.90       -22.50496
216.36        50.48772
216.81       -34.51897
217.27        20.84642
217.73       -290.9875
218.19       -117.9463
218.65       -109.9606
219.11       -125.1614
219.57       -180.4485
220.02       -335.7073
220.48       -82.83086
220.94       -1.960184
221.40        10.98934
221.86        14.48214
222.32        17.27826
222.77        21.18533
223.23        26.32467
223.69        32.29609
224.15        34.55268
224.61        31.59365
225.06        27.09914
225.52        23.83042
225.98         22.2645
226.44         21.9694
226.90        22.51021
227.36        23.79432
227.81        25.08663
228.27        25.65376
228.73        25.74553
229.19        25.70598
229.65        25.77679
230.10        26.03291
230.56        26.68164
231.02        27.53096
231.48        28.10892
231.93        28.18047
232.39         27.9344
232.85        28.08586
233.31        29.42083
233.77        31.71009
234.22        34.55134
234.68        37.09864
235.14        38.51605
235.60        38.72066
236.05        37.80429
236.51        36.20451
236.97        35.87318
237.43        38.17959
237.88        42.75812
238.34        47.28037
238.80        49.33327
239.26         48.2783
239.71        43.79378
240.17        35.50167
240.63        27.90051
241.08        27.12928
241.54        32.91503
242.00        40.96829
242.46        47.97832
242.91        55.20054
243.37        65.02464
243.83        80.31828
244.28        95.21174
244.74        96.98883
245.20        90.37455
245.66         83.6938
246.11        80.10696
246.57        78.95621
247.03        79.11676
247.48        77.29977
247.94        64.89307
248.40        39.90981
248.85        10.21225
249.31       -7.400752
249.77        -2.36846
250.22        15.88717
250.68        36.94193
251.14        53.56039
251.59        62.23296
252.05        64.35987
252.51        60.11899
252.96         46.0653
253.42        34.52133
253.88        56.38976
254.33        81.37216
254.79        88.89687
255.25        85.29305
255.70        77.48637
256.16        70.21552
256.62        64.82647
257.07        62.41548
257.53        62.56451
257.99        63.48679
258.44        64.29028
258.90        64.83195
259.35        64.71262
259.81        64.42208
260.27        63.79515
260.72        62.69897
261.18        61.50801
261.63         60.0293
262.09        58.61717
262.55        57.23347
263.00        55.79284
263.46        54.44724
263.91        53.06456
264.37        51.79432
264.83        50.59221
265.28         49.4641
265.74          48.426
266.19        47.24203
266.65         46.0006
267.11        44.65755
267.56        43.45457
268.02        42.86725
268.47        42.88811
268.93         43.3301
269.38        43.72153
269.84        43.25053
270.30        41.80235
270.75        39.66783
271.21        37.39898
271.66        35.70304
272.12        34.81437
272.57        34.43465
273.03        34.36176
273.48        34.22795
273.94         33.9186
274.39        33.52617
274.85        33.04232
275.31          32.378
275.76        31.55445
276.22        30.64972
276.67        29.75216
277.13        29.10115
277.58        28.67093
278.04         28.4186
278.49          28.241
278.95        28.08579
279.40        27.86433
279.86        27.63333
280.31        27.30074
280.77        26.82693
281.22        26.18937
281.68        25.48036
282.13        24.76007
282.59        24.19294
283.04         23.7884
283.50        23.54991
283.95        23.43197
284.41        23.40645
284.86        23.43626
285.32        23.53006
285.77        23.68128
286.22        23.91808
286.68        24.23314
287.13        24.58235
287.59        24.89642
288.04        25.02542
288.50        24.97419
288.95        24.76328
289.41        24.54039
289.86        24.44351
290.32         24.5339
290.77        24.76746
291.22        25.07777
291.68        25.34789
292.13         25.5614
292.59        25.80506
293.04        26.14386
293.50        26.72247
293.95        27.55314
294.40         28.5896
294.86        29.78149
295.31        31.05863
295.77        32.37528
296.22        33.73423
296.68        35.09901
297.13        36.40423
297.58        37.67369
298.04        38.95226
298.49        40.30272
298.95        41.86124
299.40        43.61406
299.85        45.49632
300.31        47.47449
300.76        49.49389
301.21        51.54861
301.67        53.67258
302.12        55.74499
302.58        57.59615
303.03        59.16026
303.48        60.51418
303.94        61.89905
304.39        63.58339
304.84        65.67872
305.30        68.08192
305.75        70.59327
306.20         72.9231
306.66        74.96981
307.11        76.75008
307.57        78.35418
308.02        79.81299
308.47        81.20029
308.93        82.51091
309.38         83.7186
309.83        84.88072
310.29        86.03208
310.74        87.16743
311.19        88.30645
311.65        89.44544
312.10        90.55296
312.55        91.61401
313.00         92.6558
313.46        93.72649
313.91        94.80579
314.36        95.87361
314.82        96.77959
315.27        97.30331
315.72        97.40632
316.18        97.20673
316.63        96.89668
317.08        96.83476
317.53        97.11319
317.99        97.64333
318.44        98.28954
318.89        98.79118
319.35        99.07167
319.80        99.23107
320.25        99.34937
320.70        99.55956
321.16        99.88508
321.61        100.2706
322.06        100.6977
322.51        101.1665
322.97         101.629
323.42        102.1277
323.87        102.5389
324.32          102.68
324.78        102.5222
325.23        102.1641
325.68        101.7682
326.13        101.6233
326.59        101.7902
327.04         102.241
327.49        102.8489
327.94        103.4145
328.39        103.8548
328.85        104.1748
329.30        104.4747
329.75        104.7705
330.20        105.0822
330.66        105.3621
331.11        105.6385
331.56        105.8424
332.01        105.9847
332.46        106.0974
332.92        106.2622
333.37        106.7163
333.82        107.4705
334.27        108.4809
334.72        109.5847
335.17        110.4891
335.63         111.063
336.08         111.409
336.53        111.6302
336.98        111.9776
337.43        112.5239
337.88        113.1989
338.34        113.8487
338.79        114.3058
339.24        114.4893
339.69        114.4829
340.14        114.4499
340.59        114.6329
341.05        115.0873
341.50         115.761
341.95        116.5033
342.40        117.0731
342.85        117.4085
343.30         117.585
343.75        117.7514
344.20        118.1376
344.66        118.7867
345.11        119.6114
345.56        120.4698
346.01        121.1206
346.46        121.4952
346.91         121.684
347.36        121.7907
347.81        121.9708
348.26        122.2792
348.72        122.6724
349.17         123.101
349.62         123.561
350.07        124.0002
350.52        124.3712
350.97         124.624
351.42        124.6711
351.87        124.5038
352.32         124.207
352.77        123.7106
353.22         122.914
353.67        121.8673
354.13        120.6482
354.58        119.5774
355.03        119.2513
355.48        119.7453
355.93        120.9105
356.38        122.1589
356.83        122.4979
357.28        121.7065
357.73         120.081
358.18        118.3161
358.63        117.4535
359.08        117.6875
359.53        118.6775
359.98         119.797
360.43        120.0064
360.88        119.0442
361.33         117.291
361.78        115.3129
362.23        113.9084
362.68        113.2723
363.13        113.1473
363.58        113.1854
364.03        112.8536
364.48         111.996
364.93          110.78
365.38        109.4867
365.83         108.515
366.28        107.9479
366.73        107.6607
367.18         107.337
367.63        106.4951
368.08        105.0791
368.53        103.2975
368.98        101.5824
369.43        100.5449
369.88        100.2878
370.33         100.605
370.78        101.1081
371.23        101.1212
371.68        100.4454
372.13        99.30821
372.58        98.00467
373.03         96.9724
373.48        96.32333
373.93        95.88641
374.38        95.56259
374.83        95.21231
375.28        94.77365
375.72        94.30699
376.17         93.7905
376.62        93.10933
377.07        92.26897
377.52        91.29518
377.97         90.3422
378.42         89.6646
378.87        89.30986
379.32        89.20286
379.77        89.17294
380.22        88.94896
380.67        88.46621
381.11        87.81001
381.56        87.10547
382.01        86.58382
382.46        86.30849
382.91        86.19666
383.36        86.13975
383.81        85.97536
384.26        85.65479
384.71        85.23383
385.15        84.75628
385.60        84.33623
386.05        83.99093
386.50         83.6906
386.95         83.4067
387.40        83.10575
387.85        82.77909
388.29        82.39116
388.74        82.05782
389.19        81.74937
389.64        81.45653
390.09        81.15829
390.54        80.82982
390.98        80.41853
391.43        79.98319
391.88        79.54808
392.33         79.1516
392.78        78.79284
393.23        78.47514
393.67        78.21519
394.12        78.12998
394.57        77.75742
395.02        78.12342
395.47        77.78478
395.91        77.19234
396.36        76.93025
396.81         77.0514
397.26         77.2511
397.71        77.32125
398.15        77.12046
398.60        76.71342
399.05         75.9625
399.50        75.18611
399.95        75.16436
400.39         75.8092
400.84        76.14482
401.29         75.9959
401.74        75.81981
402.18        75.58067
402.63        74.89873
403.08         73.9985
403.53        73.41592
403.97        73.22498
404.42         73.2811
404.87         73.4574
405.32        73.52432
405.76        73.39948
406.21        73.29846
406.66        73.22941
407.11        72.91871
407.55        72.53848
408.00        72.68122
408.45        73.22456
408.90        73.38287
409.34        73.03548
409.79        72.50222
410.24        71.96198
410.68        71.64088
411.13        71.60591
411.58        71.71671
412.03        71.89496
412.47        72.06703
412.92        72.15241
413.37        72.18285
413.81        72.14722
414.26        72.09029
414.71        72.00575
415.15         71.8946
415.60        71.75401
416.05        71.64834
416.49         71.5974
416.94        71.58407
417.39        71.59457
417.83        71.58789
418.28        71.55559
418.73        71.51263
419.17        71.46064
419.62        71.40675
420.07        71.35085
420.51        71.27631
420.96        71.23966
421.41        71.21876
421.85        71.19415
422.30        71.31471
422.74        71.50195
423.19        71.50848
423.64        71.39764
424.08        71.66298
424.53        72.22066
424.98          72.512
425.42        72.45683
425.87        72.53065
426.31        72.71428
426.76        72.28539
427.21        71.54469
427.65        71.85612
428.10        72.90443
428.54        73.21342
428.99        72.76921
429.44        71.86611
429.88        70.95585
430.33        71.64723
430.77        73.33973
431.22        73.41202
431.66         72.0251
432.11        71.50483
432.56        71.97059
433.00        72.51874
433.45         72.9562
433.89        72.84379
434.34        71.64631
434.78        73.64017
435.23        72.76192
435.67        73.16681
436.12        73.17281
436.57        73.59293
437.01        74.28363
437.46        74.67555
437.90        74.81374
438.35        74.11736
438.79        74.41974
439.24        73.98248
439.68        73.46693
440.13        73.42624
440.57        73.90416
441.02        74.20188
441.46        74.18026
441.91        74.69462
442.35        75.56003
442.80        74.70061
443.24        74.96335
443.69        74.66077
444.13        74.68256
444.58         74.7027
445.02        74.73793
445.47        74.96639
445.91        75.33171
446.36        75.72424
446.80        76.09154
447.24        76.47234
447.69        76.79265
448.13        76.91563
448.58        76.84623
449.02        76.59419
449.47        76.31128
449.91        76.19602
450.36        76.31344
450.80        76.58189
451.25        76.88678
451.69        76.99649
452.13        76.86686
452.58        76.57424
453.02        76.21826
453.47        75.98947
453.91         75.9169
454.36        75.99052
454.80        76.10639
455.24        76.03984
455.69        75.75621
456.13        75.59045
456.58         75.1918
457.02        75.08137
457.46         75.1833
457.91        75.60152
458.35        76.10033
458.79        76.08762
459.24        75.52407
459.68        74.84648
460.13        74.43443
460.57        73.32619
461.01        73.69864
461.46        73.94355
461.90        74.47386
462.34        74.38213
462.79        74.07092
463.23        74.07439
463.68        74.38812
464.12         74.4159
464.56        74.17121
465.01        73.44854
465.45        73.55617
465.89        73.32964
466.34        73.06683
466.78        73.32092
467.22        72.62215
467.67        72.62835
468.11        72.60723
468.55        72.66833
468.99        72.68528
469.44        72.72028
469.88        72.78686
470.32        72.84879
470.77        72.89931
471.21        72.94375
471.65        72.96116
472.10        72.95735
472.54        72.93125
472.98        72.88528
473.42        72.81577
473.87        72.83619
474.31        72.86521
474.75        72.61819
475.20        72.23522
475.64        72.19746
476.08        72.53046
476.52        72.57576
476.97        72.34958
477.41        72.05975
477.85        71.53878
478.29        72.01281
478.74        71.98726
479.18        72.03062
479.62        71.73808
480.06        71.72607
480.50        72.01407
480.95        71.24816
481.39         71.9437
481.83        71.14677
482.27         71.4598
482.72        71.61829
483.16        71.54377
483.60        71.76864
484.04        72.05537
484.48        72.00538
484.93        71.86047
485.37        72.68889
485.81        72.26364
486.25         73.0885
486.69        72.40407
487.14        70.14742
487.58        69.57101
488.02        71.68576
488.46        71.44924
488.90        70.72774
489.34        71.87889
489.79        71.82234
490.23        71.18068
490.67        71.09126
491.11        71.41578
491.55        71.60314
491.99        71.54371
492.43        71.48677
492.88        71.42853
493.32        71.28099
493.76        71.08927
494.20         70.9989
494.64        71.01616
495.08        71.05215
495.52         71.1489
495.96        71.29815
496.41         71.3457
496.85        71.70005
497.29        71.50199
497.73        70.72523
498.17        70.56107
498.61        70.41014
499.05        70.64621
499.49        70.77438
499.93        70.73513
500.37        70.80914
500.82        71.03871
501.26        70.99335
501.70        71.10433
502.14        71.59476
502.58         71.4456
503.02        71.46231
503.46        71.31754
503.90        71.04652
504.34        70.76057
504.78        70.66602
505.22        70.78413
505.66        71.13551
506.10        71.60123
506.54        71.66639
506.98        71.20666
507.42        71.55971
507.86        70.70718
508.30        70.57996
508.74        70.59694
509.18        70.74441
509.62        70.93914
510.06        71.09064
510.50        71.17876
510.94        71.21517
511.38        71.21754
511.82        71.20808
512.26        71.19475
512.70        71.15216
513.14         71.0752
513.58        71.01864
514.02        70.99712
514.46        70.89966
514.90        70.72637
515.34        70.86234
515.78        70.55723
516.22        70.44057
516.66        70.32339
517.10        70.27985
517.54        70.31436
517.98         70.4146
518.42         70.5536
518.86        70.66341
519.30        70.72672
519.74        70.76132
520.18        70.77463
520.62        70.78455
521.06        70.79404
521.50        70.78102
521.93         70.7663
522.37        70.77561
522.81        70.81501
523.25        70.88901
523.69        70.92944
524.13        70.82521
524.57        70.57403
525.01        70.22086
525.45         69.8984
525.89          69.813
526.32        69.99905
526.76        70.38392
527.20        70.82436
527.64        71.08932
528.08        71.11446
528.52         70.9743
528.96        70.75249
529.40         70.5834
529.83        70.50301
530.27        70.47888
530.71        70.49583
531.15        70.55096
531.59        70.63259
532.03        70.74981
532.46        70.84966
532.90        70.86287
533.34        70.78097
533.78        70.57265
534.22        70.31515
534.66        70.25163
535.09        70.33964
535.53        70.29064
535.97        70.10671
536.41        70.04311
536.85        70.10194
537.28        70.13203
537.72        70.12698
538.16        70.14162
538.60        70.17063
539.04        70.19395
539.47        70.19861
539.91        70.20667
540.35        70.20142
540.79        70.20844
541.22        70.22585
541.66        70.15063
542.10        70.16102
542.54        70.11607
542.97        70.06943
543.41        70.05685
543.85        70.07028
544.29         70.1025
544.72        70.12698
545.16        70.14004
545.60        70.12379
546.04        70.08054
546.47        70.02309
546.91        69.98414
547.35         69.9794
547.79        69.98315
548.22        69.94556
548.66        69.93958
549.10        69.96168
549.53        69.68341
549.97         69.7461
550.41        69.75489
550.84        69.88949
551.28        70.12851
551.72        70.40864
552.15        70.53111
552.59        70.45977
553.03        70.53478
553.46        70.23499
553.90        70.21989
554.34        70.34793
554.77        70.40672
555.21        70.29952
555.65         70.7149
556.08        70.29578
556.52        70.10973
556.96        69.82557
557.39         69.6661
557.83        69.67525
558.27        69.68913
558.70        69.69299
559.14         69.9866
559.57        69.93916
560.01         70.2366
560.45        70.53484
560.88        70.44076
561.32        70.08188
561.75        69.66572
562.19        69.40152
562.63        69.70977
563.06        70.37001
563.50        70.27879
563.93        69.54782
564.37        69.31052
564.80        69.71222
565.24        69.92942
565.68        69.98806
566.11        70.01936
566.55        70.05304
566.98        70.00359
567.42        69.93225
567.85        69.90194
568.29        69.94682
568.72        69.98015
569.16         70.0481
569.60        70.22818
570.03        69.88741
570.47        70.23051
570.90        70.41271
571.34        69.72308
571.77        70.04868
572.21        69.87926
572.64        69.92525
573.08        69.61869
573.51        70.07116
573.95        70.60041
574.38        69.94826
574.82        70.49387
