SpectraSmart Spectrum 2.9.0.0
--------- Device Information -----------
Spectrum Name :  反射率_0
Saving Time :  2024/05/01 16:18:24
Spectro-Module Model Name : SE2030-DUVN
Spectro-Module Serial Number : OS361AC55029948
Wavelength Start : 200
Wavelength End : 1025
Wavelength Unit : Wavelength(nm)
Spectrum Unit : Reflectance(%)
-----------Spectrum Setting ------------
Integration Time : 20ms
Average : 10
Boxcar : 0
Background removal :  enabled
linearity correction :  enabled
SC :  disabled
Intensity correction :  disabled
DWT denoise :  enabled
savitzky-golay :  disabled
FFT :  disabled
Running average :  disabled
Kalman :  disabled
High pass :  disabled
---------------BEGIN--------------------
Wavelength(nm)             Reflectance(%)
200.29               0
200.75        6.868716
201.21        238.9495
201.67       -143.1089
202.13       -48.43151
202.58       -6.493846
203.04        23.07082
203.50        42.61308
203.96          50.689
204.42        48.66002
204.88        28.34143
205.34       -512.0132
205.80        125.3257
206.26        70.52911
206.72        6.300013
207.18       -276.7643
207.64        517.4575
208.10        232.8501
208.55        160.4309
209.01        121.9924
209.47         97.4282
209.93        79.77738
210.39        62.74543
210.85        47.62716
211.31        36.97835
211.77         29.0729
212.23         21.3622
212.69        22.94721
213.14        31.72015
213.60        69.36012
214.06       -342.3897
214.52       -55.78917
214.98       -34.18005
215.44       -24.02232
215.90        -8.99119
216.36        165.3011
216.81        -90.7188
217.27       -81.58931
217.73        6.400123
218.19       -39.21653
218.65       -47.75974
219.11        -58.5822
219.57       -84.56152
220.02       -146.1141
220.48       -26.26277
220.94        5.021561
221.40        8.808739
221.86        10.37336
222.32        13.64549
222.77        19.41067
223.23        28.33905
223.69        39.03302
224.15        41.80998
224.61        34.54027
225.06        24.90326
225.52         18.4402
225.98        16.75988
226.44        19.01954
226.90        24.49171
227.36        32.56338
227.81        38.28452
228.27        38.45044
228.73        35.81758
229.19        32.77582
229.65        30.52569
230.10        28.88788
230.56        27.35493
231.02        26.02027
231.48        25.69612
231.93        26.59769
232.39        28.36247
232.85        30.39585
233.31        32.21379
233.77        33.74238
234.22        35.10099
234.68         36.2398
235.14        37.30648
235.60        38.45889
236.05        39.85578
236.51         41.6839
236.97        43.87632
237.43         45.9173
237.88        47.43365
238.34        48.11029
238.80        48.61252
239.26        49.32138
239.71        50.50422
240.17        51.99087
240.63        52.76314
241.08        52.26413
241.54        51.51547
242.00        52.30199
242.46        56.85873
242.91         67.2703
243.37        85.79936
243.83        116.5839
244.28        142.8736
244.74        140.7612
245.20        125.1576
245.66        110.2236
246.11         99.3242
246.57        89.83196
247.03        77.00632
247.48        56.98075
247.94        31.75872
248.40        12.22274
248.85        3.737519
249.31        8.558155
249.77        20.81476
250.22        33.94844
250.68        45.68012
251.14        54.68916
251.59        61.41273
252.05        68.02798
252.51        77.90934
252.96        98.37323
253.42        134.7778
253.88         146.152
254.33         120.842
254.79        101.0369
255.25        91.36116
255.70        86.04832
256.16        83.34148
256.62        80.75626
257.07        76.81284
257.53        72.95134
257.99        69.54487
258.44        67.11945
258.90        66.69401
259.35         67.4564
259.81        68.96436
260.27         70.3371
260.72        70.50395
261.18        69.69319
261.63        68.14397
262.09        66.37299
262.55         64.4258
263.00        62.32642
263.46        60.22371
263.91        58.24498
264.37        56.93644
264.83        56.18961
265.28        55.81765
265.74        55.47562
266.19        54.38944
266.65         52.6161
267.11        50.33241
267.56        48.08093
268.02        46.80843
268.47        46.62797
268.93        47.18316
269.38        47.88582
269.84        47.73725
270.30        46.52697
270.75        44.60922
271.21        42.45444
271.66        40.62843
272.12         39.3796
272.57        38.45575
273.03        37.83696
273.48        37.44728
273.94        37.22477
274.39        37.14317
274.85        37.05831
275.31          36.674
275.76        35.94805
276.22        35.03284
276.67        34.02655
277.13        33.19203
277.58        32.52663
278.04        31.99553
278.49         31.5493
278.95        31.23664
279.40        30.97907
279.86        30.79773
280.31        30.55494
280.77        30.15257
281.22        29.53921
281.68        28.83212
282.13        28.06359
282.59        27.36821
283.04         26.7625
283.50        26.27183
283.95         25.9156
284.41        25.77565
284.86        25.83148
285.32        26.05428
285.77        26.37203
286.22        26.72478
286.68        27.08041
287.13         27.4159
287.59        27.68184
288.04        27.76068
288.50        27.67107
288.95        27.41944
289.41        27.14972
289.86        26.99014
290.32        27.00591
290.77        27.16033
291.22        27.40222
291.68        27.63171
292.13        27.83664
292.59        28.10355
293.04        28.48426
293.50         29.1029
293.95        29.96839
294.40        31.04043
294.86        32.28341
295.31        33.65296
295.77        35.09811
296.22        36.59219
296.68        38.07898
297.13        39.46359
297.58         40.7617
298.04        42.03691
298.49        43.32965
298.95         44.7446
299.40        46.28086
299.85        47.89554
300.31        49.64535
300.76        51.60194
301.21         53.7785
301.67         56.1723
302.12        58.55281
302.58        60.57485
303.03        62.12838
303.48        63.33857
303.94        64.55344
304.39        66.19331
304.84        68.39669
305.30        71.00841
305.75        73.72792
306.20        76.11255
306.66         78.0387
307.11        79.58917
307.57        80.96529
308.02        82.35202
308.47        83.85915
308.93        85.42963
309.38        86.95869
309.83        88.38591
310.29         89.7101
310.74        90.95632
311.19        92.18974
311.65         93.4753
312.10        94.79671
312.55        96.11454
313.00        97.41045
313.46        98.66733
313.91        99.85355
314.36        100.9724
314.82        101.9305
315.27        102.5969
315.72         102.945
316.18        103.0568
316.63        103.0539
317.08        103.1983
317.53         103.562
317.99        104.0868
318.44        104.6858
318.89        105.1761
319.35         105.505
319.80        105.7503
320.25        105.9664
320.70        106.2447
321.16        106.6007
321.61         107.007
322.06        107.4573
322.51        107.9696
322.97        108.4983
323.42         109.067
323.87        109.5665
324.32        109.8441
324.78        109.8619
325.23        109.7085
325.68        109.4672
326.13        109.3016
326.59        109.2552
327.04        109.3467
327.49        109.5646
327.94        109.9062
328.39        110.3485
328.85        110.8459
329.30        111.4161
329.75        111.9129
330.20         112.297
330.66        112.5584
331.11        112.7685
331.56        112.9233
332.01        113.0578
332.46         113.175
332.92        113.3364
333.37         113.761
333.82        114.4544
334.27        115.3918
334.72        116.4317
335.17        117.3106
335.63         117.904
336.08        118.3029
336.53        118.5947
336.98        119.0082
337.43        119.6066
337.88        120.3275
338.34        120.9979
338.79        121.4291
339.24        121.5345
339.69        121.3952
340.14        121.2253
340.59        121.3485
341.05        121.8344
341.50        122.6189
341.95        123.4668
342.40        123.9955
342.85        124.1251
343.30        123.9826
343.75        123.8396
344.20        124.1193
344.66        124.8932
345.11        125.9907
345.56        127.1536
346.01        127.9488
346.46        128.2519
346.91         128.231
347.36         128.021
347.81        127.8235
348.26        127.7318
348.72        127.6859
349.17        127.7377
349.62        128.0494
350.07        128.5884
350.52        129.2679
350.97        129.8657
351.42        129.9999
351.87        129.6051
352.32        128.8657
352.77        127.8902
353.22         126.861
353.67        125.8841
354.13        124.9185
354.58         124.169
355.03        124.0656
355.48        124.6219
355.93        125.7475
356.38        126.8376
356.83        126.8713
357.28        125.6608
357.73        123.5299
358.18        121.2862
358.63        120.1361
359.08        120.3022
359.53        121.3995
359.98        122.7174
360.43        123.0622
360.88        122.1137
361.33        120.2865
361.78        118.1723
362.23        116.6128
362.68        115.8184
363.13        115.5144
363.58        115.3556
364.03        114.8244
364.48        113.7768
364.93        112.3935
365.38        110.9675
365.83        109.9039
366.28        109.2882
366.73        108.9967
367.18        108.7024
367.63        107.9052
368.08         106.538
368.53        104.7999
368.98        103.1303
369.43        102.1579
369.88        101.9827
370.33        102.3884
370.78         102.948
371.23        102.9217
371.68        102.1016
372.13        100.7439
372.58        99.20366
373.03        98.00497
373.48        97.28223
373.93        96.84451
374.38        96.55759
374.83        96.22107
375.28        95.75111
375.72        95.22076
376.17        94.62914
376.62        93.89233
377.07        93.02055
377.52        92.02647
377.97        91.03492
378.42        90.25925
378.87        89.74482
379.32        89.43665
379.77         89.2093
380.22        88.85683
380.67        88.32803
381.11        87.69007
381.56        87.02844
382.01        86.50726
382.46         86.1744
382.91        85.97033
383.36        85.81902
383.81        85.60893
384.26        85.29951
384.71        84.91887
385.15         84.4899
385.60        84.09681
386.05        83.74503
386.50         83.4171
386.95        83.07185
387.40        82.66068
387.85        82.17844
388.29        81.59262
388.74        81.07088
389.19        80.65514
389.64        80.35795
390.09        80.15888
390.54        79.95156
390.98        79.59132
391.43        79.12157
391.88        78.47124
392.33        77.83204
392.78        77.69061
393.23         77.9205
393.67        77.90672
394.12        77.69227
394.57        77.32359
395.02        77.28421
395.47        76.89819
395.91        75.88852
396.36        75.48548
396.81        75.58354
397.26        75.91434
397.71         76.2037
398.15        76.16369
398.60        75.83044
399.05        75.09372
399.50        74.28271
399.95        74.23257
400.39        74.84243
400.84         75.0173
401.29        74.64863
401.74         74.4146
402.18        74.30779
402.63        73.84885
403.08        73.17471
403.53        72.72295
403.97        72.53194
404.42        72.47421
404.87        72.47468
405.32        72.40819
405.76        72.23708
406.21        72.11055
406.66          71.992
407.11        71.73527
407.55         71.4626
408.00        71.26398
408.45        71.18951
408.90        71.58743
409.34        72.12082
409.79        71.57552
410.24        70.24435
410.68        69.66981
411.13        69.95499
411.58        70.23135
412.03        70.36131
412.47        70.51852
412.92        70.61639
413.37        70.62225
413.81         70.5535
414.26        70.49582
414.71        70.45053
415.15        70.41668
415.60        70.37071
416.05        70.33074
416.49        70.30232
416.94        70.28227
417.39        70.27228
417.83         70.2525
418.28        70.22427
418.73        70.20226
419.17        70.17154
419.62        70.11405
420.07        70.02242
420.51        69.88239
420.96        69.78908
421.41        69.76331
421.85        69.78711
422.30        70.03861
422.74        70.36098
423.19        70.28334
423.64        69.90027
424.08         69.9736
424.53        70.47137
424.98        70.69019
425.42        70.55646
425.87        70.71246
426.31        71.08714
426.76        70.64404
427.21        69.72648
427.65         70.1411
428.10        71.50319
428.54        71.79996
428.99        71.08903
429.44        70.11428
429.88        69.33947
430.33        70.24964
430.77        72.12918
431.22        72.07397
431.66        70.29984
432.11        69.55687
432.56        70.10474
433.00        70.72052
433.45        71.10675
433.89        71.48392
434.34        70.79022
434.78        71.79193
435.23        71.89537
435.67        71.90386
436.12        71.39249
436.57        71.80092
437.01        72.92281
437.46        73.45634
437.90        73.37965
438.35        72.28949
438.79        72.62183
439.24        72.14215
439.68        71.69003
440.13        71.79368
440.57        72.38789
441.02        72.80135
441.46        72.89889
441.91        73.16294
442.35        73.43668
442.80        73.44749
443.24        73.22874
443.69        73.16299
444.13        73.25317
444.58        73.29991
445.02         73.2889
445.47        73.37865
445.91        73.58383
446.36        73.83815
446.80        74.10788
447.24        74.48344
447.69        74.86942
448.13        74.91465
448.58        74.70107
449.02        74.65739
449.47        74.81206
449.91        74.81942
450.36        74.70301
450.80        74.64986
451.25        74.67322
451.69        74.63846
452.13        74.55248
452.58        74.47337
453.02        74.36607
453.47        74.23851
453.91        74.07912
454.36        73.82235
454.80        73.56752
455.24        73.52486
455.69         73.5759
456.13        73.57533
456.58        73.65238
457.02        72.66155
457.46        72.86464
457.91         73.2812
458.35        74.20499
458.79        74.33856
459.24        73.62221
459.68        72.86964
460.13        72.46604
460.57        71.34501
461.01        71.62747
461.46        71.85155
461.90        72.39401
462.34        72.16066
462.79        71.66976
463.23        71.65518
463.68         72.1425
464.12        72.27303
464.56        71.98075
465.01        71.58212
465.45        71.13921
465.89        71.08154
466.34        71.31905
466.78        71.17035
467.22        70.67296
467.67        70.56531
468.11        70.60672
468.55        70.71718
468.99        70.75886
469.44        70.78027
469.88        70.77412
470.32        70.73637
470.77        70.68645
471.21        70.66354
471.65        70.66068
472.10        70.67572
472.54         70.6824
472.98        70.64965
473.42        70.56284
473.87        70.52181
474.31        70.47598
474.75        70.22332
475.20        69.84879
475.64        69.82574
476.08        70.10442
476.52        70.06403
476.97        69.63504
477.41        70.05412
477.85        69.11375
478.29        69.78377
478.74        70.07797
479.18        69.97656
479.62        69.23023
480.06        69.04255
480.50        69.49441
480.95        68.91396
481.39        69.64074
481.83        68.98273
482.27        69.14375
482.72        69.12109
483.16        68.97082
483.60        69.06223
484.04        69.20074
484.48        69.27705
484.93        69.58119
485.37        69.86277
485.81        69.79179
486.25        70.77287
486.69        70.63889
487.14        68.14644
487.58        67.34212
488.02        69.45483
488.46        69.04278
488.90         68.3713
489.34        69.29011
489.79        68.54691
490.23        69.05824
490.67        68.81251
491.11        68.52937
491.55        68.59291
491.99         68.9146
492.43        69.00101
492.88        68.79208
493.32        68.60388
493.76        68.49515
494.20         68.4446
494.64        68.44991
495.08        68.53774
495.52        68.70159
495.96        68.69743
496.41        68.51174
496.85        68.88095
497.29        69.07487
497.73        68.67071
498.17        68.29438
498.61        67.83206
499.05        67.68758
499.49        68.04091
499.93        68.69524
500.37        68.91457
500.82        68.71362
501.26        68.39304
501.70        68.80968
502.14        68.75176
502.58        68.48357
503.02        68.28955
503.46        68.20747
503.90        68.13785
504.34        68.09865
504.78          68.158
505.22        68.29078
505.66         68.4885
506.10        68.70956
506.54        68.79813
506.98        68.59864
507.42        68.76292
507.86        67.75059
508.30        67.50985
508.74        67.60583
509.18        67.79877
509.62        67.99536
510.06        68.17896
510.50        68.31863
510.94        68.40534
511.38        68.44443
511.82        68.44106
512.26        68.39989
512.70        68.31068
513.14        68.19665
513.58        68.10184
514.02        68.03739
514.46        68.00037
514.90        67.96788
515.34        67.89531
515.78         67.7793
516.22        67.64542
516.66        67.52274
517.10        67.45228
517.54        67.44475
517.98        67.48261
518.42        67.55895
518.86        67.65983
519.30        67.77123
519.74        67.89763
520.18        68.00952
520.62        68.04785
521.06        68.01219
521.50        67.94552
521.93        67.87714
522.37        67.81441
522.81        67.77544
523.25        67.77696
523.69        67.78745
524.13        67.74382
524.57        67.64169
525.01        67.50543
525.45        67.38969
525.89        67.37933
526.32        67.48776
526.76        67.67827
527.20        67.88475
527.64        68.02435
528.08        68.07211
528.52        68.00417
528.96        67.85722
529.40        67.82145
529.83        67.84833
530.27        67.64587
530.71        67.29749
531.15        67.20762
531.59        67.40318
532.03        67.67633
532.46        67.91946
532.90        68.05676
533.34        68.04937
533.78         67.8725
534.22        67.60125
534.66        67.46925
535.09        67.44598
535.53        67.26035
535.97        66.94592
536.41        66.79639
536.85        66.82607
537.28        66.88046
537.72        66.93417
538.16        67.00237
538.60        67.06668
539.04        67.11841
539.47        67.14303
539.91        67.15941
540.35        67.15411
540.79        67.14896
541.22          67.157
541.66        67.10606
542.10        67.16977
542.54        67.20477
542.97        67.24067
543.41        67.27619
543.85         67.2952
544.29        67.30313
544.72        67.29138
545.16        67.27658
545.60         67.2471
546.04        67.21481
546.47        67.18504
546.91        67.13093
547.35        67.08542
547.79        67.13354
548.22        67.19115
548.66        67.18204
549.10        67.09667
549.53        66.69647
549.97        66.63275
550.41        66.56662
550.84        66.69354
551.28        66.95381
551.72        67.26077
552.15        67.46548
552.59        67.53217
553.03        67.46881
553.46        67.31041
553.90        67.27321
554.34        67.38512
554.77        67.40287
555.21        67.25378
555.65        67.67003
556.08        67.32839
556.52        67.14315
556.96        66.81314
557.39        66.65217
557.83        66.70474
558.27        66.77879
558.70          66.825
559.14        67.06628
559.57        66.91236
560.01         67.0975
560.45        67.33109
560.88        67.25915
561.32        66.98784
561.75        66.66274
562.19        66.44084
562.63        66.71249
563.06        67.28561
563.50        67.08898
563.93        66.28512
564.37         66.2067
564.80        66.78519
565.24        67.05172
565.68        66.92653
566.11        66.89679
566.55        66.98308
566.98        66.86261
567.42        66.65579
567.85         66.7224
568.29        67.04598
568.72        67.18817
569.16        67.19916
569.60        67.27197
570.03        67.30666
570.47        67.25722
570.90        67.40209
571.34        66.55701
571.77        66.97379
572.21        66.96587
572.64        67.20983
573.08        66.84657
573.51        67.24341
573.95         67.5117
574.38        67.17671
574.82        67.24557
