SpectraSmart Spectrum 2.9.0.0
--------- Device Information -----------
Spectrum Name :  反射率_0
Saving Time :  2024/05/01 16:08:07
Spectro-Module Model Name : SE2030-DUVN
Spectro-Module Serial Number : OS361AC55029948
Wavelength Start : 200
Wavelength End : 1025
Wavelength Unit : Wavelength(nm)
Spectrum Unit : Reflectance(%)
-----------Spectrum Setting ------------
Integration Time : 20ms
Average : 10
Boxcar : 0
Background removal :  enabled
linearity correction :  enabled
SC :  disabled
Intensity correction :  disabled
DWT denoise :  enabled
savitzky-golay :  disabled
FFT :  disabled
Running average :  disabled
Kalman :  disabled
High pass :  disabled
---------------BEGIN--------------------
Wavelength(nm)             Reflectance(%)
200.29               0
200.75       -65.53639
201.21        71.42204
201.67        -112.746
202.13       -46.09245
202.58       -8.550579
203.04        20.41764
203.50        40.18278
203.96        48.10247
204.42        44.97762
204.88        20.34912
205.34       -625.5266
205.80        136.9358
206.26        72.80035
206.72       -1.899213
207.18       -321.2865
207.64        548.9144
208.10        225.7057
208.55        138.1171
209.01        91.50657
209.47        66.92437
209.93        55.27386
210.39        47.94423
210.85        43.57391
211.31        41.64765
211.77        42.48493
212.23        1.529403
212.69        27.00028
213.14        39.09294
213.60        79.93092
214.06       -361.0179
214.52       -53.50492
214.98       -29.35545
215.44       -16.26505
215.90        6.998874
216.36        315.3773
216.81       -156.7688
217.27       -186.3034
217.73        280.2181
218.19        26.66325
218.65       -1.922193
219.11       -19.42884
219.57       -54.17358
220.02       -166.6978
220.48       -59.01788
220.94       -1.181513
221.40        12.33605
221.86        17.40221
222.32        20.53838
222.77        23.83437
223.23        28.21993
223.69        32.98529
224.15        33.59656
224.61        29.47909
225.06        24.16423
225.52        20.91906
225.98        20.81036
226.44        23.38313
226.90        28.45656
227.36        34.88756
227.81        37.31166
228.27        33.95521
228.73        28.54338
229.19        23.91388
229.65         21.2194
230.10         20.0102
230.56        19.83448
231.02        20.58908
231.48        22.01798
231.93        23.59513
232.39        25.18011
232.85        26.74036
233.31        28.40409
233.77        30.14626
234.22        31.89533
234.68        33.36778
235.14        34.44846
235.60        35.25474
236.05        35.95734
236.51        37.00528
236.97         39.2958
237.43        42.94796
237.88         47.1907
238.34         50.7045
238.80        53.16653
239.26        54.83594
239.71        56.17855
240.17        56.16165
240.63        52.42099
241.08         45.1748
241.54        37.65639
242.00        34.32204
242.46        38.27355
242.91        51.54833
243.37        78.50481
243.83        125.4602
244.28        166.3622
244.74        164.7792
245.20        141.9493
245.66        121.0918
246.11        109.7475
246.57        105.1532
247.03        102.8996
247.48        99.34623
247.94        86.10424
248.40        61.85478
248.85        35.97878
249.31        21.72574
249.77        25.20485
250.22        38.82447
250.68         54.6756
251.14        67.68486
251.59        76.06913
252.05        81.65931
252.51        87.04375
252.96        96.10258
253.42         115.841
253.88        129.7088
254.33        120.9743
254.79        109.8655
255.25        101.0394
255.70        93.42104
256.16        87.76619
256.62        83.65945
257.07        81.06904
257.53        80.15657
257.99        79.85844
258.44        79.42658
258.90        78.89419
259.35        77.77356
259.81        76.49113
260.27        75.06716
260.72        73.68407
261.18        72.70006
261.63        71.68948
262.09        70.69344
262.55        69.25031
263.00         67.2896
263.46        65.19612
263.91        63.08254
264.37        61.47938
264.83        60.32936
265.28        59.46181
265.74         58.6972
266.19        57.48902
266.65        55.91158
267.11        54.04877
267.56        52.28622
268.02        51.32843
268.47        51.21429
268.93        51.64806
269.38        52.11544
269.84        51.74657
270.30        50.37463
270.75         48.3162
271.21        46.00258
271.66        43.94105
272.12         42.3773
272.57        41.09542
273.03        40.15249
273.48         39.5679
273.94        39.30767
274.39        39.32427
274.85        39.38237
275.31        39.05571
275.76        38.27439
276.22        37.20922
276.67        36.07555
277.13        35.31142
277.58         34.9114
278.04         34.7765
278.49        34.65024
278.95         34.2796
279.40        33.56699
279.86        32.68311
280.31        31.75013
280.77        31.02982
281.22        30.51471
281.68        30.18037
282.13         29.8631
282.59        29.43002
283.04        28.83709
283.50        28.20568
283.95        27.64674
284.41        27.38382
284.86        27.43422
285.32        27.71315
285.77        28.10662
286.22        28.50768
286.68        28.87294
287.13        29.20686
287.59        29.47398
288.04        29.56978
288.50         29.5183
288.95        29.31262
289.41        29.10197
289.86        29.02022
290.32        29.13548
290.77         29.4127
291.22        29.78051
291.68        30.10706
292.13        30.37368
292.59         30.6704
293.04        31.09139
293.50        31.82931
293.95         32.9007
294.40        34.24681
294.86        35.75452
295.31        37.25586
295.77        38.68148
296.22        40.04414
296.68        41.39393
297.13        42.79507
297.58        44.29392
298.04        45.90157
298.49        47.55468
298.95        49.19299
299.40        50.77813
299.85        52.32935
300.31         53.9857
300.76        55.93925
301.21        58.22774
301.67        60.78684
302.12        63.34817
302.58        65.51268
303.03        67.14314
303.48        68.39936
303.94        69.59585
304.39        71.08865
304.84        73.03325
305.30        75.29957
305.75        77.70592
306.20        80.00211
306.66        82.09309
307.11        83.99062
307.57        85.75024
308.02        87.32979
308.47        88.79124
308.93        90.14586
309.38        91.39756
309.83        92.66055
310.29        93.98172
310.74        95.33344
311.19        96.70278
311.65        98.03529
312.10        99.28675
312.55          100.46
313.00        101.6131
313.46        102.8456
313.91        104.1408
314.36        105.4467
314.82        106.5788
315.27        107.2643
315.72        107.4456
316.18        107.2693
316.63        106.9195
317.08        106.7502
317.53        106.8705
317.99         107.199
318.44        107.6706
318.89        108.1368
319.35        108.5402
319.80        108.9474
320.25        109.3496
320.70        109.7335
321.16        110.0845
321.61        110.3952
322.06        110.7033
322.51        111.1086
322.97         111.595
323.42        112.1731
323.87          112.71
324.32        113.0128
324.78        113.0343
325.23        112.8789
325.68        112.6653
326.13        112.6114
326.59        112.7636
327.04        113.1158
327.49        113.5906
327.94        114.0818
328.39        114.5338
328.85        114.9197
329.30        115.3181
329.75        115.6852
330.20         116.019
330.66        116.2907
331.11        116.5275
331.56        116.6421
332.01        116.6518
332.46        116.5893
332.92        116.5828
333.37          116.96
333.82        117.7494
334.27        118.8929
334.72        120.1644
335.17         121.154
335.63        121.6955
336.08        121.9273
336.53        122.0182
336.98         122.332
337.43        122.9712
337.88        123.8302
338.34        124.6886
338.79         125.281
339.24        125.4859
339.69         125.405
340.14        125.2588
340.59        125.3793
341.05        125.8454
341.50        126.5918
341.95         127.386
342.40        127.8575
342.85         127.932
343.30         127.734
343.75        127.5622
344.20         127.874
344.66        128.7477
345.11        130.0185
345.56        131.3618
346.01        132.2346
346.46         132.493
346.91        132.3235
347.36        131.9861
347.81        131.8786
348.26        132.1143
348.72        132.5639
349.17        133.0919
349.62        133.5614
350.07        133.8826
350.52        134.0737
350.97        134.1098
351.42        133.9329
351.87        133.5632
352.32         133.073
352.77        132.4447
353.22        131.6641
353.67         130.777
354.13        129.8218
354.58        129.0161
355.03        128.8066
355.48        129.2317
355.93        130.1843
356.38        131.1374
356.83        131.2097
357.28        130.2279
357.73        128.4669
358.18        126.6074
358.63        125.6647
359.08          125.82
359.53        126.7398
359.98        127.8033
360.43        127.9769
360.88        126.9918
361.33        125.2154
361.78        123.1793
362.23        121.6343
362.68        120.7698
363.13        120.3493
363.58        120.0702
364.03        119.4755
364.48        118.4398
364.93        117.1204
365.38         115.775
365.83        114.7601
366.28        114.1427
366.73        113.8024
367.18          113.44
367.63        112.6024
368.08        111.2292
368.53        109.5073
368.98        107.8203
369.43        106.7103
369.88        106.2687
370.33         106.313
370.78        106.5091
371.23         106.283
371.68        105.4764
372.13        104.2951
372.58        103.0037
373.03        101.9847
373.48        101.3307
373.93        100.8897
374.38        100.5628
374.83        100.2088
375.28        99.76637
375.72        99.28443
376.17        98.75391
376.62        98.08344
377.07        97.27681
377.52        96.34721
377.97        95.42437
378.42        94.72416
378.87        94.28864
379.32        94.06287
379.77        93.89449
380.22         93.5374
380.67        92.94093
381.11        92.18849
381.56        91.41717
382.01        90.87865
382.46        90.63298
382.91        90.58145
383.36         90.5944
383.81        90.47513
384.26        90.16393
384.71        89.73005
385.15         89.2014
385.60        88.67426
386.05        88.17224
386.50        87.66817
386.95        87.19897
387.40        86.83549
387.85        86.57497
388.29        86.33929
388.74        86.15504
389.19        85.85412
389.64         85.4195
390.09        84.88817
390.54        84.31121
390.98        83.81787
391.43        83.51096
391.88        83.17014
392.33        82.81393
392.78        82.85654
393.23        83.09663
393.67        82.61779
394.12        81.66875
394.57         81.3306
395.02         81.5405
395.47        81.29816
395.91        80.66727
396.36        80.40193
396.81        80.52299
397.26        80.69092
397.71        80.74149
398.15        80.52496
398.60        80.10706
399.05        79.46546
399.50        78.82234
399.95        78.58218
400.39        78.76278
400.84        78.97222
401.29        79.07064
401.74        79.08495
402.18        78.93092
402.63        78.39142
403.08         77.6546
403.53           77.17
403.97        76.98969
404.42        76.94496
404.87        76.94504
405.32        76.84843
405.76        76.60033
406.21        76.42953
406.66        76.31836
407.11        75.89872
407.55        75.37569
408.00        75.46381
408.45        76.06281
408.90        76.39079
409.34        76.24863
409.79        75.74149
410.24        75.06008
410.68        74.65818
411.13        74.61176
411.58        74.62659
412.03        74.65491
412.47        74.76309
412.92        74.88847
413.37        75.02499
413.81        75.10471
414.26        75.08934
414.71        74.95285
415.15        74.71964
415.60        74.44027
416.05        74.27094
416.49         74.2551
416.94        74.34741
417.39         74.4688
417.83         74.4767
418.28        74.33965
418.73        74.10391
419.17        73.84351
419.62        73.67976
420.07        73.64055
420.51        73.67413
420.96        73.76382
421.41        73.78284
421.85         73.6825
422.30         73.6365
422.74        73.65115
423.19        73.61115
423.64        73.54048
424.08        74.04852
424.53        74.40112
424.98        74.67919
425.42        74.60561
425.87        74.56195
426.31        74.58006
426.76        74.05741
427.21        73.33194
427.65        73.80972
428.10        75.05736
428.54        75.32442
428.99        74.61964
429.44        73.38667
429.88        72.22054
430.33        72.99683
430.77        74.98207
431.22        75.11745
431.66        73.52455
432.11        72.61646
432.56        72.66266
433.00        73.18999
433.45         74.0639
433.89        73.95327
434.34         73.3297
434.78        74.96315
435.23        74.59905
435.67        74.43635
436.12        73.76418
436.57        74.17719
437.01        75.53141
437.46        75.98203
437.90        75.45079
438.35        75.06861
438.79        74.92916
439.24        74.55783
439.68        74.08458
440.13        74.12796
440.57        74.69505
441.02         75.0591
441.46        75.07155
441.91        75.63263
442.35        76.46615
442.80        75.47696
443.24        74.93962
443.69        74.58157
444.13        75.00452
444.58        75.06471
445.02        74.73985
445.47        74.73139
445.91        75.06266
446.36        75.35555
446.80        75.53833
447.24         76.2552
447.69        76.45904
448.13         76.6568
448.58        76.58894
449.02        76.44347
449.47         76.3116
449.91        76.18839
450.36        76.13659
450.80        76.17435
451.25         76.2534
451.69        76.20527
452.13        76.01628
452.58        75.75358
453.02         75.4709
453.47        75.29357
453.91        75.23215
454.36        75.24246
454.80        75.26439
455.24        75.23112
455.69        75.09819
456.13        74.86723
456.58        74.66502
457.02         74.3083
457.46        74.17039
457.91        74.58572
458.35        75.35366
458.79        75.47974
459.24        74.90113
459.68         74.2767
460.13         73.9474
460.57        72.86781
461.01        73.20808
461.46        73.30032
461.90          73.536
462.34        73.64544
462.79        72.92146
463.23        72.98667
463.68        73.49304
464.12        73.69874
464.56        73.53806
465.01        73.22083
465.45        72.81752
465.89        72.97131
466.34         73.4728
466.78         73.1133
467.22        72.04483
467.67        71.71258
468.11        71.93792
468.55        72.23827
468.99        72.39571
469.44        72.52293
469.88        72.57851
470.32        72.52702
470.77        72.41383
471.21        72.33172
471.65        72.29297
472.10        72.29025
472.54        72.27534
472.98        72.19715
473.42        72.04511
473.87        71.89108
474.31        71.73706
474.75        71.57054
475.20        71.46051
475.64        71.54425
476.08        71.70074
476.52         71.7462
476.97        71.67435
477.41         71.3778
477.85        70.44637
478.29        71.44016
478.74        71.19621
479.18        71.27319
479.62        70.82708
480.06        70.69661
480.50         70.8784
480.95        70.09929
481.39        70.85536
481.83        69.77288
482.27         70.0447
482.72        70.59888
483.16        70.40318
483.60        70.42149
484.04        70.96239
484.48        71.02618
484.93        71.11762
485.37        71.73727
485.81        71.16717
486.25        72.42873
486.69        71.73345
487.14        69.49051
487.58        68.91184
488.02        70.63508
488.46        70.07791
488.90        69.63223
489.34        70.63782
489.79        69.97384
490.23         70.2081
490.67        69.91364
491.11        69.76805
491.55        69.96752
491.99        70.38016
492.43        70.50135
492.88        70.25913
493.32        69.98043
493.76        69.76662
494.20        69.67236
494.64        69.72344
495.08        69.87061
495.52        70.07993
495.96        70.19315
496.41        70.11452
496.85        70.13055
497.29        70.15561
497.73        69.24132
498.17        69.43459
498.61        69.11002
499.05        68.95356
499.49        69.17149
499.93        69.64525
500.37         69.7912
500.82        69.59634
501.26        69.60435
501.70        69.81721
502.14        69.88665
502.58        69.79117
503.02        69.69795
503.46        69.62504
503.90        69.43684
504.34        69.34366
504.78        69.29265
505.22        69.33043
505.66        69.44882
506.10        69.61926
506.54        69.65824
506.98        69.44732
507.42        69.57661
507.86        69.05276
508.30        68.60415
508.74        68.89059
509.18        68.99869
509.62        69.13865
510.06        69.25575
510.50        69.33182
510.94        69.35548
511.38        69.33064
511.82        69.28908
512.26        69.23534
512.70        69.15575
513.14        69.05693
513.58        68.95174
514.02        68.84769
514.46         68.7569
514.90        68.67084
515.34        68.57008
515.78        68.45808
516.22        68.34384
516.66        68.26469
517.10        68.27573
517.54        68.38014
517.98         68.5552
518.42        68.74229
518.86        68.84042
519.30        68.82426
519.74        68.73801
520.18         68.6292
520.62        68.53799
521.06        68.50378
521.50        68.58445
521.93        68.73582
522.37        68.79903
522.81        68.75475
523.25        68.68166
523.69        68.59858
524.13        68.50592
524.57        68.42146
525.01        68.35159
525.45        68.30936
525.89        68.31844
526.32        68.37659
526.76        68.46315
527.20        68.57047
527.64        68.68865
528.08         68.8019
528.52        68.91367
528.96        68.96696
529.40        68.87643
529.83        68.63657
530.27        68.30116
530.71         67.9797
531.15        67.86021
531.59        67.98125
532.03        68.28094
532.46        68.63685
532.90        68.87014
533.34        68.92519
533.78        68.80121
534.22        68.57457
534.66        68.48264
535.09        68.49458
535.53        68.32887
535.97        68.01388
536.41        67.84389
536.85        67.83727
537.28        67.84462
537.72         67.8553
538.16        67.90826
538.60        67.98798
539.04        68.07258
539.47        68.13992
539.91        68.19722
540.35        68.22312
540.79        68.24453
541.22        68.25374
541.66        68.14535
542.10        68.09719
542.54        67.97692
542.97        67.86382
543.41        67.83324
543.85        67.88438
544.29        67.99982
544.72        68.11975
545.16         68.1865
545.60        68.16964
546.04        68.08395
546.47        67.97343
546.91        67.92225
547.35        67.95639
547.79        68.03254
548.22        68.06583
548.66        68.07308
549.10        68.04106
549.53        67.67083
549.97        67.62148
550.41        67.56371
550.84        67.69279
551.28        67.96855
551.72        68.29264
552.15        68.43632
552.59        68.39191
553.03         68.3149
553.46        68.23518
553.90        68.19207
554.34        68.19559
554.77        68.18924
555.21        68.12992
555.65        68.24915
556.08        67.99048
556.52        67.79279
556.96        67.53241
557.39         67.3434
557.83        67.28388
558.27        67.25171
558.70        67.23067
559.14        67.52193
559.57         67.5083
560.01        67.74825
560.45        67.93638
560.88        67.92561
561.32        67.77509
561.75        67.31358
562.19        66.81413
562.63           67.09
563.06        67.90842
563.50        67.92424
563.93        67.24609
564.37        66.86739
564.80         67.4152
565.24        67.64971
565.68        67.66939
566.11        67.66872
566.55        67.66386
566.98        67.55431
567.42        67.42565
567.85        67.41717
568.29         67.5733
568.72        67.72536
569.16        67.85158
569.60        68.12624
570.03        67.79279
570.47         67.7645
570.90        67.94695
571.34        67.15543
571.77        67.57993
572.21        67.65279
572.64        67.97995
573.08        67.64548
573.51        67.84734
573.95        68.02394
574.38        67.37863
574.82         67.8167
