SpectraSmart Spectrum 2.9.0.0
--------- Device Information -----------
Spectrum Name :  反射率_0
Saving Time :  2024/05/01 16:17:24
Spectro-Module Model Name : SE2030-DUVN
Spectro-Module Serial Number : OS361AC55029948
Wavelength Start : 200
Wavelength End : 1025
Wavelength Unit : Wavelength(nm)
Spectrum Unit : Reflectance(%)
-----------Spectrum Setting ------------
Integration Time : 20ms
Average : 10
Boxcar : 0
Background removal :  enabled
linearity correction :  enabled
SC :  disabled
Intensity correction :  disabled
DWT denoise :  enabled
savitzky-golay :  disabled
FFT :  disabled
Running average :  disabled
Kalman :  disabled
High pass :  disabled
---------------BEGIN--------------------
Wavelength(nm)             Reflectance(%)
200.29               0
200.75        46.49024
201.21        407.6147
201.67       -217.1606
202.13       -77.75368
202.58       -22.03269
203.04        15.31936
203.50        39.11706
203.96        47.75399
204.42        41.82239
204.88         4.54569
205.34       -1006.311
205.80        209.8415
206.26        137.8942
206.72        88.45403
207.18       -61.87186
207.64        296.7198
208.10        144.7314
208.55        95.99152
209.01        67.08501
209.47        52.04947
209.93        45.74574
210.39        41.84072
210.85         38.1701
211.31        30.75601
211.77        2.601969
212.23        213.9854
212.69        89.11777
213.14        93.73662
213.60        152.9134
214.06       -539.1378
214.52       -61.39606
214.98       -29.15833
215.44        -20.2269
215.90       -19.55203
216.36       -74.74277
216.81        6.512182
217.27       -5.704868
217.73        15.94628
218.19       -3.318663
218.65       -15.11698
219.11        -38.6923
219.57       -109.4289
220.02       -395.4739
220.48        -202.105
220.94       -51.26077
221.40       -12.33169
221.86        2.156227
222.32        9.429653
222.77        15.03427
223.23        21.36977
223.69        28.06399
224.15        29.72108
224.61        25.28294
225.06         19.0214
225.52        14.74632
225.98        13.69687
226.44        15.26478
226.90        19.02915
227.36        24.12097
227.81        26.34679
228.27        24.12275
228.73         20.2989
229.19        16.89443
229.65        14.64779
230.10        13.27245
230.56        12.53339
231.02        12.56924
231.48        13.82886
231.93        16.01575
232.39        18.45174
232.85        20.94695
233.31        23.56068
233.77        26.19379
234.22        28.81859
234.68        30.87791
235.14         31.8938
235.60        31.88625
236.05        30.82466
236.51        29.29821
236.97        29.56626
237.43        33.05786
237.88        39.14336
238.34        45.08887
238.80        48.17355
239.26         47.7778
239.71        43.75848
240.17        34.83574
240.63        23.16702
241.08        14.97183
241.54        12.83609
242.00        16.00429
242.46        22.90079
242.91        34.83505
243.37        55.98973
243.83        92.12475
244.28        125.9986
244.74        128.5602
245.20        113.2564
245.66        97.42572
246.11        86.79845
246.57        79.08155
247.03        70.07661
247.48        55.64275
247.94        33.32946
248.40         9.67388
248.85       -8.014832
249.31       -10.53616
249.77        2.916189
250.22        22.82501
250.68        42.37667
251.14        57.34647
251.59        66.69222
252.05        72.74018
252.51        77.87247
252.96        85.19232
253.42        101.6086
253.88        113.8886
254.33        106.5307
254.79        96.44691
255.25        87.60205
255.70        79.61412
256.16        73.63504
256.62        69.28374
257.07        66.55704
257.53        65.50187
257.99        65.04565
258.44        64.69409
258.90        64.58885
259.35        64.25064
259.81         63.9627
260.27         63.4021
260.72        62.26402
261.18        60.91192
261.63        59.23724
262.09        57.68043
262.55        56.29666
263.00        54.97214
263.46        53.77789
263.91        52.51086
264.37        51.22845
264.83        49.89549
265.28        48.59123
265.74         47.3556
266.19        45.98359
266.65        44.58546
267.11        43.10275
267.56        41.85077
268.02        41.41997
268.47        41.79819
268.93        42.74481
269.38        43.63255
269.84        43.39769
270.30        41.86948
270.75        39.42031
271.21        36.74091
271.66        34.75272
272.12        33.75312
272.57        33.38686
273.03          33.399
273.48        33.33947
273.94        33.06324
274.39        32.69075
274.85        32.22292
275.31        31.58256
275.76        30.78445
276.22        29.88325
276.67        28.95725
277.13        28.23052
277.58        27.68896
278.04        27.32273
278.49        27.03029
278.95        26.75933
279.40        26.43531
279.86        26.10324
280.31        25.74692
280.77         25.4259
281.22        25.10328
281.68        24.81853
282.13         24.4755
282.59        24.01856
283.04        23.43816
283.50        22.81713
283.95        22.28426
284.41        22.08299
284.86         22.2291
285.32        22.63228
285.77        23.13285
286.22        23.54042
286.68        23.80574
287.13        23.96241
287.59        24.04097
288.04        24.05079
288.50        24.03617
288.95         23.9523
289.41        23.88033
289.86        23.87165
290.32        23.96743
290.77         24.1647
291.22        24.41757
291.68        24.63527
292.13        24.81387
292.59        25.02435
293.04        25.34771
293.50        25.95655
293.95        26.86187
294.40        28.00956
294.86        29.30347
295.31        30.59998
295.77        31.83864
296.22        33.04154
296.68        34.22632
297.13        35.41312
297.58        36.64214
298.04        37.93241
298.49        39.29697
298.95        40.79115
299.40        42.39106
299.85        44.07248
300.31        45.84999
300.76        47.73697
301.21        49.74362
301.67        51.87608
302.12        53.99628
302.58        55.90943
303.03         57.5274
303.48        58.91915
303.94        60.30748
304.39        61.93777
304.84        63.91991
305.30          66.168
305.75        68.48838
306.20         70.6017
306.66        72.42916
307.11        74.00351
307.57        75.46323
308.02        76.90952
308.47        78.41897
308.93        79.95554
309.38        81.43043
309.83        82.80277
310.29        84.06966
310.74        85.23624
311.19         86.3489
311.65        87.45097
312.10        88.52979
312.55        89.56979
313.00        90.56756
313.46        91.52345
313.91         92.4223
314.36        93.26879
314.82        94.00768
315.27        94.56448
315.72        94.91676
316.18         95.1198
316.63        95.22717
317.08        95.39223
317.53        95.65672
317.99        95.98262
318.44        96.33466
318.89        96.62536
319.35        96.83489
319.80        97.02442
320.25        97.19751
320.70        97.36132
321.16        97.51806
321.61        97.66565
322.06        97.88602
322.51        98.33431
322.97        98.99295
323.42        99.83901
323.87        100.6382
324.32        101.0289
324.78        100.9221
325.23        100.4629
325.68        99.87243
326.13        99.53803
326.59        99.56277
327.04        99.89718
327.49        100.4103
327.94        100.8961
328.39        101.2703
328.85        101.5494
329.30        101.8465
329.75        102.1918
330.20        102.5982
330.66         103.002
331.11        103.3788
331.56        103.5819
332.01        103.6045
332.46        103.5004
332.92         103.408
333.37        103.6582
333.82        104.2989
334.27        105.2738
334.72        106.3976
335.17        107.3303
335.63        107.9248
336.08        108.2956
336.53        108.5672
336.98        109.0201
337.43        109.7289
337.88        110.6058
338.34        111.4469
338.79        112.0099
339.24        112.1885
339.69        112.0693
340.14        111.8793
340.59        111.9667
341.05        112.4079
341.50        113.1316
341.95        113.8904
342.40        114.2818
342.85        114.2352
343.30        113.9084
343.75        113.6048
344.20        113.7878
344.66        114.5485
345.11        115.7097
345.56        117.0186
346.01         118.047
346.46        118.6492
346.91        118.9641
347.36        119.0878
347.81        119.1717
348.26        119.2933
348.72        119.4076
349.17        119.5574
349.62        119.8925
350.07        120.3973
350.52        120.9995
350.97        121.5463
351.42        121.7687
351.87        121.6108
352.32        121.2028
352.77        120.5759
353.22          119.79
353.67        118.9207
354.13        117.9812
354.58        117.1818
355.03        116.9542
355.48        117.3416
355.93        118.2561
356.38         119.212
356.83        119.3844
357.28        118.6042
357.73        117.1195
358.18        115.5512
358.63        114.8318
359.08        115.1269
359.53        116.1279
359.98        117.2519
360.43        117.5282
360.88        116.7045
361.33        115.1228
361.78        113.2936
362.23        111.9436
362.68        111.2515
363.13         110.983
363.58        110.8356
364.03        110.3501
364.48        109.3976
364.93        108.1368
365.38        106.8145
365.83        105.7701
366.28        105.0823
366.73        104.6549
367.18        104.2304
367.63        103.4182
368.08        102.1724
368.53        100.6523
368.98        99.22464
369.43        98.40954
369.88        98.28257
370.33        98.66312
370.78        99.16628
371.23        99.12765
371.68        98.36372
372.13        97.09753
372.58        95.67175
373.03        94.59525
373.48        93.99441
373.93        93.69337
374.38        93.53085
374.83        93.25513
375.28        92.78078
375.72        92.19909
376.17        91.57145
376.62        90.91475
377.07        90.25229
377.52        89.55538
377.97        88.88112
378.42        88.33615
378.87        87.93536
379.32        87.65688
379.77         87.4055
380.22        87.02337
380.67        86.47885
381.11        85.82377
381.56        85.15279
382.01        84.64571
382.46        84.35272
382.91        84.21927
383.36        84.14746
383.81        83.98627
384.26        83.68966
384.71        83.29572
385.15        82.85909
385.60         82.5148
386.05        82.27471
386.50        82.10043
386.95        81.91382
387.40        81.60622
387.85        81.16419
388.29        80.58614
388.74        80.05914
389.19        79.65419
389.64        79.38536
390.09        79.20966
390.54        79.03899
390.98        78.72022
391.43        78.27921
391.88        77.75179
392.33        77.23437
392.78        76.85741
393.23        76.64147
393.67        76.51159
394.12        76.43345
394.57        76.24664
395.02        75.90416
395.47        75.36583
395.91        74.80875
396.36        74.57288
396.81        74.70646
397.26        75.08994
397.71        75.45878
398.15         75.4161
398.60        74.99302
399.05        74.23389
399.50        73.44028
399.95        73.15999
400.39        73.42411
400.84        73.71995
401.29        73.86926
401.74         73.9629
402.18        73.87179
402.63        73.22406
403.08        72.26876
403.53        71.69775
403.97          71.587
404.42        71.64328
404.87        71.75549
405.32        71.78307
405.76        71.64915
406.21        71.60493
406.66        71.60194
407.11         71.1531
407.55        70.48875
408.00        70.49948
408.45        71.09052
408.90        71.34821
409.34        71.08569
409.79         70.5049
410.24        69.81857
410.68        69.46026
411.13        69.50193
411.58        69.65829
412.03        69.83267
412.47        69.99897
412.92        70.07648
413.37         70.0864
413.81        70.02431
414.26         69.9454
414.71        69.84983
415.15        69.73675
415.60        69.61981
416.05         69.5883
416.49        69.65662
416.94        69.78993
417.39        69.93962
417.83        70.00672
418.28        69.97536
418.73         69.8933
419.17        69.76684
419.62        69.61744
420.07        69.45304
420.51        69.22778
420.96        69.07404
421.41        69.07825
421.85        69.19564
422.30        69.59627
422.74         70.0546
423.19        69.86293
423.64        69.19936
424.08         69.2618
424.53        69.99641
424.98        70.29873
425.42        70.09049
425.87         70.1835
426.31        70.55289
426.76        70.36168
427.21         69.8364
427.65        70.18465
428.10         71.1291
428.54        71.39724
428.99        70.99812
429.44        70.21191
429.88        69.41155
430.33         69.9494
430.77        71.29145
431.22        71.20923
431.66        69.87839
432.11        69.27944
432.56        69.56412
433.00        70.15412
433.45        70.87199
433.89        70.72539
434.34        70.04347
434.78        71.58601
435.23          71.174
435.67         71.3266
436.12         70.9297
436.57        71.21689
437.01        72.06625
437.46        72.40604
437.90          72.147
438.35        72.02801
438.79        72.05988
439.24        71.84846
439.68        71.48866
440.13        71.60304
440.57        72.18105
441.02        72.44296
441.46        72.25597
441.91        72.80862
442.35        73.16708
442.80        72.53355
443.24        72.06157
443.69        71.96259
444.13        72.51965
444.58        72.74142
445.02        72.60166
445.47        72.67444
445.91        72.96514
446.36        73.21873
446.80        73.39849
447.24         73.7156
447.69        73.87202
448.13        74.02567
448.58        74.10262
449.02        74.09326
449.47        74.03626
449.91        73.96213
450.36        73.90531
450.80        73.82892
451.25        73.75253
451.69         73.6591
452.13        73.55673
452.58        73.46625
453.02        73.35152
453.47        73.19769
453.91        72.99363
454.36        72.74873
454.80        72.50838
455.24        72.38046
455.69        72.34671
456.13        72.33938
456.58        72.39308
457.02        72.24674
457.46        71.98014
457.91        72.50636
458.35        72.76984
458.79        72.76713
459.24        72.21201
459.68        71.65243
460.13        71.39891
460.57        70.41466
461.01        70.78036
461.46         70.9697
461.90        71.37314
462.34        71.28122
462.79        70.72765
463.23        70.72464
463.68        71.14472
464.12        71.29749
464.56        71.14904
465.01        70.62643
465.45        70.36193
465.89        70.45545
466.34        70.89489
466.78        70.68144
467.22        69.91057
467.67        69.65182
468.11        69.73477
468.55        70.01331
468.99        70.27077
469.44        70.38958
469.88        70.33279
470.32        70.19386
470.77        70.04324
471.21        69.95821
471.65        69.95245
472.10        70.01395
472.54        70.08007
472.98        70.05746
473.42        69.91894
473.87        69.79904
474.31        69.67801
474.75        69.37242
475.20        69.00287
475.64        69.06425
476.08        69.43792
476.52          69.479
476.97        69.12843
477.41        69.21637
477.85        68.19455
478.29        69.03426
478.74        69.13973
479.18        69.15477
479.62        68.57193
480.06        68.39488
480.50        68.65565
480.95        68.04355
481.39        68.98639
481.83        67.55029
482.27        68.33163
482.72        68.17048
483.16        68.22696
483.60        68.37643
484.04         68.5356
484.48        68.60278
484.93        68.91047
485.37        69.13766
485.81        69.16002
486.25        70.42799
486.69        70.30376
487.14        67.80116
487.58        66.60678
488.02        68.49551
488.46        68.55723
488.90         67.8901
489.34        68.61288
489.79        68.34197
490.23        68.32259
490.67        67.96944
491.11        67.56883
491.55          67.826
491.99        68.54697
492.43        68.80784
492.88        68.51697
493.32        68.22646
493.76        68.05586
494.20        67.96491
494.64        67.96786
495.08        68.09215
495.52        68.32635
495.96        68.36118
496.41         68.0892
496.85        68.47462
497.29          68.464
497.73        67.56956
498.17        67.57127
498.61        67.35162
499.05        67.51552
499.49        67.76421
499.93        67.99725
500.37        68.05656
500.82        67.95354
501.26        67.91476
501.70        67.94049
502.14        68.12552
502.58        67.98976
503.02        67.93339
503.46        67.82796
503.90        67.68037
504.34         67.5575
504.78        67.56325
505.22        67.70486
505.66        67.97969
506.10        68.28545
506.54        68.33738
506.98        68.07291
507.42        68.00716
507.86        67.48437
508.30         67.3008
508.74        67.27677
509.18        67.37769
509.62        67.53976
510.06        67.67206
510.50        67.74655
510.94        67.78716
511.38        67.80447
511.82        67.81223
512.26        67.81317
512.70        67.78508
513.14        67.74031
513.58        67.70667
514.02        67.68814
514.46          67.688
514.90        67.66798
515.34        67.56249
515.78         67.3702
516.22        67.12069
516.66        66.89315
517.10        66.80744
517.54         66.8857
517.98        67.08836
518.42        67.33477
518.86        67.48991
519.30        67.51473
519.74        67.44721
520.18        67.33814
520.62        67.27198
521.06        67.27049
521.50        67.29688
521.93        67.33331
522.37        67.34381
522.81        67.32249
523.25        67.29422
523.69        67.24495
524.13        67.14581
524.57        67.00524
525.01        66.83522
525.45        66.69772
525.89        66.69142
526.32        66.82671
526.76        67.06415
527.20        67.32247
527.64        67.47278
528.08          67.478
528.52        67.37933
528.96        67.21851
529.40        67.06303
529.83        66.93515
530.27         66.8353
530.71        66.76974
531.15        66.76402
531.59        66.81908
532.03        66.92784
532.46        67.05181
532.90        67.14748
533.34        67.19659
533.78        67.15118
534.22        67.03766
534.66        67.01851
535.09        67.04459
535.53        66.86762
535.97         66.5264
536.41        66.33762
536.85        66.32984
537.28        66.29903
537.72        66.24979
538.16        66.35529
538.60        66.55141
539.04        66.57558
539.47        66.44479
539.91          66.429
540.35        66.51863
540.79        66.59109
541.22        66.62832
541.66        66.56239
542.10        66.55958
542.54        66.51228
542.97        66.47222
543.41        66.41064
543.85        66.35156
544.29        66.42474
544.72        66.59103
545.16        66.68657
545.60        66.67831
546.04        66.70432
546.47        66.74691
546.91        66.63401
547.35        66.44784
547.79        66.44495
548.22        66.56718
548.66        66.65151
549.10        66.48926
549.53        66.11063
549.97        66.10308
550.41        66.07858
550.84        66.22076
551.28        66.51132
551.72        66.84517
552.15        66.97899
552.59        66.90684
553.03        66.78486
553.46        66.65453
553.90        66.59966
554.34        66.64462
554.77        66.67495
555.21        66.63765
555.65        66.95747
556.08        66.74847
556.52        66.60116
556.96        66.36071
557.39        66.11634
557.83        66.29679
558.27        66.41639
558.70        66.51206
559.14        66.73129
559.57        66.57109
560.01        66.69037
560.45         66.8499
560.88        66.90904
561.32        66.86241
561.75        66.40517
562.19        65.79436
562.63        65.89742
563.06          66.563
563.50        66.58645
563.93        65.99921
564.37        65.84388
564.80        66.10318
565.24        66.22991
565.68        66.19152
566.11        66.19196
566.55        66.25382
566.98        66.29268
567.42         66.3539
567.85        66.43424
568.29         66.5378
568.72          66.683
569.16        66.92367
569.60        66.95876
570.03        66.66885
570.47        67.14789
570.90        66.94772
571.34        66.40454
571.77        66.68632
572.21        66.75125
572.64        67.07554
573.08        66.67969
573.51        66.59969
573.95        67.64085
574.38        66.54268
574.82        67.00837
