SpectraSmart Spectrum 2.9.0.0
--------- Device Information -----------
Spectrum Name :  反射率_0
Saving Time :  2024/05/01 16:19:14
Spectro-Module Model Name : SE2030-DUVN
Spectro-Module Serial Number : OS361AC55029948
Wavelength Start : 200
Wavelength End : 1025
Wavelength Unit : Wavelength(nm)
Spectrum Unit : Reflectance(%)
-----------Spectrum Setting ------------
Integration Time : 20ms
Average : 10
Boxcar : 0
Background removal :  enabled
linearity correction :  enabled
SC :  disabled
Intensity correction :  disabled
DWT denoise :  enabled
savitzky-golay :  disabled
FFT :  disabled
Running average :  disabled
Kalman :  disabled
High pass :  disabled
---------------BEGIN--------------------
Wavelength(nm)             Reflectance(%)
200.29               0
200.75         -2.0233
201.21        247.2947
201.67        -156.395
202.13       -51.96477
202.58       -3.601658
203.04        30.75177
203.50        55.54544
203.96        72.60226
204.42        89.07966
204.88        126.7622
205.34        1054.098
205.80       -92.82208
206.26       -70.31674
206.72       -122.0819
207.18       -480.2492
207.64        611.9167
208.10        249.0163
208.55        169.6038
209.01        133.7892
209.47        112.8115
209.93        98.26368
210.39        85.22402
210.85        75.30639
211.31         72.6273
211.77        88.40043
212.23       -98.47582
212.69        14.31374
213.14        34.15039
213.60        78.27555
214.06       -368.0177
214.52        -53.8385
214.98       -26.40217
215.44       -6.914698
215.90        36.99118
216.36         651.329
216.81       -280.9959
217.27       -312.2193
217.73        431.8218
218.19        36.08864
218.65        1.424531
219.11       -2.828412
219.57        17.06907
220.02         158.215
220.48        137.6799
220.94        60.81414
221.40        37.71541
221.86        29.76409
222.32        28.64404
222.77        31.50349
223.23        37.24131
223.69        44.82762
224.15        47.67212
224.61        43.63326
225.06        37.69139
225.52        33.42373
225.98        31.46083
226.44        31.19052
226.90        31.83983
227.36        33.33746
227.81        34.95809
228.27        35.73092
228.73        35.93931
229.19        35.57121
229.65         34.4309
230.10        32.45638
230.56         29.6522
231.02        26.35259
231.48        24.36167
231.93        24.61597
232.39        26.28733
232.85        28.61081
233.31        30.96399
233.77        33.14428
234.22        35.34983
234.68        37.25727
235.14        38.64845
235.60        39.65461
236.05        40.38931
236.51        41.38233
236.97        43.95766
237.43        48.45563
237.88        54.02002
238.34        58.72198
238.80        61.57499
239.26        62.63882
239.71        62.02725
240.17        58.77804
240.63        53.01761
241.08        47.37326
241.54        44.29035
242.00        44.89789
242.46        49.49207
242.91        59.49805
243.37        77.72806
243.83         109.484
244.28        140.1679
244.74        143.5954
245.20        131.5331
245.66        118.1465
246.11        107.8078
246.57        98.45981
247.03        85.15091
247.48        64.31834
247.94        39.47749
248.40         22.1645
248.85        16.50937
249.31        22.68006
249.77        32.89454
250.22        42.23365
250.68        50.63912
251.14        56.57724
251.59        59.49823
252.05        60.12609
252.51        57.48968
252.96        51.71593
253.42        60.79229
253.88        97.23218
254.33         117.677
254.79        116.7723
255.25        106.0134
255.70        92.29919
256.16        80.10139
256.62         71.2541
257.07        67.51723
257.53        67.83343
257.99        69.52531
258.44        71.08167
258.90        71.93035
259.35        71.66087
259.81        71.00541
260.27        69.96688
260.72         68.6291
261.18        67.42165
261.63        66.02708
262.09        64.70313
262.55        63.28271
263.00        61.66875
263.46        60.07354
263.91        58.46186
264.37         57.1382
264.83        56.03744
265.28         55.1019
265.74        54.19978
266.19        52.86417
266.65        51.19221
267.11        49.23898
267.56        47.44534
268.02        46.59672
268.47        46.74377
268.93         47.5869
269.38        48.49132
269.84        48.38219
270.30        47.05478
270.75        44.87399
271.21        42.45101
271.66        40.57626
272.12        39.52971
272.57        38.98866
273.03         38.7683
273.48        38.53198
273.94        38.17094
274.39        37.75835
274.85        37.29421
275.31        36.68068
275.76        35.91965
276.22        35.09594
276.67         34.2253
277.13        33.46206
277.58         32.7802
278.04        32.18212
278.49        31.67547
278.95        31.38838
279.40        31.24991
279.86        31.24432
280.31        31.16043
280.77        30.80539
281.22        30.11986
281.68        29.26038
282.13        28.33334
282.59        27.57991
283.04        27.02462
283.50        26.64359
283.95        26.39011
284.41        26.24555
284.86        26.17256
285.32        26.19738
285.77        26.28333
286.22         26.4115
286.68        26.57365
287.13        26.73995
287.59        26.90033
288.04        27.00254
288.50         27.0607
288.95        27.04257
289.41        27.02304
289.86        27.03352
290.32        27.11672
290.77        27.26545
291.22         27.4418
291.68        27.57225
292.13        27.65981
292.59        27.77754
293.04        28.01681
293.50        28.56444
293.95        29.43665
294.40         30.5847
294.86        31.89917
295.31        33.21094
295.77        34.45444
296.22        35.65086
296.68        36.84095
297.13        38.08113
297.58        39.40775
298.04        40.81361
298.49        42.26057
298.95        43.73078
299.40         45.1831
299.85        46.62027
300.31         48.0982
300.76        49.68666
301.21        51.41755
301.67        53.28996
302.12        55.16523
302.58         56.8465
303.03        58.25608
303.48        59.48374
303.94        60.75545
304.39         62.3123
304.84         64.2587
305.30        66.49495
305.75        68.83729
306.20         71.0247
306.66        72.96865
307.11         74.6858
307.57        76.25803
308.02        77.70738
308.47        79.09879
308.93        80.41705
309.38        81.64972
309.83        82.87457
310.29        84.11977
310.74        85.37195
311.19        86.59496
311.65         87.6987
312.10        88.65122
312.55        89.48112
313.00          90.306
313.46        91.31447
313.91        92.52059
314.36        93.85738
314.82        95.11468
315.27        95.96948
315.72        96.33295
316.18        96.33556
316.63        96.16496
317.08        96.17796
317.53        96.47647
317.99        96.97565
318.44        97.55256
318.89        97.97503
319.35        98.18388
319.80        98.27912
320.25        98.37217
320.70        98.63803
321.16        99.10004
321.61        99.68959
322.06        100.3209
322.51        100.8816
322.97        101.2979
323.42         101.644
323.87        101.8669
324.32        101.9074
324.78        101.7745
325.23        101.5309
325.68        101.2924
326.13        101.2718
326.59        101.5008
327.04        101.9684
327.49        102.5656
327.94        103.1205
328.39         103.559
328.85        103.8772
329.30        104.1488
329.75        104.3509
330.20        104.5023
330.66        104.5748
331.11        104.6567
331.56        104.7744
332.01        104.9594
332.46        105.2129
332.92        105.5478
333.37        106.0841
333.82        106.7939
334.27        107.6607
334.72        108.5641
335.17        109.2898
335.63        109.7458
336.08        110.0266
336.53        110.2195
336.98        110.5464
337.43        111.0734
337.88         111.737
338.34        112.4249
338.79        113.0323
339.24        113.4734
339.69         113.792
340.14        114.0475
340.59        114.3268
341.05        114.6542
341.50        115.0291
341.95         115.404
342.40        115.7069
342.85        115.9342
343.30        116.1263
343.75        116.3796
344.20        116.8376
344.66        117.5118
345.11        118.3307
345.56        119.1838
346.01        119.8772
346.46        120.3415
346.91        120.6387
347.36        120.7987
347.81         120.873
348.26        120.9092
348.72        120.9123
349.17        120.9401
349.62        121.1542
350.07        121.5527
350.52        122.0539
350.97        122.5288
351.42         122.755
351.87        122.6769
352.32        122.4006
352.77        121.9188
353.22          121.23
353.67        120.3928
354.13        119.4407
354.58        118.5851
355.03        118.2644
355.48        118.5292
355.93        119.2807
356.38        120.0768
356.83        120.1668
357.28        119.3924
357.73        117.9854
358.18        116.4802
358.63        115.6753
359.08        115.7138
359.53        116.3254
359.98        117.0381
360.43        117.0732
360.88        116.2314
361.33        114.8022
361.78        113.1802
362.23        111.9129
362.68        111.1449
363.13        110.7055
363.58        110.3933
364.03         109.912
364.48        109.1665
364.93        108.2405
365.38        107.2931
365.83          106.54
366.28        106.0131
366.73         105.644
367.18        105.1888
367.63        104.2807
368.08        102.8962
368.53        101.2004
368.98        99.57425
369.43         98.5573
369.88        98.23825
370.33        98.44471
370.78        98.83006
371.23        98.78558
371.68        98.13534
372.13        97.08114
372.58        95.89481
373.03        94.98059
373.48          94.437
373.93        94.10412
374.38        93.87025
374.83        93.57507
375.28        93.15221
375.72        92.65883
376.17        92.10318
376.62        91.42195
377.07        90.62772
377.52        89.73371
377.97        88.84756
378.42        88.14879
378.87        87.67739
379.32        87.39146
379.77         87.1805
380.22          86.863
380.67        86.39381
381.11        85.82706
381.56        85.24593
382.01        84.81214
382.46        84.56353
382.91        84.43646
383.36        84.33737
383.81        84.12519
384.26        83.76472
384.71        83.31139
385.15        82.80811
385.60        82.36998
386.05        82.01514
386.50        81.70638
386.95        81.43739
387.40        81.20924
387.85        81.00227
388.29        80.75749
388.74         80.5275
389.19        80.19595
389.64        79.75536
390.09        79.23034
390.54        78.65705
390.98         78.1204
391.43        77.71544
391.88        77.31084
392.33        76.93498
392.78        76.86593
393.23        76.97688
393.67        76.66783
394.12        76.09258
394.57        75.90344
395.02        76.03569
395.47        75.80109
395.91        75.27163
396.36        75.04002
396.81        75.13162
397.26        75.27278
397.71        75.34497
398.15        75.22141
398.60        74.94996
399.05        74.55584
399.50        74.16743
399.95        73.89394
400.39        73.80672
400.84        73.95753
401.29        74.19328
401.74        74.10473
402.18        73.63229
402.63        72.93427
403.08        72.23441
403.53        71.80223
403.97        71.69169
404.42         71.8018
404.87        71.98261
405.32        72.04182
405.76        71.89175
406.21        71.57877
406.66        71.18212
407.11        70.85991
407.55        70.75458
408.00        70.83179
408.45        71.04615
408.90        71.49478
409.34        71.88963
409.79        71.44626
410.24        70.41402
410.68        69.92139
411.13          70.065
411.58        70.21921
412.03        70.27724
412.47        70.34997
412.92        70.36797
413.37        70.32571
413.81        70.24026
414.26        70.18939
414.71        70.16779
415.15        70.16921
415.60        70.15714
416.05        70.12975
416.49         70.0854
416.94        70.02579
417.39        69.95739
417.83        69.86827
418.28        69.77145
418.73        69.69118
419.17        69.62605
419.62        69.57513
420.07        69.52807
420.51        69.45706
420.96        69.45673
421.41        69.51575
421.85        69.59107
422.30        69.95698
422.74        70.42683
423.19        70.18883
423.64        69.44202
424.08        69.64133
424.53        70.69957
424.98        70.68604
425.42        70.54516
425.87        70.28032
426.31        70.32518
426.76        70.04935
427.21        69.67795
427.65        70.31226
428.10        71.50335
428.54         71.5988
428.99        70.74287
429.44        69.83638
429.88        69.27173
430.33        70.03418
430.77        71.50707
431.22        71.50664
431.66        70.19297
432.11        69.45313
432.56        69.49118
433.00        70.01692
433.45        70.88903
433.89        70.39355
434.34        69.97685
434.78        71.13785
435.23        70.95187
435.67        71.03818
436.12        70.65999
436.57        71.06709
437.01        72.00748
437.46        72.80509
437.90        72.62627
438.35        71.63412
438.79        72.05214
439.24        71.60923
439.68        71.14627
440.13        71.18584
440.57        71.73402
441.02        72.18399
441.46        72.39911
441.91        72.92423
442.35        73.46508
442.80        73.35577
443.24        72.70752
443.69        72.46332
444.13        72.65339
444.58        72.66222
445.02        72.47688
445.47         72.5132
445.91        72.78787
446.36        73.06331
446.80        73.28656
447.24        73.71095
447.69        74.13251
448.13        74.01736
448.58        73.51105
449.02          73.437
449.47        73.80751
449.91         73.9296
450.36          73.814
450.80        73.85303
451.25        74.03412
451.69        74.08503
452.13        73.99331
452.58        73.84566
453.02        73.64413
453.47        73.43488
453.91        73.22228
454.36         73.0007
454.80        72.80376
455.24        72.63623
455.69        72.47182
456.13        72.41243
456.58        72.55012
457.02        71.96305
457.46        72.13979
457.91        72.38947
458.35        72.92077
458.79        72.92123
459.24        72.36348
459.68        71.78558
460.13        71.47997
460.57        70.45228
461.01        70.79291
461.46        70.87124
461.90        71.06422
462.34        71.25922
462.79          70.462
463.23        70.58897
463.68        71.19063
464.12        71.33562
464.56        70.98811
465.01        70.73377
465.45        70.57036
465.89        70.55224
466.34         70.6166
466.78        70.37753
467.22        69.89503
467.67        69.76381
468.11        69.74615
468.55        69.81758
468.99        69.84154
469.44        69.85419
469.88        69.84523
470.32         69.8024
470.77        69.74439
471.21        69.71915
471.65        69.71899
472.10        69.73493
472.54        69.73959
472.98        69.70041
473.42        69.60385
473.87        69.55702
474.31        69.50587
474.75        69.24436
475.20        68.89221
475.64        68.86226
476.08         69.0881
476.52        69.13733
476.97        68.99104
477.41         68.7579
477.85        68.52325
478.29        68.72623
478.74        69.13401
479.18        69.03753
479.62        68.46761
480.06        68.35902
480.50        68.77385
480.95        68.13902
481.39        68.75443
481.83         68.1784
482.27        68.28865
482.72        68.10017
483.16        68.00786
483.60         68.1163
484.04        68.35011
484.48        68.49007
484.93        68.73998
485.37        69.51118
485.81        68.58858
486.25        70.33347
486.69        69.94879
487.14         67.8018
487.58        66.57914
488.02        68.44669
488.46        67.49937
488.90        67.19472
489.34        67.84336
489.79        67.95564
490.23        68.18514
490.67        68.04436
491.11        67.76008
491.55         67.8739
491.99         68.2967
492.43        68.38886
492.88        68.11134
493.32        67.87989
493.76        67.76897
494.20        67.71627
494.64        67.73706
495.08        67.84467
495.52        67.98402
495.96        68.02785
496.41        67.96244
496.85        67.90649
497.29        67.82677
497.73        67.65253
498.17        67.42446
498.61        67.13239
499.05        66.90189
499.49        67.08352
499.93        67.56426
500.37           67.77
500.82        67.69212
501.26        67.75366
501.70        67.93718
502.14        68.15776
502.58        68.02473
503.02        67.87854
503.46        67.68442
503.90        67.37408
504.34        67.09686
504.78         67.0686
505.22        67.30912
505.66        67.80432
506.10        68.35892
506.54        68.47491
506.98        68.04329
507.42        67.85543
507.86         66.9802
508.30        66.67176
508.74         66.6788
509.18        66.92228
509.62        67.27592
510.06        67.55412
510.50         67.6932
510.94         67.7416
511.38        67.72121
511.82        67.66069
512.26        67.57765
512.70        67.44951
513.14        67.30218
513.58        67.18974
514.02        67.12497
514.46        67.10619
514.90        67.10788
515.34        67.07652
515.78        67.00568
516.22        66.92185
516.66         66.8493
517.10        66.82426
517.54         66.8501
517.98        66.90035
518.42        66.97662
518.86        67.06413
519.30        67.14816
519.74        67.28835
520.18        67.41905
520.62        67.30962
521.06        67.01271
521.50        66.84611
521.93        66.85476
522.37        66.84015
522.81        66.81536
523.25        66.93043
523.69        67.10568
524.13        67.13388
524.57        66.99296
525.01        66.74578
525.45        66.50253
525.89        66.43637
526.32        66.57776
526.76        66.86007
527.20        67.16611
527.64        67.31309
528.08        67.25546
528.52         67.0629
528.96        66.81429
529.40        66.63082
529.83        66.54621
530.27        66.53539
530.71        66.58379
531.15        66.68767
531.59        66.82977
532.03        67.00635
532.46        67.16434
532.90        67.23569
533.34        67.20792
533.78        67.05434
534.22        66.82513
534.66        66.71779
535.09        66.69394
535.53         66.4933
535.97        66.17644
536.41        66.07442
536.85        66.20464
537.28        66.39811
537.72        66.57779
538.16        66.67983
538.60        66.67365
539.04        66.57699
539.47        66.44004
539.91        66.38771
540.35        66.42766
540.79        66.53421
541.22        66.65936
541.66        66.69576
542.10        66.69267
542.54        66.62124
542.97         66.5199
543.41        66.44864
543.85         66.4117
544.29        66.39658
544.72        66.38598
545.16        66.38784
545.60        66.38561
546.04        66.37796
546.47         66.3671
546.91        66.36505
547.35        66.37887
547.79        66.38773
548.22        66.34262
548.66        66.31037
549.10        66.29088
549.53        65.97711
549.97        65.98696
550.41        65.96193
550.84        66.08205
551.28        66.31847
551.72        66.60184
552.15        66.75143
552.59         66.7693
553.03        66.78773
553.46        66.78876
553.90        66.79733
554.34        66.82572
554.77        66.71693
555.21         66.4496
555.65        66.81553
556.08        66.51438
556.52        66.38226
556.96        66.08585
557.39        65.93542
557.83        65.96831
558.27        65.95131
558.70        65.87249
559.14        66.12006
559.57        66.10131
560.01        66.28551
560.45        66.39701
560.88        66.43328
561.32         66.4152
561.75        65.96077
562.19        65.36123
562.63        65.65234
563.06        66.60287
563.50        66.67055
563.93         65.9269
564.37        65.64751
564.80        66.04793
565.24        66.19844
565.68        66.11554
566.11        66.06431
566.55        66.08253
566.98        66.07267
567.42        66.07961
567.85        66.15933
568.29        66.31784
568.72        66.30936
569.16         66.4249
569.60        66.42895
570.03        66.32479
570.47        66.42399
570.90        66.77909
571.34        66.01144
571.77        66.40348
572.21        66.40491
572.64        66.76579
573.08         66.2559
573.51          66.208
573.95         67.1691
574.38          66.605
574.82        66.65046
