SpectraSmart Spectrum 2.9.0.0
--------- Device Information -----------
Spectrum Name :  反射率_0
Saving Time :  2024/05/01 16:37:48
Spectro-Module Model Name : SE2030-DUVN
Spectro-Module Serial Number : OS361AC55029948
Wavelength Start : 200
Wavelength End : 1025
Wavelength Unit : Wavelength(nm)
Spectrum Unit : Reflectance(%)
-----------Spectrum Setting ------------
Integration Time : 20ms
Average : 10
Boxcar : 0
Background removal :  enabled
linearity correction :  enabled
SC :  disabled
Intensity correction :  disabled
DWT denoise :  enabled
savitzky-golay :  disabled
FFT :  disabled
Running average :  disabled
Kalman :  disabled
High pass :  disabled
---------------BEGIN--------------------
Wavelength(nm)             Reflectance(%)
200.29               0
200.75        88.71947
201.21        625.9501
201.67       -329.5673
202.13       -129.5445
202.58       -55.09505
203.04        -7.80642
203.50        21.71512
203.96        33.01645
204.42        27.56387
204.88       -11.97029
205.34       -1110.779
205.80         216.876
206.26        144.9781
206.72        107.3474
207.18        22.93193
207.64        200.6601
208.10         117.172
208.55        88.58934
209.01        70.13697
209.47         58.6876
209.93        51.40577
210.39        43.55428
210.85         35.6193
211.31        28.23797
211.77        14.60776
212.23        86.94472
212.69        45.44152
213.14        58.23905
213.60        122.9325
214.06       -596.8873
214.52       -98.55077
214.98       -65.64155
215.44       -58.30133
215.90       -64.08322
216.36       -212.1221
216.81        2.731122
217.27       -30.48629
217.73        53.66038
218.19       -1.631933
218.65       -12.15917
219.11        -24.1904
219.57       -57.70811
220.02       -179.4448
220.48       -71.14367
220.94       -7.235809
221.40        8.469396
221.86        14.67891
222.32        18.82246
222.77        23.43424
223.23        29.75099
223.69         37.7158
224.15        42.11641
224.61        40.42628
225.06        36.13145
225.52        33.18856
225.98        33.10762
226.44        35.72273
226.90        40.94255
227.36        47.95301
227.81        51.82533
228.27        50.35421
228.73        46.60416
229.19        43.57305
229.65        43.05944
230.10        44.90572
230.56        48.71956
231.02        53.69899
231.48        56.97878
231.93        56.95965
232.39        55.29945
232.85        53.21991
233.31        51.84356
233.77        51.35407
234.22          51.306
234.68        51.78704
235.14        53.14433
235.60        55.58576
236.05        59.70438
236.51        65.61189
236.97        71.63494
237.43        75.33887
237.88        75.71997
238.34        73.56603
238.80        72.06046
239.26        72.20719
239.71        74.02849
240.17        76.28319
240.63        74.54318
241.08        66.61921
241.54        56.73706
242.00        50.20287
242.46        49.89711
242.91        56.69551
243.37        71.91006
243.83        99.74019
244.28          126.18
244.74        127.7335
245.20         115.977
245.66        103.4253
246.11        93.51881
246.57        84.09991
247.03        70.42093
247.48        48.54308
247.94         21.7114
248.40         2.18287
248.85       -5.037963
249.31        1.276686
249.77        14.01886
250.22        26.78383
250.68        37.90326
251.14        46.21817
251.59        52.04232
252.05        57.21589
252.51        64.09792
252.96        77.89649
253.42        105.6265
253.88        120.8073
254.33        108.2093
254.79        95.90958
255.25        89.41707
255.70        85.82707
256.16        84.34738
256.62        83.56094
257.07        82.65538
257.53        82.30888
257.99        82.13983
258.44        82.21899
258.90        83.33801
259.35        84.81376
259.81        86.66061
260.27         88.0127
260.72        87.81857
261.18         86.5013
261.63         84.2607
262.09        82.02538
262.55        80.17422
263.00        78.61073
263.46        77.35075
263.91        76.05074
264.37        74.78087
264.83        73.43124
265.28        72.06396
265.74        70.75836
266.19        69.23004
266.65        67.62398
267.11        65.89852
267.56        64.33161
268.02        63.48709
268.47        63.36481
268.93        63.74802
269.38        64.16334
269.84        63.80143
270.30        62.50908
270.75        60.54383
271.21        58.35563
271.66         56.4824
272.12        55.14777
272.57         54.0951
273.03        53.26636
273.48        52.48828
273.94        51.73494
274.39        51.04633
274.85        50.35569
275.31        49.43967
275.76        48.27793
276.22        46.99917
276.67        45.75005
277.13        44.90364
277.58        44.40703
278.04        44.18775
278.49        43.97387
278.95        43.50882
279.40         42.6859
279.86        41.68881
280.31        40.61881
280.77        39.74907
281.22        39.05906
281.68        38.52889
282.13        38.02261
282.59        37.47242
283.04        36.82359
283.50         36.1932
283.95         35.6012
284.41        35.14776
284.86        34.84227
285.32        34.66676
285.77        34.62914
286.22        34.80612
286.68          35.175
287.13        35.66967
287.59        36.14033
288.04        36.29424
288.50         36.1105
288.95        35.64054
289.41        35.11708
289.86        34.77333
290.32        34.71057
290.77        34.85363
291.22        35.10426
291.68        35.29059
292.13        35.38273
292.59        35.49269
293.04        35.73225
293.50        36.32261
293.95        37.27823
294.40        38.51606
294.86        39.90444
295.31        41.24889
295.77        42.47348
296.22        43.60784
296.68        44.69018
297.13        45.75871
297.58        46.87066
298.04        48.05078
298.49        49.30126
298.95        50.67158
299.40        52.13319
299.85        53.65617
300.31        55.30046
300.76        57.13203
301.21        59.16248
301.67        61.38319
302.12        63.55185
302.58        65.31815
303.03        66.58481
303.48        67.50069
303.94        68.44845
304.39        69.88099
304.84        71.94405
305.30        74.46844
305.75        77.13979
306.20        79.49608
306.66        81.40172
307.11        82.93536
307.57        84.28013
308.02        85.59271
308.47        86.97514
308.93        88.36667
309.38        89.68519
309.83         90.9124
310.29        92.05817
310.74        93.14611
311.19        94.20575
311.65        95.24088
312.10        96.23772
312.55        97.19263
313.00        98.16154
313.46        99.24042
313.91        100.4165
314.36        101.6456
314.82        102.7717
315.27        103.5594
315.72        103.9438
316.18        104.0392
316.63        103.9634
317.08        103.9769
317.53        104.1637
317.99        104.4586
318.44        104.8408
318.89        105.2421
319.35        105.6306
319.80         106.056
320.25        106.4711
320.70        106.7986
321.16        107.0152
321.61        107.1411
322.06         107.273
322.51        107.6005
322.97        108.1278
323.42        108.8322
323.87        109.5185
324.32        109.8895
324.78        109.8677
325.23        109.5887
325.68        109.2149
326.13        109.0339
326.59        109.1187
327.04         109.443
327.49         109.919
327.94        110.4227
328.39        110.8903
328.85        111.3055
329.30         111.745
329.75        112.1639
330.20        112.5546
330.66        112.8802
331.11        113.1568
331.56        113.2892
332.01         113.293
332.46        113.2089
332.92        113.1674
333.37        113.4966
333.82        114.2333
334.27        115.3226
334.72        116.5646
335.17        117.5911
335.63        118.2416
336.08        118.6356
336.53        118.8991
336.98        119.3267
337.43        119.9992
337.88        120.8241
338.34        121.6047
338.79        122.1185
339.24        122.2623
339.69        122.1281
340.14        121.9273
340.59        121.9784
341.05        122.3557
341.50        123.0005
341.95        123.6991
342.40        124.1027
342.85        124.1486
343.30        123.9709
343.75        123.8317
344.20        124.1325
344.66        124.9425
345.11         126.095
345.56        127.3574
346.01        128.3364
346.46        128.8995
346.91        129.1807
347.36        129.2563
347.81        129.2474
348.26        129.2287
348.72        129.1644
349.17        129.1429
349.62        129.3852
350.07        129.8874
350.52          130.56
350.97        131.1759
351.42        131.3447
351.87        130.9927
352.32        130.2953
352.77        129.3818
353.22        128.4621
353.67        127.6368
354.13        126.8596
354.58        126.2498
355.03        126.1121
355.48        126.4496
355.93        127.2112
356.38        127.9441
356.83        127.8798
357.28        126.8836
357.73           125.2
358.18        123.4509
358.63        122.5681
359.08        122.7142
359.53          123.58
359.98        124.6086
360.43         124.867
360.88        124.1014
361.33        122.6385
361.78        120.9124
362.23        119.5374
362.68        118.6782
363.13        118.1357
363.58        117.7079
364.03        117.1031
364.48        116.2317
364.93        115.1988
365.38         114.151
365.83         113.273
366.28        112.5991
366.73        112.0727
367.18        111.5016
367.63        110.6039
368.08         109.364
368.53        107.9077
368.98         106.539
369.43        105.6868
369.88        105.4089
370.33        105.5547
370.78        105.8187
371.23        105.6717
371.68        104.9668
372.13        103.8864
372.58        102.6711
373.03        101.6751
373.48          100.99
373.93        100.4812
374.38        100.0795
374.83        99.69058
375.28        99.26049
375.72        98.81503
376.17        98.32555
376.62        97.66667
377.07        96.83859
377.52        95.88633
377.97        94.92104
378.42        94.13017
378.87        93.56265
379.32        93.15933
379.77        92.86726
380.22        92.59486
380.67        92.30037
381.11        92.01851
381.56         91.7001
382.01        91.28735
382.46         90.7869
382.91         90.2132
383.36        89.65908
383.81        89.27486
384.26        89.07658
384.71        89.00757
385.15        88.95053
385.60        88.76847
386.05        88.41039
386.50        87.94021
386.95        87.40834
387.40        86.90028
387.85        86.45076
388.29        85.97525
388.74        85.60098
389.19        85.31204
389.64        85.09284
390.09        84.93225
390.54         84.7442
390.98        84.37188
391.43        83.86257
391.88        83.25405
392.33        82.66473
392.78        82.29306
393.23        82.16671
393.67        82.09332
394.12        82.04543
394.57        82.07102
395.02        82.01266
395.47        81.35596
395.91        80.36377
396.36        79.93916
396.81        80.17667
397.26        80.65768
397.71        81.08434
398.15        81.12798
398.60        80.80054
399.05        80.09702
399.50        79.34167
399.95        79.03734
400.39         79.4732
400.84        79.60818
401.29        79.40496
401.74        79.19614
402.18        78.95805
402.63        78.40656
403.08        77.71918
403.53        77.30597
403.97        77.20412
404.42        77.28784
404.87        77.43739
405.32        77.42899
405.76        77.19775
406.21        77.00413
406.66        76.84074
407.11        76.37054
407.55        75.82294
408.00        75.85272
408.45         76.3858
408.90        76.84974
409.34        76.95628
409.79        76.39584
410.24        75.42771
410.68        74.94729
411.13        75.04958
411.58        75.19717
412.03        75.28852
412.47        75.41177
412.92        75.48934
413.37        75.51605
413.81        75.47733
414.26        75.41304
414.71        75.31517
415.15        75.19076
415.60        75.05107
416.05        74.98234
416.49        75.00377
416.94        75.08575
417.39        75.18468
417.83        75.21037
418.28         75.1469
418.73        75.03252
419.17        74.88832
419.62         74.7534
420.07        74.63877
420.51        74.51437
420.96        74.45924
421.41        74.46008
421.85        74.47971
422.30        74.73114
422.74        75.10517
423.19        75.00662
423.64        74.51961
424.08        74.81126
424.53        75.87996
424.98        75.27882
425.42        75.66759
425.87        75.47598
426.31        75.55516
426.76        75.13102
427.21        74.51079
427.65        74.95174
428.10        76.05052
428.54        76.36774
428.99        75.87373
429.44        74.75873
429.88        73.56158
430.33        74.19641
430.77        75.98405
431.22        75.93726
431.66         74.2453
432.11        73.46432
432.56        73.81633
433.00        74.53246
433.45        75.33797
433.89        75.39177
434.34        74.19861
434.78        75.90459
435.23        75.51075
435.67        75.59924
436.12        74.98226
436.57        75.39121
437.01        76.60282
437.46        77.11212
437.90        76.82394
438.35        76.07224
438.79         76.1574
439.24        75.72942
439.68        75.29797
440.13        75.44187
440.57         76.0868
441.02        76.53379
441.46         76.6467
441.91        76.94368
442.35        77.24474
442.80        77.17972
443.24        76.80801
443.69        76.68952
444.13        76.81791
444.58        76.81963
445.02        76.66106
445.47        76.66368
445.91         76.8755
446.36        77.05627
446.80        77.13959
447.24        77.95032
447.69        77.99966
448.13        78.22984
448.58        78.21726
449.02         78.0171
449.47        77.75383
449.91        77.61362
450.36        77.66895
450.80        77.81483
451.25        77.98649
451.69        78.03297
452.13        77.93406
452.58        77.75853
453.02        77.51943
453.47        77.31602
453.91        77.17093
454.36        76.94434
454.80        76.69896
455.24        76.77856
455.69        77.16557
456.13        76.94692
456.58        76.38238
457.02        75.93063
457.46        76.26531
457.91         76.7195
458.35        77.21908
458.79        77.25844
459.24         76.7879
459.68        76.22135
460.13        75.90901
460.57        74.86638
461.01        75.17156
461.46         75.3857
461.90        75.87125
462.34        75.58229
462.79        74.79646
463.23        74.82372
463.68        75.56259
464.12         75.7354
464.56        75.29322
465.01         75.0003
465.45        74.89449
465.89        74.93659
466.34        74.94863
466.78         75.0659
467.22        74.35285
467.67        73.75323
468.11        74.09799
468.55        74.33006
468.99        74.61375
469.44        74.73929
469.88        74.68202
470.32        74.52035
470.77        74.33064
471.21        74.24064
471.65         74.2705
472.10        74.39787
472.54        74.51797
472.98        74.50452
473.42        74.32832
473.87         74.0598
474.31        73.76505
474.75          73.535
475.20        73.35725
475.64        73.44146
476.08        73.79693
476.52        73.45245
476.97        72.85445
477.41         73.9621
477.85        72.73122
478.29        72.96714
478.74        73.48193
479.18         73.6023
479.62        72.75139
480.06        72.57329
480.50        72.95796
480.95        72.24678
481.39        72.97417
481.83        72.17474
482.27        72.68084
482.72        72.88459
483.16        72.73946
483.60         72.8941
484.04        73.07711
484.48        73.03016
484.93        73.11674
485.37         73.3306
485.81        73.51633
486.25        74.30674
486.69         74.0286
487.14        71.40565
487.58        70.77466
488.02        72.97351
488.46        72.62347
488.90        71.97929
489.34        72.93687
489.79        72.25322
490.23        72.40563
490.67        72.21431
491.11         72.1738
491.55        72.17981
491.99        72.17234
492.43        72.12511
492.88        72.01369
493.32        71.89227
493.76        71.78808
494.20        71.77028
494.64        71.84839
495.08        71.93552
495.52         72.0228
495.96        72.16787
496.41        72.29107
496.85        72.25967
497.29        72.09363
497.73        71.68875
498.17        71.67289
498.61         71.5228
499.05        71.46288
499.49         71.6927
499.93        72.07658
500.37        72.16162
500.82        71.98995
501.26        71.81641
501.70        71.96535
502.14        72.20565
502.58        72.00584
503.02        71.95181
503.46        71.87008
503.90        71.76521
504.34        71.67424
504.78        71.61491
505.22        71.61256
505.66        71.81911
506.10        72.15888
506.54        72.21635
506.98        71.90315
507.42        72.06055
507.86        71.47394
508.30        71.37786
508.74        71.42132
509.18        71.56152
509.62        71.73286
510.06        71.87058
510.50        71.95316
510.94         71.9892
511.38        71.98223
511.82        71.93621
512.26        71.85666
512.70        71.73425
513.14        71.59872
513.58        71.50217
514.02        71.45647
514.46        71.45734
514.90        71.46397
515.34        71.40556
515.78        71.27191
516.22        71.08875
516.66        70.91693
517.10         70.8487
517.54        70.90244
517.98        71.04868
518.42        71.22491
518.86         71.3278
519.30        71.33101
519.74        71.26588
520.18        71.18364
520.62        71.16758
521.06        71.23428
521.50         71.3453
521.93        71.46739
522.37        71.53813
522.81        71.54449
523.25         71.5162
523.69        71.44962
524.13        71.33561
524.57        71.18855
525.01        71.01376
525.45        70.87293
525.89        70.86392
526.32        70.99605
526.76        71.23457
527.20        71.49125
527.64        71.62341
528.08        71.59613
528.52        71.45934
528.96        71.27108
529.40        71.12484
529.83        71.04491
530.27        71.01669
530.71        71.03524
531.15        71.11082
531.59         71.2328
532.03        71.39576
532.46        71.54111
532.90        71.59478
533.34        71.54323
533.78        71.35731
534.22        71.10155
534.66        71.00098
535.09        71.01406
535.53        70.85883
535.97        70.56963
536.41        70.45315
536.85        70.52136
537.28        70.60765
537.72        70.67397
538.16        70.72346
538.60        70.73679
539.04        70.70964
539.47        70.65182
539.91        70.61996
540.35        70.60823
540.79        70.63407
541.22        70.68163
541.66        70.62593
542.10        70.64084
542.54        70.58988
542.97         70.5446
543.41        70.56575
543.85        70.64472
544.29        70.76424
544.72        70.86633
545.16        70.88667
545.60        70.79607
546.04        70.65709
546.47        70.51855
546.91        70.36617
547.35        70.28212
547.79        70.45649
548.22        70.73525
548.66        70.83539
549.10        70.72398
549.53        70.24686
549.97        70.13335
550.41         70.0486
550.84        70.19877
551.28        70.56472
551.72        71.03542
552.15        71.23965
552.59        71.12519
553.03        71.36053
553.46        71.05616
553.90         71.0249
554.34        71.02803
554.77        70.91027
555.21         70.6244
555.65        70.96725
556.08        70.57719
556.52        70.41082
556.96        70.12428
557.39        69.99632
557.83        70.06355
558.27        70.12153
558.70         70.1338
559.14        70.42249
559.57        70.36549
560.01        70.56087
560.45        70.71287
560.88        70.74921
561.32        70.70292
561.75        70.19495
562.19        69.52931
562.63        69.87152
563.06        70.95194
563.50        70.89989
563.93        69.86195
564.37         69.6943
564.80         70.3391
565.24        70.59835
565.68        70.39253
566.11        70.27874
566.55        70.29467
566.98        70.15095
567.42        69.97829
567.85        70.08279
568.29        70.45094
568.72        70.71062
569.16        70.87989
569.60        70.97356
570.03         70.9105
570.47        70.76285
570.90        71.21681
571.34        70.01222
571.77        70.63663
572.21        70.61428
572.64        70.95721
573.08        70.54549
573.51        70.80606
573.95        71.34601
574.38         70.8885
574.82        70.95183
