SpectraSmart Spectrum 2.9.0.0
--------- Device Information -----------
Spectrum Name :  反射率_0
Saving Time :  2024/05/01 16:26:52
Spectro-Module Model Name : SE2030-DUVN
Spectro-Module Serial Number : OS361AC55029948
Wavelength Start : 200
Wavelength End : 1025
Wavelength Unit : Wavelength(nm)
Spectrum Unit : Reflectance(%)
-----------Spectrum Setting ------------
Integration Time : 20ms
Average : 10
Boxcar : 0
Background removal :  enabled
linearity correction :  enabled
SC :  disabled
Intensity correction :  disabled
DWT denoise :  enabled
savitzky-golay :  disabled
FFT :  disabled
Running average :  disabled
Kalman :  disabled
High pass :  disabled
---------------BEGIN--------------------
Wavelength(nm)             Reflectance(%)
200.29               0
200.75        208.9567
201.21        763.1666
201.67       -265.4793
202.13       -75.63804
202.58       -16.73061
203.04        17.20552
203.50        38.48132
203.96        50.40895
204.42        57.68124
204.88        65.75079
205.34        207.6342
205.80        27.63352
206.26        23.33532
206.72       -1.167073
207.18       -140.0388
207.64        266.3508
208.10        126.2711
208.55        94.66403
209.01        80.03328
209.47        72.69087
209.93        68.97036
210.39        65.59003
210.85        64.32914
211.31        70.37314
211.77        103.7685
212.23       -195.3981
212.69       -11.93827
213.14        12.87217
213.60        52.69476
214.06       -323.6647
214.52       -58.08514
214.98       -36.49499
215.44       -24.22312
215.90      -0.5406814
216.36        308.1361
216.81       -150.1538
217.27       -141.7845
217.73        69.16711
218.19        -41.4107
218.65       -56.86985
219.11       -71.74882
219.57       -106.1296
220.02       -191.3234
220.48       -41.09859
220.94        2.462918
221.40        9.109479
221.86        11.50566
222.32        14.77787
222.77        20.11663
223.23        28.02977
223.69        37.88234
224.15        42.16016
224.61        38.21887
225.06          31.773
225.52        27.33867
225.98        26.33886
226.44        28.32176
226.90        32.69504
227.36           39.27
227.81        44.68359
228.27        46.09618
228.73        45.16184
229.19        43.46344
229.65        41.86416
230.10        40.32431
230.56        38.50999
231.02        36.56752
231.48        35.58859
231.93        36.02458
232.39        37.47574
232.85        39.31184
233.31        40.99091
233.77        42.41516
234.22        43.75449
234.68        44.91571
235.14        45.91803
235.60        46.91157
236.05        48.06694
236.51        49.69097
236.97        52.32822
237.43        55.75229
237.88        59.23074
238.34        61.79816
238.80        63.65512
239.26        65.15863
239.71        66.78284
240.17        67.35532
240.63        63.94054
241.08        56.09786
241.54        47.18819
242.00        42.08942
242.46        43.85399
242.91        53.76197
243.37        74.60038
243.83         110.862
244.28        141.0617
244.74        137.1495
245.20        117.6466
245.66        99.65749
246.11        87.42799
246.57        77.92239
247.03        66.12765
247.48        48.58078
247.94        27.50128
248.40        12.07911
248.85        6.332205
249.31         11.9376
249.77        23.30286
250.22        34.83898
250.68        44.91372
251.14        52.04073
251.59        55.90566
252.05        57.67977
252.51        58.00748
252.96         58.3403
253.42        71.21881
253.88        97.29074
254.33        105.6652
254.79        103.4506
255.25        99.42903
255.70        94.86987
256.16        91.22469
256.62         87.4787
257.07        83.15391
257.53        79.51875
257.99        76.40221
258.44        74.09504
258.90        73.44773
259.35        73.70906
259.81        74.75171
260.27        75.69429
260.72        75.47636
261.18        74.42082
261.63        72.68173
262.09        71.07882
262.55        69.98361
263.00        69.23938
263.46        68.75335
263.91         68.1009
264.37        67.19811
264.83        65.95354
265.28        64.51143
265.74        63.01824
266.19        61.31415
266.65        59.56837
267.11        57.72219
267.56        56.05495
268.02        55.12035
268.47        54.91974
268.93        55.24804
269.38        55.62687
269.84        55.22473
270.30        53.88843
270.75        51.88795
271.21        49.67947
271.66        47.82099
272.12        46.53971
272.57        45.58216
273.03        44.89031
273.48        44.30375
273.94        43.77927
274.39        43.35007
274.85         42.9252
275.31         42.2668
275.76        41.35439
276.22        40.31472
276.67        39.29151
277.13        38.63581
277.58        38.30528
278.04        38.21331
278.49        38.13681
278.95        37.87669
279.40        37.32415
279.86        36.62774
280.31        35.80548
280.77        34.99612
281.22        34.19259
281.68        33.43851
282.13        32.71529
282.59        32.10214
283.04        31.57451
283.50        31.17979
283.95        30.88425
284.41        30.69151
284.86        30.57511
285.32        30.54205
285.77        30.58816
286.22        30.76279
286.68        31.05633
287.13        31.41448
287.59        31.75184
288.04        31.88821
288.50        31.81768
288.95        31.55242
289.41         31.2544
289.86        31.06444
290.32        31.05732
290.77        31.19306
291.22        31.39031
291.68        31.50694
292.13        31.52777
292.59        31.54925
293.04        31.70456
293.50        32.24521
293.95        33.19587
294.40        34.48338
294.86        35.93748
295.31        37.29581
295.77        38.47684
296.22         39.5319
296.68        40.57463
297.13        41.76753
297.58        43.17079
298.04         44.7447
298.49        46.38765
298.95         47.9819
299.40        49.46397
299.85        50.87687
300.31        52.33118
300.76        53.97215
301.21        55.84937
301.67        57.92558
302.12        60.02623
302.58        61.90541
303.03        63.45438
303.48        64.76925
303.94        66.07841
304.39        67.61621
304.84        69.49921
305.30        71.63998
305.75        73.85774
306.20        75.90354
306.66        77.70512
307.11        79.28054
307.57         80.7533
308.02        82.19436
308.47        83.67023
308.93        85.14663
309.38        86.53991
309.83        87.82098
310.29        88.99592
310.74        90.07774
311.19        91.09792
311.65        92.07548
312.10         92.9998
312.55        93.86211
313.00        94.71995
313.46        95.66811
313.91          96.697
314.36        97.77312
314.82        98.73338
315.27          99.331
315.72        99.50498
316.18        99.36963
316.63        99.08466
317.08        98.96353
317.53        99.09735
317.99        99.41802
318.44        99.82821
318.89        100.1361
319.35        100.2907
319.80        100.3725
320.25        100.4662
320.70        100.7075
321.16         101.106
321.61        101.6058
322.06        102.1309
322.51        102.5836
322.97        102.9022
323.42        103.1637
323.87        103.3229
324.32        103.3347
324.78        103.2089
325.23         102.998
325.68          102.82
326.13        102.8893
326.59        103.2292
327.04        103.8275
327.49        104.5271
327.94        105.0802
328.39        105.3974
328.85        105.4871
329.30        105.5076
329.75        105.5818
330.20        105.7674
330.66        106.0043
331.11        106.2767
331.56        106.4286
332.01        106.4465
332.46         106.386
332.92        106.3774
333.37        106.7352
333.82        107.4893
334.27        108.5728
334.72        109.7591
335.17        110.6497
335.63         111.088
336.08        111.2087
336.53         111.201
336.98        111.4518
337.43        112.0664
337.88        112.9374
338.34        113.8231
338.79        114.4069
339.24        114.5668
339.69        114.4297
340.14        114.2409
340.59         114.376
341.05        114.9184
341.50        115.7627
341.95        116.6874
342.40        117.3396
342.85        117.6291
343.30        117.6797
343.75        117.6767
344.20        117.9044
344.66        118.4275
345.11        119.1344
345.56        119.9113
346.01        120.5609
346.46        121.0183
346.91        121.3755
347.36        121.6509
347.81        121.8671
348.26        122.0576
348.72        122.2034
349.17          122.39
349.62        122.8335
350.07        123.5198
350.52         124.337
350.97        125.0369
351.42        125.2116
351.87        124.7887
352.32        123.9595
352.77        122.8876
353.22        121.8291
353.67        120.9079
354.13        120.0844
354.58        119.4721
355.03        119.3517
355.48        119.7251
355.93        120.5477
356.38        121.3943
356.83        121.5395
357.28        120.8348
357.73        119.4791
358.18        118.0319
358.63        117.3442
359.08        117.5611
359.53        118.4013
359.98        119.3232
360.43        119.4261
360.88        118.4858
361.33        116.8321
361.78        114.9543
362.23        113.5397
362.68        112.7678
363.13        112.4381
363.58        112.2732
364.03        111.8491
364.48        111.0423
364.93        109.9768
365.38        108.9036
365.83        108.1785
366.28        107.8562
366.73        107.8164
367.18        107.7026
367.63        106.9677
368.08        105.5447
368.53        103.6583
368.98        101.7965
369.43        100.6606
369.88        100.3776
370.33        100.7223
370.78         101.277
371.23        101.3067
371.68        100.5965
372.13        99.40002
372.58        98.03148
373.03        96.95402
373.48        96.28638
373.93        95.84163
374.38        95.52076
374.83        95.18847
375.28        94.77673
375.72        94.34361
376.17         93.8449
376.62        93.12955
377.07        92.20275
377.52        91.10928
377.97        90.03481
378.42        89.28269
378.87        88.91451
379.32        88.83853
379.77        88.87325
380.22        88.73175
380.67        88.33511
381.11        87.76513
381.56        87.12939
382.01        86.62948
382.46         86.3256
382.91        86.15118
383.36         86.0071
383.81        85.74808
384.26        85.33775
384.71        84.82685
385.15        84.29549
385.60        83.91198
386.05        83.69236
386.50        83.58472
386.95         83.4839
387.40        83.23853
387.85         82.8224
388.29        82.24361
388.74        81.69946
389.19        81.27711
389.64        80.99616
390.09        80.80334
390.54        80.62048
390.98        80.32001
391.43        79.93758
391.88        79.48141
392.33        79.02042
392.78         78.7319
393.23        78.60138
393.67         78.3506
394.12        78.05059
394.57         77.9555
395.02        77.96917
395.47        77.60541
395.91        76.98997
396.36        76.71532
396.81        76.82683
397.26        77.04595
397.71        77.19524
398.15        77.09512
398.60        76.79046
399.05        76.23724
399.50        75.65251
399.95         75.4648
400.39         75.6701
400.84        75.82632
401.29         75.7882
401.74        75.59161
402.18        75.20139
402.63         74.5215
403.08        73.76532
403.53        73.30118
403.97        73.17996
404.42        73.29472
404.87        73.51796
405.32        73.59821
405.76         73.4489
406.21        73.34621
406.66        73.28403
407.11        72.81916
407.55        72.19274
408.00        72.36217
408.45        73.17304
408.90        73.40368
409.34        72.93185
409.79        72.42516
410.24        72.03608
410.68         71.7486
411.13        71.62401
411.58        71.62459
412.03        71.71426
412.47        71.85891
412.92        71.99577
413.37        72.14075
413.81        72.23655
414.26        72.26133
414.71        72.19358
415.15        72.05077
415.60        71.86273
416.05        71.75259
416.49        71.75231
416.94         71.8196
417.39        71.91224
417.83        71.94418
418.28        71.90318
418.73        71.83272
419.17        71.73872
419.62         71.6548
420.07        71.58405
420.51        71.42648
420.96        71.29377
421.41         71.3561
421.85        71.51552
422.30        71.70132
422.74        71.79132
423.19         71.4866
423.64        70.97144
424.08        71.15206
424.53        71.94112
424.98        72.33926
425.42        72.23534
425.87        72.40813
426.31        72.82178
426.76        72.51254
427.21        71.76617
427.65         72.1505
428.10        73.31303
428.54        73.45065
428.99        72.66448
429.44         71.7583
429.88         71.1075
430.33         71.8434
430.77        73.34712
431.22        73.23556
431.66        71.70206
432.11        71.06759
432.56        71.53108
433.00        72.10851
433.45        72.55756
433.89        72.91869
434.34        72.02364
434.78        73.52154
435.23        73.10575
435.67        72.96815
436.12        72.26871
436.57        72.73004
437.01        74.08926
437.46        74.97785
437.90        74.33679
438.35        74.01833
438.79        73.96406
439.24        73.60434
439.68        73.11763
440.13        73.14577
440.57        73.68127
441.02        74.02133
441.46        74.04222
441.91        74.46928
442.35        75.12097
442.80        74.55634
443.24        74.51109
443.69        74.36633
444.13        74.58949
444.58        74.63246
445.02        74.47594
445.47        74.43027
445.91        74.53825
446.36        74.67708
446.80        74.81059
447.24        75.19186
447.69         75.6945
448.13        75.39287
448.58         75.0241
449.02        74.90198
449.47         75.2316
449.91        75.35984
450.36        75.30293
450.80        75.42405
451.25        75.66025
451.69        75.68613
452.13        75.48164
452.58        75.15612
453.02        74.80425
453.47        74.57182
453.91        74.47718
454.36        74.56264
454.80        74.75425
455.24        74.53741
455.69        74.50251
456.13        74.26978
456.58        74.12865
457.02        73.90667
457.46        73.75549
457.91        74.13493
458.35        74.81548
458.79        74.92926
459.24        74.43204
459.68        73.89709
460.13        73.63535
460.57        72.63533
461.01        73.06286
461.46        72.93169
461.90        73.37218
462.34        73.24447
462.79        72.85928
463.23        72.87601
463.68        73.20009
464.12        73.31105
464.56        73.20396
465.01        72.62514
465.45        72.79479
465.89        72.74953
466.34        72.71466
466.78        72.92267
467.22        72.09792
467.67        72.04855
468.11        72.11782
468.55        72.25687
468.99        72.31403
469.44        72.37225
469.88        72.43262
470.32        72.45596
470.77        72.44458
471.21        72.41776
471.65        72.36567
472.10        72.29822
472.54        72.21103
472.98        72.11202
473.42        71.99876
473.87        71.95208
474.31        71.92249
474.75         71.7342
475.20        71.47721
475.64        71.53378
476.08        71.80479
476.52        71.84041
476.97        71.60845
477.41        71.53349
477.85        70.66742
478.29        71.46861
478.74        71.63028
479.18        71.70032
479.62         71.1463
480.06        71.00777
480.50        71.33469
480.95        70.51284
481.39        71.05643
481.83         70.2605
482.27         70.7726
482.72        70.77296
483.16        70.79514
483.60        71.00652
484.04        71.31807
484.48        71.27475
484.93        71.19625
485.37        72.07298
485.81        71.31143
486.25          72.911
486.69        72.45962
487.14        69.74226
487.58        68.77906
488.02        71.04777
488.46        70.48549
488.90        69.90623
489.34        71.47994
489.79        70.92959
490.23        70.95591
490.67        70.60932
491.11        70.51572
491.55        70.66493
491.99        70.93507
492.43        70.98097
492.88        70.75309
493.32        70.54633
493.76        70.41116
494.20        70.33923
494.64        70.34888
495.08        70.34686
495.52        70.36031
495.96        70.57494
496.41        70.89854
496.85        71.02083
497.29        70.87189
497.73        70.57615
498.17        70.37535
498.61         69.9642
499.05        69.57842
499.49        69.86991
499.93        70.64055
500.37        70.80375
500.82         70.3802
501.26        70.33826
501.70        70.69192
502.14        70.84484
502.58        70.74589
503.02        70.61664
503.46        70.46786
503.90        70.23714
504.34        70.01983
504.78         69.9678
505.22        70.08976
505.66        70.39449
506.10        70.76838
506.54        70.84954
506.98        70.55397
507.42         70.6066
507.86        70.00864
508.30         69.8118
508.74        69.74007
509.18        69.76897
509.62        69.86365
510.06        69.99107
510.50        70.13387
510.94        70.29103
511.38        70.43043
511.82        70.49559
512.26        70.47101
512.70        70.35915
513.14        70.19756
513.58        70.05455
514.02        69.95332
514.46        69.88873
514.90        69.83273
515.34        69.73571
515.78        69.59484
516.22        69.43455
516.66         69.3116
517.10          69.308
517.54        69.43469
517.98        69.65974
518.42        69.91001
518.86        70.06628
519.30        70.09678
519.74        70.03419
520.18        69.93386
520.62        69.88954
521.06        69.92094
521.50        69.98487
521.93        70.05465
522.37        70.07786
522.81        70.04459
523.25        69.98983
523.69        69.89448
524.13        69.72134
524.57        69.48675
525.01        69.21074
525.45        68.99139
525.89        68.98257
526.32          69.202
526.76        69.59061
527.20        70.02235
527.64        70.29511
528.08        70.34959
528.52        70.24267
528.96        70.04162
529.40         69.8643
529.83         69.7421
530.27        69.64482
530.71        69.57542
531.15        69.56923
531.59         69.6255
532.03        69.73761
532.46        69.85941
532.90        69.93536
533.34         69.9493
533.78        69.85817
534.22        69.70767
534.66        69.69467
535.09        69.76724
535.53        69.65084
535.97        69.37005
536.41         69.2149
536.85        69.20231
537.28        69.17911
537.72        69.13483
538.16        69.11452
538.60        69.11209
539.04        69.11362
539.47        69.11578
539.91        69.15204
540.35        69.20422
540.79        69.28869
541.22        69.38344
541.66        69.35645
542.10        69.37679
542.54         69.3143
542.97        69.23946
543.41        69.21535
543.85        69.24319
544.29        69.30915
544.72        69.37824
545.16        69.43431
545.60        69.45466
546.04        69.43916
546.47        69.39975
546.91        69.39632
547.35        69.44874
547.79         69.4725
548.22        69.38734
548.66        69.49433
549.10        69.34967
549.53        68.99271
549.97        68.96231
550.41        68.93798
550.84        69.11407
551.28        69.42943
551.72         69.7858
552.15        69.99709
552.59        70.02765
553.03        69.90826
553.46         69.6907
553.90        69.60759
554.34        69.69138
554.77        69.70363
555.21        69.56191
555.65        69.96979
556.08        69.57539
556.52        69.41657
556.96        69.14715
557.39        68.98031
557.83        68.95733
558.27        68.89936
558.70        68.81346
559.14        69.07733
559.57        69.06033
560.01        69.33344
560.45        69.56735
560.88        69.48417
561.32        69.19789
561.75        68.81375
562.19        68.53303
562.63        68.84677
563.06        69.55408
563.50        69.48569
563.93        68.76467
564.37        68.72976
564.80        69.30566
565.24        69.53595
565.68        69.36898
566.11        69.28973
566.55        69.34956
566.98        69.32638
567.42        69.28143
567.85        69.37653
568.29         69.6111
568.72        69.69258
569.16        69.70624
569.60        69.91499
570.03        69.59264
570.47        69.72427
570.90        69.89249
571.34         69.1491
571.77        69.50463
572.21        69.51803
572.64         69.8539
573.08        69.43597
573.51         69.6212
573.95        70.30785
574.38        69.62167
574.82        69.93301
