SpectraSmart Spectrum 2.9.0.0
--------- Device Information -----------
Spectrum Name :  反射率_0
Saving Time :  2024/05/01 16:36:29
Spectro-Module Model Name : SE2030-DUVN
Spectro-Module Serial Number : OS361AC55029948
Wavelength Start : 200
Wavelength End : 1025
Wavelength Unit : Wavelength(nm)
Spectrum Unit : Reflectance(%)
-----------Spectrum Setting ------------
Integration Time : 20ms
Average : 10
Boxcar : 0
Background removal :  enabled
linearity correction :  enabled
SC :  disabled
Intensity correction :  disabled
DWT denoise :  enabled
savitzky-golay :  disabled
FFT :  disabled
Running average :  disabled
Kalman :  disabled
High pass :  disabled
---------------BEGIN--------------------
Wavelength(nm)             Reflectance(%)
200.29               0
200.75        59.27324
201.21        326.7099
201.67        -138.889
202.13       -40.37336
202.58       -3.111577
203.04        20.83585
203.50        37.32054
203.96        48.67157
204.42        59.90573
204.88        85.27374
205.34        705.1388
205.80       -61.11483
206.26       -45.86312
206.72       -81.11353
207.18       -324.5566
207.64        415.6518
208.10           169.3
208.55        115.4419
209.01        92.08141
209.47        81.45546
209.93        77.41661
210.39        76.18485
210.85        79.01423
211.31        91.66267
211.77        144.5428
212.23       -301.1488
212.69       -29.53849
213.14       -3.111662
213.60        14.49895
214.06       -83.15381
214.52       -8.130016
214.98        2.932113
215.44        17.20999
215.90        58.40789
216.36        689.4941
216.81       -293.3525
217.27       -384.2428
217.73        774.4445
218.19        148.6996
218.65         96.2635
219.11        95.86311
219.57        143.4821
220.02        350.5661
220.48        173.4835
220.94        62.55882
221.40        36.85808
221.86        30.30805
222.32        32.00385
222.77        39.31372
223.23        52.79766
223.69        70.69783
224.15        78.47782
224.61        70.71814
225.06        57.52962
225.52        48.22264
225.98        45.87103
226.44        49.40708
226.90        58.08241
227.36        69.60495
227.81        74.02621
228.27         68.1205
228.73        58.55405
229.19        51.18659
229.65        49.08353
230.10        51.58344
230.56        57.73484
231.02        65.71375
231.48        69.84598
231.93        67.59315
232.39         62.2579
232.85        56.79084
233.31        53.76305
233.77        53.19497
234.22        53.91898
234.68        55.31731
235.14        56.89943
235.60        58.67326
236.05        61.34359
236.51        65.20714
236.97        69.91545
237.43        74.25536
237.88        77.00345
238.34        78.03465
238.80        79.51212
239.26        82.45654
239.71        87.69224
240.17           93.81
240.63        94.15641
241.08        84.26591
241.54        68.97018
242.00        57.22976
242.46        54.68456
242.91        62.39627
243.37        82.47163
243.83        119.7345
244.28        152.4383
244.74        150.5619
245.20        132.0927
245.66        114.9743
246.11        104.5024
246.57        98.15442
247.03        91.33972
247.48        80.64262
247.94        63.42866
248.40        44.08139
248.85        29.36597
249.31        25.66911
249.77        32.21617
250.22        43.18805
250.68        54.59946
251.14        64.09808
251.59        71.63987
252.05        79.55602
252.51        92.34283
252.96        120.8022
253.42         173.846
253.88        194.9666
254.33        162.9178
254.79        135.3136
255.25        120.5808
255.70        111.6499
256.16        106.0882
256.62        101.4436
257.07        96.46329
257.53        92.35027
257.99        88.98172
258.44        86.36179
258.90        85.17379
259.35        84.63905
259.81        84.73313
260.27        84.86169
260.72        84.40253
261.18        83.65452
261.63        82.45542
262.09        81.31195
262.55        80.19514
263.00         78.9658
263.46        77.78883
263.91        76.41831
264.37        75.04305
264.83        73.59853
265.28        72.12115
265.74        70.70272
266.19        69.08519
266.65        67.41562
267.11        65.64594
267.56         64.0621
268.02        63.23182
268.47        63.14143
268.93        63.56571
269.38        63.97367
269.84        63.46476
270.30        61.88557
270.75        59.54723
271.21        56.98389
271.66        54.85645
272.12        53.42166
272.57        52.38457
273.03        51.66436
273.48        51.05378
273.94        50.48578
274.39        49.98703
274.85        49.44345
275.31        48.56637
275.76        47.34029
276.22        45.93742
276.67        44.53132
277.13        43.53166
277.58         42.9066
278.04        42.56183
278.49        42.29414
278.95        41.94495
279.40        41.39328
279.86        40.77148
280.31        40.02889
280.77        39.22091
281.22        38.32372
281.68        37.42054
282.13        36.53374
282.59        35.81592
283.04        35.25118
283.50        34.86179
283.95        34.59426
284.41        34.43034
284.86        34.32759
285.32        34.30383
285.77        34.33604
286.22        34.45474
286.68        34.64623
287.13        34.85355
287.59        35.02042
288.04        35.01617
288.50        34.85307
288.95        34.53811
289.41         34.1968
289.86        33.90538
290.32        33.73816
290.77        33.67656
291.22        33.70835
291.68         33.7918
292.13        33.92766
292.59        34.18362
293.04        34.60919
293.50        35.32723
293.95        36.33464
294.40        37.59435
294.86        39.02376
295.31        40.50156
295.77        41.96724
296.22        43.40801
296.68        44.84308
297.13        46.29167
297.58        47.78828
298.04        49.35491
298.49        50.94583
298.95        52.53321
299.40        54.08421
299.85        55.60783
300.31        57.23287
300.76        59.12811
301.21        61.33888
301.67        63.83072
302.12        66.34569
302.58        68.50074
303.03        70.16555
303.48         71.4837
303.94        72.80941
304.39        74.55436
304.84        76.86691
305.30         79.5919
305.75        82.43847
306.20        84.98476
306.66        87.11613
307.11        88.91167
307.57        90.55847
308.02        92.20724
308.47        93.96263
308.93        95.76092
309.38        97.52898
309.83          99.266
310.29        100.9698
310.74        102.6402
311.19        104.2483
311.65        105.7136
312.10        106.9988
312.55        108.1157
313.00        109.1832
313.46        110.4015
313.91        111.7839
314.36        113.2654
314.82        114.6196
315.27        115.4948
315.72        115.8068
316.18        115.7214
316.63        115.4534
317.08        115.4136
317.53        115.7198
317.99        116.2661
318.44         116.937
318.89        117.5026
319.35        117.8865
319.80        118.1816
320.25        118.4405
320.70        118.7484
321.16        119.1142
321.61        119.5059
322.06        119.9078
322.51        120.3289
322.97        120.7325
323.42         121.171
323.87        121.5567
324.32        121.7725
324.78        121.7935
325.23        121.6935
325.68        121.5781
326.13        121.6468
326.59        121.9287
327.04        122.4306
327.49        123.0309
327.94          123.55
328.39        123.9219
328.85        124.1325
329.30        124.3501
329.75        124.6746
330.20        125.1424
330.66        125.6846
331.11        126.2436
331.56        126.5714
332.01        126.6388
332.46        126.5238
332.92        126.4171
333.37        126.7647
333.82        127.6265
334.27        128.8986
334.72        130.3191
335.17        131.4214
335.63        132.0089
336.08         132.246
336.53        132.2902
336.98        132.4847
337.43        132.9457
337.88        133.5899
338.34        134.2412
338.79        134.7179
339.24         134.923
339.69        134.9333
340.14        134.9632
340.59         135.332
341.05        136.0851
341.50        137.1366
341.95        138.1816
342.40        138.7361
342.85          138.71
343.30        138.2785
343.75        137.8023
344.20        137.8398
344.66        138.5123
345.11        139.6307
345.56        140.9176
346.01        141.8977
346.46        142.4146
346.91         142.627
347.36        142.6593
347.81        142.6992
348.26        142.8244
348.72        142.9667
349.17        143.1241
349.62        143.3875
350.07        143.7236
350.52        144.0751
350.97        144.3253
351.42        144.2646
351.87         143.864
352.32        143.2534
352.77        142.4415
353.22        141.4489
353.67        140.3455
354.13         139.159
354.58        138.1364
355.03        137.7822
355.48        138.1414
355.93        139.0961
356.38        140.0765
356.83        140.1222
357.28        139.0437
357.73        137.1461
358.18        135.1461
358.63        134.1121
359.08        134.2386
359.53        135.1693
359.98        136.2758
360.43         136.515
360.88         135.601
361.33        133.8931
361.78        131.8984
362.23        130.3307
362.68        129.3739
363.13        128.8046
363.58        128.3321
364.03        127.5262
364.48        126.2775
364.93        124.7385
365.38        123.1954
365.83        122.0418
366.28        121.3487
366.73        120.9948
367.18        120.6235
367.63        119.6867
368.08        118.1095
368.53        116.1044
368.98        114.1442
369.43        112.9049
369.88        112.5007
370.33        112.7135
370.78        113.1039
371.23        112.9113
371.68        111.9332
372.13        110.4388
372.58        108.8201
373.03         107.652
373.48        107.0647
373.93        106.8339
374.38        106.7582
374.83        106.5295
375.28        106.0327
375.72         105.372
376.17         104.591
376.62        103.6708
377.07        102.6488
377.52        101.5213
377.97        100.4258
378.42        99.59483
378.87        99.06944
379.32        98.78964
379.77        98.59432
380.22        98.21705
380.67        97.59546
381.11        96.81697
381.56        95.99308
382.01        95.33761
382.46        94.91623
382.91        94.65234
383.36        94.47266
383.81        94.26791
384.26        93.99118
384.71        93.67363
385.15        93.30019
385.60        92.89903
386.05        92.46461
386.50        91.99133
386.95        91.49809
387.40        91.02736
387.85        90.59271
388.29        90.13672
388.74         89.7518
389.19        89.35545
389.64        88.93247
390.09        88.48396
390.54        88.02121
390.98        87.55113
391.43        87.14598
391.88        86.77724
392.33        86.44438
392.78        86.14931
393.23        85.86319
393.67        85.49908
394.12        85.20943
394.57        84.76493
395.02        84.94808
395.47        84.48781
395.91        83.79525
396.36        83.20156
396.81        83.43544
397.26        83.50331
397.71        83.46609
398.15        83.38924
398.60        83.25931
399.05        82.69332
399.50        81.89789
399.95        81.56981
400.39        81.73816
400.84        81.71129
401.29        81.44546
401.74        81.53732
402.18        81.79463
402.63        81.20273
403.08        80.00722
403.53        79.38292
403.97        79.40567
404.42        79.50224
404.87        79.51102
405.32        79.41818
405.76        79.17709
406.21        78.83361
406.66        78.46687
407.11        78.28637
407.55        78.36239
408.00        78.36349
408.45        78.28387
408.90        78.66127
409.34        79.18281
409.79        78.62292
410.24        77.27908
410.68        76.65186
411.13        76.85282
411.58        77.07237
412.03        77.17696
412.47        77.30046
412.92        77.35296
413.37        77.32963
413.81         77.2318
414.26        77.11667
414.71        76.98291
415.15        76.83595
415.60        76.68587
416.05        76.61845
416.49        76.64724
416.94        76.73589
417.39        76.84053
417.83        76.86819
418.28        76.81165
418.73         76.7227
419.17        76.59385
419.62        76.46481
420.07        76.35075
420.51        76.08505
420.96        75.84668
421.41        76.06291
421.85        76.54806
422.30        76.84698
422.74        76.85159
423.19        76.53944
423.64        76.12717
424.08        76.46446
424.53        77.39206
424.98         77.7839
425.42        77.51476
425.87        77.40173
426.31        77.52762
426.76        77.17492
427.21        76.61006
427.65        77.13187
428.10        78.32118
428.54        78.45078
428.99        77.60635
429.44        76.56948
429.88        75.76314
430.33        76.34805
430.77        77.76947
431.22        77.80128
431.66        76.58076
432.11        76.13715
432.56        76.56979
433.00        77.01578
433.45         77.3912
433.89        77.07907
434.34        76.89125
434.78         78.2515
435.23        77.72658
435.67        77.61104
436.12        77.19981
436.57        77.69342
437.01        78.69211
437.46        80.42623
437.90        79.10995
438.35        78.80827
438.79        78.57942
439.24        78.24731
439.68        77.87292
440.13        77.80591
440.57        78.15618
441.02        78.43349
441.46        78.49802
441.91        79.25146
442.35        80.38914
442.80        79.02584
443.24        78.84503
443.69        78.30743
444.13        78.54337
444.58        78.59865
445.02        78.46187
445.47        78.78191
445.91        79.46688
446.36        79.84941
446.80         79.7832
447.24        80.71212
447.69        80.35211
448.13        80.52798
448.58        80.58984
449.02        80.54753
449.47        80.44857
449.91        80.37978
450.36         80.3978
450.80        80.44006
451.25        80.47659
451.69        80.40079
452.13        80.21117
452.58        79.95665
453.02         79.6773
453.47        79.50215
453.91        79.44681
454.36        79.41859
454.80        79.38456
455.24        79.46886
455.69        79.56487
456.13        79.31531
456.58        78.89934
457.02        78.57713
457.46        78.59585
457.91        79.11917
458.35        79.86985
458.79        79.95635
459.24        79.33813
459.68         78.5827
460.13        78.04607
460.57        77.00904
461.01        77.43954
461.46        77.26089
461.90        77.65034
462.34         77.9419
462.79        77.63318
463.23        77.73296
463.68        77.90759
464.12        77.91434
464.56        77.75912
465.01        77.08919
465.45        76.85488
465.89        77.04723
466.34        77.57327
466.78        77.80847
467.22         76.2978
467.67        76.03026
468.11        76.32422
468.55        76.57859
468.99        76.58276
469.44        76.61123
469.88        76.67435
470.32        76.64249
470.77         76.5342
471.21        76.54022
471.65        76.68612
472.10        76.39375
472.54         76.6264
472.98        76.54849
473.42        76.44054
473.87        76.40097
474.31        76.37817
474.75        76.14027
475.20        75.80818
475.64        75.82641
476.08        76.09691
476.52        76.20612
476.97        76.12607
477.41        75.83478
477.85         75.3864
478.29        76.01161
478.74        75.74944
479.18         76.1138
479.62        75.15579
480.06        75.04581
480.50        75.38861
480.95        74.64898
481.39        75.44157
481.83        74.56804
482.27        75.14419
482.72        75.16381
483.16        75.11569
483.60        75.21218
484.04        75.30235
484.48         75.6833
484.93         75.4076
485.37        76.04023
485.81        76.26785
486.25        76.83527
486.69        76.88251
487.14        74.17529
487.58        73.12582
488.02        75.75033
488.46        74.53123
488.90         74.0113
489.34        74.92388
489.79        74.87099
490.23        74.96861
490.67        74.76317
491.11        74.52489
491.55        74.58738
491.99        74.86649
492.43        74.89186
492.88        74.63589
493.32        74.43798
493.76        74.35157
494.20        74.32207
494.64        74.32356
495.08        74.38377
495.52        74.54693
495.96         74.5551
496.41        74.31995
496.85        75.01697
497.29        75.07788
497.73        74.31007
498.17        73.49606
498.61        73.08713
499.05        73.46768
499.49        74.07269
499.93         74.6571
500.37        74.80605
500.82        74.52787
501.26        74.36684
501.70        74.40301
502.14        74.42783
502.58        74.39558
503.02        74.26295
503.46         74.0415
503.90        73.83774
504.34        73.71109
504.78        73.68378
505.22         73.7514
505.66         73.9202
506.10        74.14551
506.54        74.26893
506.98        74.16624
507.42        74.37124
507.86        73.68593
508.30        73.53587
508.74        73.58445
509.18        73.67508
509.62        73.76252
510.06        73.87258
510.50        73.99368
510.94        74.10471
511.38        74.19357
511.82        74.23763
512.26        74.22702
512.70        74.15938
513.14          74.046
513.58        73.90919
514.02        73.76237
514.46        73.61462
514.90        73.46523
515.34        73.30898
515.78        73.15572
516.22        73.01778
516.66        72.92817
517.10        72.93176
517.54           73.03
517.98        73.20126
518.42        73.39647
518.86        73.53441
519.30        73.59168
519.74        73.58951
520.18        73.55304
520.62        73.52911
521.06        73.53012
521.50        73.53009
521.93        73.53719
522.37        73.55592
522.81        73.58538
523.25        73.63224
523.69        73.64616
524.13        73.54252
524.57         73.3227
525.01        73.02648
525.45        72.74962
525.89        72.64198
526.32        72.73114
526.76        72.96113
527.20        73.25092
527.64        73.47249
528.08        73.58374
528.52        73.61353
528.96        73.56314
529.40        73.47946
529.83        73.38176
530.27        73.11459
530.71        73.01968
531.15        72.97855
531.59        73.09224
532.03        73.32266
532.46        73.57011
532.90        73.68603
533.34        73.63463
533.78        73.41322
534.22        73.11642
534.66        73.01727
535.09         73.0807
535.53        72.99542
535.97        72.77321
536.41        72.69707
536.85        72.77104
537.28        72.83784
537.72        72.86847
538.16        72.88148
538.60        72.86481
539.04        72.80811
539.47        72.73079
539.91        72.70601
540.35        72.72659
540.79        72.80582
541.22        72.90462
541.66        72.85655
542.10        72.83496
542.54        72.71284
542.97        72.58948
543.41        72.56926
543.85        72.65568
544.29        72.81516
544.72        72.97412
545.16        73.06036
545.60        73.03737
546.04        72.92708
546.47        72.77636
546.91        72.67412
547.35        72.65324
547.79        72.67138
548.22        72.65097
548.66        72.63039
549.10        72.60079
549.53        72.23368
549.97        72.22102
550.41        72.21301
550.84        72.40658
551.28        72.70676
551.72        73.02735
552.15        73.23698
552.59        73.30746
553.03        73.25492
553.46         73.1114
553.90         73.0736
554.34        73.16597
554.77        73.17707
555.21        73.02155
555.65        73.39635
556.08        72.90572
556.52        72.72254
556.96        72.48184
557.39        72.32515
557.83        72.30171
558.27        72.28943
558.70        72.25327
559.14        72.53884
559.57        72.48617
560.01        72.57774
560.45        72.58498
560.88        72.69258
561.32        72.87286
561.75        72.53514
562.19        71.92066
562.63        72.05156
563.06        72.76302
563.50        72.72646
563.93        72.03511
564.37        71.87501
564.80        72.24038
565.24         72.5929
565.68        72.77586
566.11         72.7301
566.55        72.51839
566.98        72.25645
567.42        72.10696
567.85        72.26495
568.29        72.65628
568.72        72.82131
569.16        72.81868
569.60        72.81425
570.03        72.70937
570.47        72.97261
570.90        72.91698
571.34        72.30311
571.77        72.64471
572.21        72.80261
572.64        73.26479
573.08        72.78544
573.51        72.88891
573.95        73.32531
574.38         72.9236
574.82        73.16473
