SpectraSmart Spectrum 2.9.0.0
--------- Device Information -----------
Spectrum Name :  反射率_0
Saving Time :  2024/05/01 16:35:19
Spectro-Module Model Name : SE2030-DUVN
Spectro-Module Serial Number : OS361AC55029948
Wavelength Start : 200
Wavelength End : 1025
Wavelength Unit : Wavelength(nm)
Spectrum Unit : Reflectance(%)
-----------Spectrum Setting ------------
Integration Time : 20ms
Average : 10
Boxcar : 0
Background removal :  enabled
linearity correction :  enabled
SC :  disabled
Intensity correction :  disabled
DWT denoise :  enabled
savitzky-golay :  disabled
FFT :  disabled
Running average :  disabled
Kalman :  disabled
High pass :  disabled
---------------BEGIN--------------------
Wavelength(nm)             Reflectance(%)
200.29               0
200.75       -84.67373
201.21       -8.941629
201.67       -72.13612
202.13        -21.5463
202.58          14.686
203.04        43.70827
203.50        65.61318
203.96        80.78362
204.42        95.16774
204.88        128.4945
205.34        940.8564
205.80       -58.93326
206.26        -33.1565
206.72       -62.90843
207.18       -296.0343
207.64        433.3298
208.10        197.7962
208.55        150.5287
209.01        130.6338
209.47        117.6337
209.93         106.601
210.39        94.92604
210.85        85.82391
211.31        86.45834
211.77        117.5319
212.23       -192.1233
212.69       -5.946731
213.14        15.78604
213.60        44.38298
214.06        -203.253
214.52       -25.78615
214.98       -8.380224
215.44        6.559422
215.90        43.82126
216.36        580.1935
216.81       -237.2751
217.27       -271.0856
217.73        425.2003
218.19        55.14917
218.65        25.73487
219.11        29.57128
219.57        74.21039
220.02        314.1154
220.48        224.5999
220.94        95.89243
221.40         59.2419
221.86        47.30527
222.32        46.58654
222.77        52.78215
223.23        65.40199
223.69        82.25468
224.15        88.79745
224.61        80.22873
225.06        66.87656
225.52        57.94896
225.98        56.35649
226.44        61.09813
226.90        71.59837
227.36        85.45705
227.81        91.42723
228.27        85.48796
228.73        75.03967
229.19        66.75539
229.65        64.19042
230.10        66.63621
230.56        72.93531
231.02        81.18111
231.48        85.48331
231.93        83.16275
232.39        77.73864
232.85        72.09992
233.31        68.72244
233.77        67.69463
234.22          67.888
234.68        68.89841
235.14        70.44453
235.60        72.58768
236.05         76.1183
236.51        81.26714
236.97        87.24197
237.43        92.24286
237.88        94.90438
238.34         95.3215
238.80        96.30608
239.26        99.06655
239.71        104.3918
240.17        110.6399
240.63        110.7687
241.08        100.1269
241.54        83.97041
242.00        71.73479
242.46        69.28546
242.91        77.67284
243.37        98.84621
243.83        137.5036
244.28        170.2549
244.74        166.3371
245.20        145.6788
245.66        126.3427
246.11        112.6067
246.57        101.0759
247.03        85.79506
247.48        62.39238
247.94         33.6788
248.40        12.59421
248.85        4.920201
249.31        12.53885
249.77        28.18326
250.22        44.13051
250.68        58.05432
251.14        68.43169
251.59        75.83032
252.05        82.50517
252.51        91.31383
252.96        108.7464
253.42        140.3162
253.88        152.7013
254.33        134.0359
254.79         117.574
255.25        107.6591
255.70        100.8335
256.16        96.41218
256.62        93.73496
257.07        92.59879
257.53        93.07146
257.99        94.08315
258.44        94.63731
258.90        94.68409
259.35        93.78693
259.81        92.57045
260.27          91.286
260.72        90.42102
261.18        90.30385
261.63        90.18889
262.09        89.94553
262.55        88.82178
263.00        86.74648
263.46         84.3446
263.91        81.79292
264.37        79.82159
264.83        78.39738
265.28        77.30194
265.74        76.40791
266.19        75.15746
266.65        73.64054
267.11        71.91602
267.56        70.34443
268.02        69.59893
268.47        69.69724
268.93        70.36727
269.38        71.04623
269.84        70.80502
270.30        69.46265
270.75        67.31535
271.21        64.91787
271.66        62.95222
272.12         61.6764
272.57         60.7888
273.03        60.12999
273.48          59.363
273.94        58.44186
274.39        57.45613
274.85        56.47069
275.31        55.42567
275.76        54.31849
276.22         53.2292
276.67        52.16451
277.13        51.33016
277.58        50.64412
278.04        50.09977
278.49        49.56166
278.95        48.99456
279.40        48.30748
279.86        47.59648
280.31        46.79299
280.77        45.95604
281.22        45.03685
281.68        44.13237
282.13        43.22267
282.59        42.41632
283.04        41.68665
283.50        41.08155
283.95        40.57959
284.41        40.23104
284.86        40.00583
285.32        39.90565
285.77        39.88399
286.22        39.94663
286.68        40.06974
287.13        40.20796
287.59        40.29658
288.04        40.18853
288.50        39.90396
288.95        39.44871
289.41        38.98787
289.86        38.64233
290.32        38.49082
290.77         38.4893
291.22        38.57625
291.68        38.63245
292.13        38.64041
292.59         38.6925
293.04           38.88
293.50        39.39894
293.95        40.25931
294.40        41.39528
294.86        42.69564
295.31        43.99205
295.77        45.21841
296.22         46.3957
296.68        47.55037
297.13        48.70138
297.58        49.89742
298.04        51.16083
298.49        52.49846
298.95        53.96942
299.40        55.54145
299.85        57.18058
300.31         58.9234
300.76        60.80018
301.21        62.82362
301.67        64.99811
302.12        67.12562
302.58        68.92712
303.03        70.31448
303.48        71.41362
303.94        72.55649
304.39        74.11643
304.84        76.23102
305.30        78.75813
305.75        81.42897
306.20        83.85498
306.66        85.91595
307.11        87.66029
307.57        89.23175
308.02        90.72242
308.47        92.22428
308.93        93.70026
309.38         95.0946
309.83        96.43403
310.29        97.73701
310.74        99.00182
311.19        100.2408
311.65        101.4334
312.10        102.5523
312.55         103.602
313.00        104.6316
313.46        105.7251
313.91        106.8741
314.36         108.043
314.82        109.0969
315.27         109.838
315.72        110.2094
316.18        110.3124
316.63        110.2567
317.08         110.292
317.53        110.4971
317.99         110.818
318.44        111.2069
318.89        111.5486
319.35        111.8108
319.80        112.0579
320.25        112.3169
320.70        112.6315
321.16         112.996
321.61        113.3914
322.06        113.8179
322.51        114.3038
322.97        114.8103
323.42        115.3684
323.87        115.8548
324.32        116.0975
324.78        116.0631
325.23        115.8497
325.68        115.5985
326.13        115.5657
326.59        115.8016
327.04        116.2916
327.49        116.9213
327.94        117.5198
328.39        118.0091
328.85        118.3707
329.30        118.7099
329.75        119.0283
330.20        119.3397
330.66        119.6042
331.11        119.8315
331.56        119.9005
332.01        119.8258
332.46        119.6619
332.92        119.5684
333.37        119.9225
333.82        120.7662
334.27        122.0255
334.72        123.4525
335.17        124.5988
335.63        125.2744
336.08        125.6193
336.53        125.7952
336.98        126.1607
337.43        126.8229
337.88        127.6837
338.34        128.5274
338.79        129.1015
339.24        129.2957
339.69        129.2133
340.14        129.1047
340.59        129.3475
341.05        130.0149
341.50        131.0126
341.95        132.0488
342.40        132.6567
342.85        132.7395
343.30        132.4619
343.75        132.1479
344.20        132.2984
344.66        133.0182
345.11        134.1301
345.56        135.3729
346.01        136.3015
346.46        136.7808
346.91        136.9754
347.36        137.0193
347.81        137.1119
348.26         137.336
348.72        137.6203
349.17        137.9725
349.62        138.4961
350.07        139.1428
350.52        139.8297
350.97        140.3873
351.42        140.5258
351.87        140.1948
352.32        139.5498
352.77        138.6313
353.22        137.5105
353.67        136.2902
354.13        135.0021
354.58        133.9225
355.03         133.593
355.48        134.0619
355.93        135.1977
356.38        136.4071
356.83        136.6808
357.28        135.8018
357.73        134.0784
358.18        132.2027
358.63        131.2187
359.08        131.3228
359.53        132.1602
359.98        133.1603
360.43        133.3773
360.88        132.5522
361.33         131.033
361.78        129.2477
362.23        127.7874
362.68        126.8181
363.13          126.15
363.58        125.6048
364.03        124.9327
364.48        124.0512
364.93        123.0441
365.38        122.0404
365.83        121.1975
366.28        120.5371
366.73        120.0122
367.18        119.4092
367.63        118.4148
368.08        117.0161
368.53        115.3492
368.98        113.7764
369.43        112.8123
369.88        112.5305
370.33        112.7645
370.78        113.1381
371.23        112.9953
371.68        112.1574
372.13        110.8417
372.58        109.3823
373.03        108.2766
373.48        107.6399
373.93        107.2891
374.38        107.0537
374.83        106.6729
375.28        106.0583
375.72        105.3011
376.17        104.4726
376.62        103.5929
377.07        102.6976
377.52        101.7754
377.97        100.8934
378.42        100.1717
378.87        99.63134
379.32        99.24116
379.77        98.92835
380.22        98.56631
380.67        98.11848
381.11        97.62674
381.56        97.10567
382.01        96.61133
382.46        96.16747
382.91        95.74457
383.36        95.36156
383.81        95.04971
384.26        94.79819
384.71        94.60076
385.15        94.36548
385.60        93.99956
386.05        93.47855
386.50         92.8487
386.95        92.21789
387.40         91.7592
387.85        91.50391
388.29        91.33138
388.74        91.25265
389.19        91.07383
389.64        90.75113
390.09        90.32046
390.54        89.82083
390.98        89.30007
391.43        88.85108
391.88        88.44089
392.33        88.06731
392.78        87.73081
393.23        87.41969
393.67         87.0672
394.12        86.78847
394.57        86.49155
395.02        86.57054
395.47         86.1862
395.91        85.58494
396.36        85.28669
396.81        85.33298
397.26        85.47072
397.71        85.52625
398.15        85.33645
398.60        84.96506
399.05        84.34328
399.50        83.71523
399.95        83.58286
400.39        83.93051
400.84        84.21786
401.29        84.26343
401.74        84.12138
402.18         83.7426
402.63        82.98705
403.08        82.10149
403.53        81.54346
403.97        81.37719
404.42        81.44778
404.87         81.6155
405.32        81.66853
405.76        81.51876
406.21        81.33118
406.66         81.1002
407.11        80.67484
407.55         80.2641
408.00        80.17384
408.45        80.41568
408.90        81.02162
409.34        81.59642
409.79          81.081
410.24        79.74344
410.68        79.03798
411.13        79.07629
411.58        79.00491
412.03        78.77554
412.47        78.74006
412.92         78.8568
413.37        79.04049
413.81        79.21537
414.26         79.3322
414.71        79.34787
415.15        79.29518
415.60        79.17825
416.05        79.07211
416.49        79.00209
416.94        78.94175
417.39        78.87878
417.83        78.77242
418.28        78.62708
418.73        78.48446
419.17         78.3488
419.62        78.22325
420.07         78.0986
420.51        77.94673
420.96        77.87493
421.41        77.86069
421.85        77.86589
422.30        78.23832
422.74        78.75233
423.19        78.47368
423.64         77.6613
424.08        77.94605
424.53         79.1804
424.98        79.67091
425.42        79.25359
425.87        79.13278
426.31        79.35207
426.76        78.76434
427.21        77.76679
427.65         78.2824
428.10        79.83295
428.54        80.14745
428.99        79.25917
429.44         78.0677
429.88        77.11461
430.33        77.87904
430.77        79.67534
431.22        79.81143
431.66        78.44518
432.11        77.67339
432.56        77.66264
433.00        78.36646
433.45        79.60375
433.89        78.47349
434.34        77.20569
434.78        79.00773
435.23        78.97248
435.67        79.24527
436.12        78.54692
436.57        78.39391
437.01        79.70443
437.46        80.83913
437.90        80.05053
438.35        79.65531
438.79        79.84687
439.24          79.537
439.68        79.05644
440.13        79.08028
440.57        79.61814
441.02        79.99129
441.46        80.08318
441.91        80.53098
442.35        81.09811
442.80        80.76227
443.24        80.46753
443.69        80.22634
444.13        80.33995
444.58        80.36003
445.02        80.26673
445.47        80.42686
445.91        80.80693
446.36        81.03322
446.80        81.01717
447.24        81.63194
447.69        81.47052
448.13        81.63173
448.58        81.71468
449.02        81.71989
449.47        81.67324
449.91        81.60101
450.36        81.54824
450.80        81.47873
451.25        81.39965
451.69        81.26839
452.13        81.08991
452.58        80.88158
453.02        80.66425
453.47        80.50775
453.91        80.41018
454.36        80.39263
454.80        80.39605
455.24        80.26479
455.69        79.99081
456.13        79.71984
456.58        79.63994
457.02        79.23116
457.46        79.59968
457.91        79.97095
458.35        80.41808
458.79        80.41169
459.24        79.93295
459.68        79.25436
460.13        78.67393
460.57        77.83356
461.01        77.88332
461.46        77.93172
461.90          78.159
462.34        78.25291
462.79         78.0972
463.23        78.21825
463.68        78.49429
464.12         78.5972
464.56        78.51196
465.01         78.1886
465.45         78.1239
465.89        78.16397
466.34        78.26117
466.78        78.39708
467.22        77.27621
467.67        77.05211
468.11         77.0728
468.55        77.14278
468.99        77.10406
469.44        77.10747
469.88         77.1546
470.32        77.19117
470.77        77.21107
471.21        77.21871
471.65        77.19383
472.10        77.14529
472.54        77.07082
472.98        76.98262
473.42        76.87952
473.87         76.8518
474.31        76.83566
474.75        76.61378
475.20        76.25836
475.64        76.25389
476.08         76.5582
476.52        76.53159
476.97        76.09602
477.41        76.69048
477.85        75.63382
478.29         76.4958
478.74        76.61586
479.18        76.60564
479.62         75.9841
480.06        75.83826
480.50        76.24535
480.95        75.48663
481.39        76.16176
481.83        75.46241
482.27        75.65662
482.72        75.54543
483.16        75.33851
483.60        75.44393
484.04        75.71125
484.48        75.87952
484.93         76.1699
485.37        76.77414
485.81        76.26882
486.25        77.48272
486.69        77.30427
487.14        74.89286
487.58        73.66478
488.02        76.18369
488.46        75.30104
488.90         74.6521
489.34        75.88887
489.79        75.10494
490.23        75.46458
490.67        75.10764
491.11        74.83906
491.55        74.90465
491.99        75.21609
492.43        75.31042
492.88        75.12922
493.32        75.01286
493.76        74.99012
494.20        74.97852
494.64        74.94744
495.08        74.95489
495.52        75.07484
495.96         75.0604
496.41        74.77914
496.85        75.67077
497.29        75.36119
497.73        74.74634
498.17        74.37652
498.61        74.01982
499.05        74.08092
499.49        74.36794
499.93        74.76286
500.37        74.90416
500.82        74.80016
501.26        74.87722
501.70        75.12239
502.14        75.27041
502.58        75.17542
503.02        75.03793
503.46        74.84438
503.90        74.56359
504.34        74.29247
504.78        74.21055
505.22        74.33327
505.66        74.60452
506.10         74.9402
506.54        75.13243
506.98        75.00562
507.42         75.1194
507.86         74.2141
508.30        73.86444
508.74        73.98842
509.18        74.11778
509.62        74.26297
510.06        74.43882
510.50        74.62013
510.94        74.79068
511.38        74.91067
511.82        74.91801
512.26        74.80399
512.70        74.58019
513.14        74.32301
513.58        74.16022
514.02        74.12396
514.46        74.18759
514.90        74.27958
515.34        74.27359
515.78        74.14409
516.22        73.93702
516.66        73.73049
517.10        73.64125
517.54         73.6968
517.98        73.85783
518.42        74.05741
518.86        74.18834
519.30        74.21827
519.74        74.17499
520.18        74.10834
520.62        74.09847
521.06        74.16019
521.50         74.2582
521.93        74.34528
522.37        74.33829
522.81        74.22667
523.25        74.04938
523.69         73.8445
524.13         73.6651
524.57        73.53736
525.01        73.45186
525.45        73.41724
525.89        73.44707
526.32        73.53195
526.76        73.65781
527.20        73.79588
527.64        73.90115
528.08        73.95784
528.52        73.98318
528.96        73.96343
529.40         73.8819
529.83         73.7429
530.27        73.57357
530.71        73.44072
531.15        73.46658
531.59        73.66697
532.03        73.99608
532.46        74.33994
532.90        74.53767
533.34        74.54554
533.78        74.35651
534.22        74.05958
534.66        73.92139
535.09        73.91109
535.53        73.72607
535.97        73.39499
536.41        73.22832
536.85        73.24004
537.28        73.26599
537.72        73.28655
538.16        73.33186
538.60        73.38461
539.04         73.4285
539.47          73.446
539.91        73.45492
540.35        73.43826
540.79        73.42344
541.22        73.41479
541.66        73.31697
542.10        73.32152
542.54        73.28053
542.97        73.25106
543.41        73.26962
543.85        73.32419
544.29        73.40527
544.72        73.47952
545.16        73.52682
545.60        73.52195
546.04        73.49316
546.47        73.45087
546.91        73.36185
547.35        73.27481
547.79        73.30829
548.22        73.37139
548.66        73.35957
549.10        73.26318
549.53        72.83826
549.97        72.79303
550.41        72.74403
550.84        72.89602
551.28        73.18848
551.72        73.53454
552.15        73.75362
552.59        73.80355
553.03        73.82457
553.46        73.61653
553.90        73.55659
554.34        73.60563
554.77        73.50909
555.21        73.26615
555.65        73.60523
556.08        73.59816
556.52        73.38155
556.96        72.81918
557.39        72.56902
557.83        72.70486
558.27        72.83663
558.70        72.90187
559.14        73.25748
559.57        73.22871
560.01         73.4575
560.45        73.62308
560.88        73.54289
561.32        73.31001
561.75        72.76836
562.19        72.20508
562.63        72.57059
563.06        73.57339
563.50         73.4754
563.93        72.42765
564.37        72.17521
564.80        72.71334
565.24         73.0507
565.68        73.06944
566.11        73.10375
566.55         73.1743
566.98        73.04422
567.42        72.83645
567.85        72.95387
568.29        73.37273
568.72        73.29292
569.16        73.38268
569.60        73.42114
570.03        73.22598
570.47        73.55447
570.90        73.88579
571.34        72.89797
571.77        73.48215
572.21        73.44241
572.64        73.69141
573.08         73.2774
573.51         73.2953
573.95        73.85792
574.38        73.28834
574.82        73.73224
