SpectraSmart Spectrum 2.9.0.0
--------- Device Information -----------
Spectrum Name :  反射率_0
Saving Time :  2024/05/01 16:08:30
Spectro-Module Model Name : SE2030-DUVN
Spectro-Module Serial Number : OS361AC55029948
Wavelength Start : 200
Wavelength End : 1025
Wavelength Unit : Wavelength(nm)
Spectrum Unit : Reflectance(%)
-----------Spectrum Setting ------------
Integration Time : 20ms
Average : 10
Boxcar : 0
Background removal :  enabled
linearity correction :  enabled
SC :  disabled
Intensity correction :  disabled
DWT denoise :  enabled
savitzky-golay :  disabled
FFT :  disabled
Running average :  disabled
Kalman :  disabled
High pass :  disabled
---------------BEGIN--------------------
Wavelength(nm)             Reflectance(%)
200.29               0
200.75        61.82485
201.21        568.9059
201.67       -313.2831
202.13       -122.4393
202.58       -48.95942
203.04       -1.186822
203.50        29.81741
203.96        44.39624
204.42        46.21703
204.88        30.10571
205.34        -474.198
205.80        130.7642
206.26         90.4701
206.72        59.77118
207.18       -47.98164
207.64        240.0121
208.10        132.3903
208.55        104.6801
209.01        87.95962
209.47        73.43698
209.93        58.86131
210.39         41.3651
210.85        22.32769
211.31         1.57419
211.77       -43.64237
212.23        256.0793
212.69        73.08926
213.14        72.49545
213.60        131.9305
214.06       -574.3905
214.52       -87.83614
214.98       -56.61566
215.44       -50.89996
215.90       -61.36182
216.36        -278.968
216.81        40.26611
217.27        8.628455
217.73        15.77826
218.19        1.677588
218.65       -3.962638
219.11       -12.76291
219.57       -38.30455
220.02       -149.0255
220.48       -87.60726
220.94       -28.88636
221.40       -12.51069
221.86       -5.427493
222.32      -0.2987372
222.77        5.529239
223.23         13.5425
223.69        23.64296
224.15        29.01229
224.61        26.40134
225.06        20.62123
225.52        16.00288
225.98        14.00223
226.44        14.06993
226.90        15.48821
227.36         17.8237
227.81        19.18072
228.27        18.60212
228.73        17.28705
229.19        16.08051
229.65        15.27455
230.10         14.8113
230.56        14.80893
231.02        15.16519
231.48        15.74077
231.93        16.38503
232.39        16.93477
232.85        17.99123
233.31        20.30602
233.77        23.55982
234.22        27.30416
234.68        30.50351
235.14        32.11923
235.60        32.05537
236.05        30.40104
236.51        27.64273
236.97        26.21638
237.43        28.07256
237.88        32.86882
238.34        38.29623
238.80        41.83847
239.26        43.02692
239.71        42.32279
240.17        39.37669
240.63        35.41227
241.08         33.1917
241.54        33.38037
242.00        35.95302
242.46        41.35392
242.91        51.19006
243.37        68.01344
243.83        95.91393
244.28        120.4406
244.74        119.5655
245.20        105.9994
245.66        92.26711
246.11        81.16584
246.57        70.19707
247.03        54.82696
247.48        31.23372
247.94        4.440025
248.40       -11.99978
248.85        -15.0442
249.31       -3.978168
249.77        13.81644
250.22        30.71202
250.68        44.74718
251.14        54.18426
251.59          58.664
252.05        59.29518
252.51        55.28936
252.96        43.19025
253.42        31.25849
253.88        46.04543
254.33        68.03817
254.79        77.71337
255.25        78.93428
255.70        76.61712
256.16        74.03125
256.62        71.97928
257.07        71.03647
257.53         71.3717
257.99        72.00554
258.44        72.27595
258.90        72.21596
259.35        71.48586
259.81        70.59747
260.27        69.62142
260.72        68.75863
261.18        68.31923
261.63        67.83073
262.09        67.35335
262.55        66.50286
263.00        65.16977
263.46        63.66761
263.91        61.99205
264.37        60.51297
264.83        59.19651
265.28        57.98032
265.74        56.80327
266.19        55.27724
266.65        53.51676
267.11        51.57031
267.56        49.80433
268.02        48.88532
268.47        48.84293
268.93        49.40382
269.38        50.04437
269.84        49.87252
270.30        48.70154
270.75        46.81751
271.21        44.66222
271.66        42.77356
272.12        41.39306
272.57        40.30005
273.03        39.47147
273.48        38.81234
273.94        38.28849
274.39        37.90263
274.85        37.57417
275.31        37.09361
275.76        36.41447
276.22        35.63205
276.67        34.79081
277.13        34.08322
277.58        33.48162
278.04        32.98013
278.49         32.4992
278.95        32.04611
279.40        31.56444
279.86        31.10835
280.31         30.6411
280.77        30.20714
281.22         29.7585
281.68         29.3444
282.13        28.89813
282.59        28.41643
283.04        27.88474
283.50        27.37958
283.95        26.94995
284.41        26.72631
284.86        26.71422
285.32        26.87281
285.77        27.15699
286.22        27.55022
286.68        28.02184
287.13        28.53835
287.59        29.00541
288.04        29.22463
288.50        29.19253
288.95        28.93471
289.41        28.63502
289.86        28.47767
290.32        28.54561
290.77        28.78818
291.22        29.13157
291.68        29.44085
292.13        29.69838
292.59        30.00594
293.04        30.45058
293.50         31.2088
293.95        32.29601
294.40        33.65237
294.86        35.18859
295.31        36.77685
295.77        38.34519
296.22        39.88357
296.68        41.39205
297.13         42.8613
297.58        44.32518
298.04        45.82116
298.49        47.32418
298.95        48.83999
299.40        50.34631
299.85        51.83403
300.31        53.43923
300.76        55.34413
301.21        57.58616
301.67        60.13195
302.12        62.67019
302.58        64.73066
303.03        66.18252
303.48        67.20403
303.94        68.24119
304.39        69.84335
304.84        72.17231
305.30        75.02416
305.75        78.01504
306.20        80.57598
306.66        82.55233
307.11         84.0648
307.57        85.37482
308.02        86.75126
308.47        88.32289
308.93         89.9957
309.38         91.6261
309.83        93.10073
310.29        94.40662
310.74        95.59624
311.19        96.74887
311.65        97.94572
312.10        99.18268
312.55        100.4165
313.00        101.6527
313.46         102.914
313.91        104.1675
314.36        105.3975
314.82        106.4681
315.27         107.176
315.72        107.4783
316.18        107.4886
316.63        107.3463
317.08        107.3463
317.53        107.5762
317.99        107.9628
318.44        108.4569
318.89        108.9368
319.35        109.3528
319.80        109.7666
320.25        110.1454
320.70         110.439
321.16        110.6344
321.61        110.7448
322.06        110.8638
322.51        111.1796
322.97        111.6923
323.42        112.3785
323.87        113.0469
324.32        113.4043
324.78         113.373
325.23        113.0932
325.68        112.7038
326.13        112.4551
326.59         112.418
327.04        112.5802
327.49        112.9103
327.94        113.3781
328.39        113.9431
328.85         114.565
329.30        115.2506
329.75        115.8273
330.20        116.2459
330.66        116.4903
331.11        116.6453
331.56        116.7322
332.01        116.7961
332.46        116.8406
332.92        116.9175
333.37         117.229
333.82        117.7816
334.27        118.5661
334.72        119.4718
335.17        120.2834
335.63        120.8909
336.08        121.3736
336.53        121.7897
336.98        122.3219
337.43        123.0154
337.88        123.8137
338.34        124.5483
338.79        125.0452
339.24        125.2173
339.69        125.1324
340.14        124.9971
340.59        125.1292
341.05        125.5957
341.50         126.337
341.95        127.1218
342.40        127.5705
342.85        127.6128
343.30        127.3893
343.75        127.1759
344.20        127.3977
344.66        128.1315
345.11         129.205
345.56        130.3828
346.01        131.2702
346.46         131.732
346.91        131.9035
347.36        131.8647
347.81        131.7351
348.26        131.5972
348.72         131.437
349.17        131.3295
349.62        131.4745
350.07        131.8717
350.52         132.426
350.97        132.9874
351.42        133.2905
351.87        133.2577
352.32        133.0009
352.77        132.4855
353.22        131.6728
353.67        130.6281
354.13        129.4071
354.58        128.2826
355.03        127.7953
355.48        128.0203
355.93        128.8387
356.38        129.7551
356.83        129.9246
357.28        129.1583
357.73        127.7073
358.18        126.1506
358.63        125.3555
359.08        125.4752
359.53        126.2131
359.98        127.0314
360.43        127.0502
360.88        126.0473
361.33        124.3417
361.78        122.4149
362.23        120.9406
362.68        120.0852
363.13        119.6449
363.58        119.3247
364.03        118.6742
364.48         117.578
364.93        116.1886
365.38        114.7872
365.83        113.7699
366.28        113.2111
366.73        112.9835
367.18        112.7559
367.63        112.0185
368.08        110.6934
368.53         108.976
368.98        107.2839
369.43        106.2144
369.88        105.8696
370.33        106.0517
370.78         106.377
371.23        106.1857
371.68        105.2993
372.13        103.9515
372.58        102.4776
373.03        101.3654
373.48        100.7301
373.93        100.3907
374.38        100.1802
374.83        99.84541
375.28        99.29738
375.72        98.62182
376.17        97.88314
376.62        97.09808
377.07        96.29774
377.52        95.46851
377.97        94.67079
378.42        94.01446
378.87        93.51994
379.32        93.16068
379.77         92.8712
380.22        92.53751
380.67        92.12621
381.11         91.6736
381.56        91.19704
382.01        90.75314
382.46         90.3654
382.91        90.01028
383.36        89.68887
383.81         89.4052
384.26        89.14598
384.71        88.90639
385.15        88.63694
385.60        88.31136
386.05        87.90842
386.50        87.44538
386.95        86.95792
387.40        86.50818
387.85        86.11581
388.29        85.71661
388.74        85.38889
389.19        85.04161
389.64        84.65857
390.09        84.24644
390.54         83.8252
390.98        83.41202
391.43        83.07312
391.88         82.7774
392.33        82.50005
392.78        82.23527
393.23        81.98096
393.67        81.62667
394.12        81.26006
394.57        81.07935
395.02        80.97894
395.47        80.43967
395.91        79.63607
396.36        79.29031
396.81        79.46144
397.26        79.80521
397.71        80.09059
398.15        80.08595
398.60        79.82203
399.05        79.23955
399.50        78.59383
399.95        78.43649
400.39        78.74644
400.84        78.90453
401.29        78.77967
401.74        78.58549
402.18        78.29018
402.63        77.68439
403.08        76.95617
403.53        76.48429
403.97        76.32121
404.42        76.36619
404.87        76.48155
405.32        76.46492
405.76        76.26047
406.21           75.96
406.66        75.63287
407.11        75.43613
407.55        75.42899
408.00        75.39806
408.45         75.3327
408.90        75.49597
409.34        75.71488
409.79        75.36946
410.24        74.61195
410.68        74.21436
411.13        74.24046
411.58        74.26261
412.03        74.22858
412.47        74.24741
412.92        74.26859
413.37        74.28925
413.81         74.2709
414.26        74.21036
414.71        74.09007
415.15        73.93134
415.60        73.76385
416.05         73.7005
416.49        73.76579
416.94        73.91745
417.39         74.0863
417.83        74.14667
418.28        74.07293
418.73        73.91047
419.17        73.70748
419.62        73.54685
420.07        73.45074
420.51        73.37752
420.96         73.3711
421.41        73.37853
421.85        73.36316
422.30        73.51056
422.74        73.72208
423.19         73.6509
423.64         73.3912
424.08        73.60404
424.53        74.18644
424.98        74.41835
425.42        74.22475
425.87        74.14211
426.31        74.18564
426.76        73.77273
427.21        73.13206
427.65        73.29455
428.10        74.03594
428.54        74.25069
428.99        73.93803
429.44        73.36264
429.88        72.77014
430.33        73.20246
430.77        74.23374
431.22         74.0684
431.66        72.94774
432.11        72.66028
432.56        73.19577
433.00          73.846
433.45        74.50016
433.89        73.40968
434.34        73.13596
434.78        74.35269
435.23        73.85406
435.67        73.88591
436.12         73.5015
436.57        74.07396
437.01        75.36701
437.46        75.91392
437.90        75.61171
438.35        75.32871
438.79        75.16032
439.24        74.75827
439.68        74.27203
440.13        74.30012
440.57         74.8024
441.02        75.06955
441.46         74.9836
441.91        75.26509
442.35        75.73929
442.80        75.16222
443.24        74.89745
443.69        74.72916
444.13        75.01382
444.58        75.11951
445.02        74.99843
445.47        75.08265
445.91        75.39699
446.36        75.56258
446.80        75.48683
447.24        76.32035
447.69        76.28814
448.13        76.23273
448.58        75.81438
449.02        75.81746
449.47        76.19719
449.91        76.25295
450.36        76.00455
450.80          75.825
451.25        75.77483
451.69        75.70901
452.13        75.64169
452.58         75.6204
453.02        75.59573
453.47        75.53071
453.91        75.40292
454.36        75.23119
454.80        75.04527
455.24        74.90934
455.69        74.83121
456.13        74.78649
456.58        74.80463
457.02        74.65447
457.46         74.4523
457.91        74.72395
458.35         75.2075
458.79        75.17801
459.24        74.58917
459.68        73.99664
460.13        73.70107
460.57        72.72611
461.01        72.97199
461.46        73.05704
461.90        73.37542
462.34        73.29705
462.79         72.8978
463.23        73.12897
463.68        73.78192
464.12        73.92305
464.56        73.51563
465.01        72.87534
465.45          72.517
465.89        72.54424
466.34        72.85973
466.78        73.19711
467.22        72.26997
467.67        72.21954
468.11        72.39742
468.55         72.5138
468.99        72.43256
469.44        72.38486
469.88        72.39093
470.32        72.36904
470.77        72.33435
471.21        72.33043
471.65        72.33872
472.10        72.36034
472.54        72.36241
472.98        72.27796
473.42        72.09019
473.87        71.97844
474.31        71.89537
474.75        71.49088
475.20        70.92259
475.64          71.009
476.08        71.64457
476.52        71.71163
476.97        71.16496
477.41        71.63466
477.85        70.72644
478.29        71.16729
478.74        71.52225
479.18        71.50106
479.62        70.97593
480.06         70.7902
480.50        70.99644
480.95        70.25685
481.39        71.09672
481.83        69.76276
482.27         70.5526
482.72         70.5274
483.16        70.68685
483.60        70.89207
484.04        71.08256
484.48        70.97845
484.93        70.90236
485.37         71.3706
485.81        71.41512
486.25        72.17813
486.69        71.45786
487.14        69.20344
487.58        68.66615
488.02        70.67826
488.46        70.76569
488.90        69.80137
489.34        70.37411
489.79        70.36164
490.23         70.1929
490.67        69.90193
491.11        69.49166
491.55        69.76323
491.99        70.49939
492.43        70.73173
492.88        70.37012
493.32        69.95874
493.76         69.6572
494.20         69.5071
494.64        69.55357
495.08        69.75531
495.52        70.02693
495.96        70.18876
496.41        70.19137
496.85        70.21352
497.29        70.19408
497.73        69.87646
498.17        69.36344
498.61        69.02818
499.05        68.96387
499.49        69.07227
499.93        69.27988
500.37         69.4297
500.82         69.4912
501.26        69.60628
501.70        69.75093
502.14        69.77792
502.58        69.68625
503.02          69.579
503.46        69.47521
503.90        69.33671
504.34        69.21608
504.78        69.20371
505.22        69.30033
505.66        69.50894
506.10        69.75198
506.54        69.80488
506.98        69.58926
507.42        69.58778
507.86        69.02428
508.30        68.89065
508.74        68.96744
509.18        69.16768
509.62        69.39845
510.06         69.5505
510.50        69.58828
510.94         69.5369
511.38         69.4425
511.82        69.37903
512.26        69.36579
512.70        69.36182
513.14         69.3414
513.58        69.29004
514.02        69.20443
514.46        69.02454
514.90        68.90137
515.34        68.71925
515.78        68.53768
516.22        68.36292
516.66         68.2344
517.10        68.20653
517.54        68.28546
517.98         68.4538
518.42        68.66644
518.86         68.8464
519.30        68.96548
519.74        69.03397
520.18        69.06773
520.62        69.10148
521.06        69.13985
521.50          69.159
521.93        69.15238
522.37        69.10237
522.81        69.01471
523.25        68.91474
523.69        68.79182
524.13        68.62151
524.57        68.41768
525.01        68.19731
525.45        68.03387
525.89         68.0404
526.32        68.22572
526.76        68.54127
527.20        68.88533
527.64         69.0958
528.08        69.12714
528.52        69.03204
528.96        68.86103
529.40        68.69805
529.83        68.57193
530.27        68.47444
530.71        68.42393
531.15        68.46697
531.59        68.60106
532.03        68.81038
532.46        69.02017
532.90        69.12658
533.34        69.10517
533.78         68.9367
534.22        68.68609
534.66        68.57546
535.09         68.5692
535.53        68.39371
535.97        68.09164
536.41        67.97491
536.85        68.05815
537.28        68.17702
537.72        68.28417
538.16        68.36483
538.60        68.39348
539.04        68.36739
539.47        68.30154
539.91        68.26071
540.35        68.24084
540.79        68.25564
541.22        68.28181
541.66        68.18676
542.10        68.14169
542.54        68.02305
542.97        67.90907
543.41        67.90405
543.85        68.01159
544.29        68.14143
544.72        68.21758
545.16        68.46087
545.60        68.35772
546.04        68.30865
546.47         68.1999
546.91        68.10258
547.35        68.04244
547.79         67.9958
548.22        67.91788
548.66        67.87146
549.10        67.85388
549.53        67.55136
549.97        67.59608
550.41        67.61169
550.84        67.76119
551.28        68.05199
551.72        68.41212
552.15         68.5175
552.59        68.32476
553.03        68.59428
553.46        68.18704
553.90        68.20498
554.34         68.3313
554.77        68.34111
555.21        68.17163
555.65        68.67577
556.08         68.4724
556.52        68.28049
556.96        67.80978
557.39        67.55184
557.83         67.5546
558.27        67.61731
558.70        67.47514
559.14        67.74371
559.57        67.73104
560.01        67.97839
560.45        68.17125
560.88         68.1218
561.32        67.92387
561.75        67.49844
562.19        67.08302
562.63        67.43934
563.06        68.30166
563.50         68.1572
563.93        67.16074
564.37        66.89675
564.80        67.35929
565.24        67.63453
565.68        67.62225
566.11        67.63468
566.55        67.67977
566.98        67.58868
567.42        67.46711
567.85        67.50615
568.29         67.7064
568.72        67.84721
569.16        67.98168
569.60        67.99559
570.03        67.80403
570.47        67.91804
570.90        68.31463
571.34        67.16902
571.77        67.76529
572.21        67.66538
572.64        67.92596
573.08        67.49188
573.51         67.6817
573.95        68.40544
574.38        67.79141
574.82        67.77237
