SpectraSmart Spectrum 2.9.0.0
--------- Device Information -----------
Spectrum Name :  反射率_0
Saving Time :  2024/05/01 16:38:19
Spectro-Module Model Name : SE2030-DUVN
Spectro-Module Serial Number : OS361AC55029948
Wavelength Start : 200
Wavelength End : 1025
Wavelength Unit : Wavelength(nm)
Spectrum Unit : Reflectance(%)
-----------Spectrum Setting ------------
Integration Time : 20ms
Average : 10
Boxcar : 0
Background removal :  enabled
linearity correction :  enabled
SC :  disabled
Intensity correction :  disabled
DWT denoise :  enabled
savitzky-golay :  disabled
FFT :  disabled
Running average :  disabled
Kalman :  disabled
High pass :  disabled
---------------BEGIN--------------------
Wavelength(nm)             Reflectance(%)
200.29               0
200.75        54.86023
201.21        441.4139
201.67       -239.2553
202.13       -90.77637
202.58       -32.30661
203.04        6.285241
203.50          30.534
203.96        38.97653
204.42        32.16181
204.88       -8.108967
205.34       -1069.884
205.80        197.6821
206.26        110.3537
206.72         29.7087
207.18       -280.1266
207.64        538.0436
208.10        225.0663
208.55        136.6902
209.01        87.78291
209.47        60.62671
209.93        46.39104
210.39        35.83611
210.85        27.78659
211.31        21.69569
211.77        12.86079
212.23        41.66203
212.69        24.12799
213.14         33.5734
213.60        78.29598
214.06       -417.4229
214.52       -74.57742
214.98       -52.47124
215.44       -48.88102
215.90       -58.54827
216.36       -251.5029
216.81         37.8948
217.27        27.25852
217.73       -71.24746
218.19       -27.19585
218.65       -33.08701
219.11       -54.04169
219.57       -122.5106
220.02       -385.4796
220.48       -170.2937
220.94       -31.73466
221.40        1.996991
221.86        14.25133
222.32        20.70724
222.77        26.06888
223.23        32.16984
223.69        38.25239
224.15        38.51857
224.61        32.62107
225.06        25.66867
225.52        21.00431
225.98         19.1979
226.44        19.58045
226.90        21.58911
227.36        25.53527
227.81        30.18729
228.27        33.30692
228.73        34.95346
229.19        35.37399
229.65        34.88011
230.10        33.67376
230.56        31.68724
231.02        29.40214
231.48         28.6613
231.93        30.04036
232.39        32.62218
232.85        35.31184
233.31        37.19044
233.77         38.2807
234.22         39.0357
234.68        39.58117
235.14        40.19337
235.60         41.0515
236.05        42.18227
236.51        43.94693
236.97        46.87679
237.43        50.68584
237.88        54.73809
238.34        57.64079
238.80        58.95206
239.26        58.70277
239.71        56.56691
240.17        51.58893
240.63        44.78633
241.08         39.6109
241.54        38.21611
242.00        40.09359
242.46        43.89149
242.91        50.44439
243.37        61.49556
243.83        80.99077
244.28        102.1836
244.74        107.4554
245.20        101.7316
245.66        93.79658
246.11        86.60099
246.57        78.92992
247.03        67.50319
247.48        48.22475
247.94        21.86683
248.40       -1.169505
248.85       -15.24063
249.31       -13.57007
249.77        2.155387
250.22        22.29691
250.68        41.28751
251.14        55.32824
251.59        63.25679
252.05        66.96204
252.51        67.50719
252.96        64.22117
253.42        63.44122
253.88        74.30456
254.33        82.18118
254.79        83.95277
255.25        82.63725
255.70        80.03168
256.16        78.07438
256.62        76.61959
257.07        75.58946
257.53        75.43638
257.99        75.49872
258.44        75.43704
258.90        75.60556
259.35        75.52679
259.81        75.48086
260.27        75.21276
260.72        74.50506
261.18        73.68385
261.63         72.4995
262.09        71.28027
262.55        69.86156
263.00        68.17344
263.46        66.49381
263.91        64.72456
264.37        63.14524
264.83        61.71696
265.28        60.40157
265.74        59.25341
266.19        58.03405
266.65        56.83733
267.11        55.60841
267.56        54.51757
268.02        53.94253
268.47        53.84779
268.93        54.06124
269.38        54.19983
269.84        53.60577
270.30        52.18949
270.75          50.194
271.21        48.03976
271.66        46.22245
272.12        44.95476
272.57        44.00938
273.03        43.35912
273.48        42.88765
273.94        42.53318
274.39        42.27729
274.85        41.96631
275.31         41.2857
275.76        40.21187
276.22        38.92507
276.67        37.59913
277.13        36.61131
277.58        35.95652
278.04        35.56015
278.49        35.27185
278.95        34.99448
279.40        34.62104
279.86        34.23473
280.31        33.77204
280.77        33.25058
281.22        32.63197
281.68        31.98994
282.13        31.31106
282.59        30.67993
283.04        30.09362
283.50        29.60245
283.95        29.22541
284.41        29.04772
284.86        29.05245
285.32         29.2114
285.77        29.46792
286.22        29.79333
286.68        30.15801
287.13        30.53062
287.59         30.8381
288.04         30.9204
288.50        30.79061
288.95        30.46806
289.41        30.12538
289.86        29.92337
290.32        29.93625
290.77           30.11
291.22        30.37612
291.68        30.60943
292.13        30.78629
292.59        30.99832
293.04        31.30851
293.50        31.85871
293.95        32.66614
294.40        33.69843
294.86        34.90218
295.31        36.20257
295.77        37.55357
296.22         38.9402
296.68        40.36574
297.13        41.82293
297.58        43.32967
298.04        44.90568
298.49        46.50012
298.95        48.07591
299.40        49.59839
299.85        51.07544
300.31        52.62485
300.76        54.40953
301.21        56.47168
301.67          58.773
302.12         61.0885
302.58         63.0844
303.03        64.64149
303.48        65.89291
303.94        67.12995
304.39        68.67805
304.84        70.67407
305.30        72.99554
305.75         75.4334
306.20        77.69487
306.66        79.68161
307.11        81.41595
307.57        83.00647
308.02        84.49737
308.47        85.96168
308.93        87.38391
309.38        88.70357
309.83        89.93204
310.29        91.09329
310.74         92.1898
311.19        93.27255
311.65         94.3878
312.10        95.51457
312.55        96.62634
313.00        97.72021
313.46        98.79581
313.91        99.82516
314.36        100.8077
314.82        101.6318
315.27        102.1386
315.72        102.3014
316.18        102.2155
316.63        102.0327
317.08        102.0562
317.53         102.364
317.99        102.8834
318.44        103.4977
318.89         103.977
319.35        104.2531
319.80        104.4112
320.25        104.5278
320.70        104.7311
321.16        105.0428
321.61        105.4202
322.06        105.8304
322.51        106.2475
322.97        106.6224
323.42        107.0049
323.87        107.3167
324.32        107.4542
324.78         107.398
325.23        107.2178
325.68        107.0043
326.13        106.9299
326.59        107.0286
327.04        107.3165
327.49        107.7208
327.94        108.1363
328.39        108.5168
328.85        108.8357
329.30        109.1985
329.75        109.6207
330.20        110.1043
330.66        110.5961
331.11        111.0642
331.56        111.3317
332.01        111.3829
332.46        111.2701
332.92        111.1436
333.37        111.3664
333.82        111.9945
334.27        112.9712
334.72        114.0921
335.17        114.9836
335.63        115.4926
336.08        115.7473
336.53        115.9173
336.98        116.3555
337.43        117.1496
337.88        118.1936
338.34        119.2114
338.79        119.8429
339.24        119.9554
339.69        119.6765
340.14        119.3193
340.59        119.3713
341.05        119.9388
341.50        120.8965
341.95        121.9286
342.40        122.5241
342.85        122.5707
343.30         122.256
343.75        121.8944
344.20        121.9667
344.66        122.5794
345.11        123.5527
345.56        124.6629
346.01        125.5333
346.46        126.0369
346.91        126.3115
347.36        126.4328
347.81        126.5118
348.26        126.6122
348.72        126.6932
349.17        126.8097
349.62         127.135
350.07        127.6525
350.52         128.274
350.97        128.8166
351.42        128.9655
351.87        128.6631
352.32        128.0672
352.77        127.2453
353.22        126.3099
353.67        125.3522
354.13        124.3667
354.58        123.5578
355.03        123.3539
355.48        123.7843
355.93         124.757
356.38        125.7451
356.83        125.8558
357.28        124.9115
357.73        123.1857
358.18        121.3518
358.63        120.4202
359.08        120.5728
359.53        121.4754
359.98        122.5252
360.43        122.7176
360.88        121.7891
361.33        120.1009
361.78        118.1566
362.23        116.6644
362.68        115.8094
363.13          115.37
363.58        115.0782
364.03         114.534
364.48        113.6201
364.93        112.4666
365.38        111.2969
365.83        110.4159
366.28         109.877
366.73        109.5811
367.18        109.2343
367.63        108.3908
368.08         107.004
368.53        105.2624
368.98        103.5836
369.43        102.5627
369.88        102.2997
370.33        102.5983
370.78        103.0792
371.23        103.0799
371.68        102.4057
372.13        101.2764
372.58         99.9861
373.03        98.97146
373.48        98.34159
373.93        97.92792
374.38        97.61578
374.83         97.2401
375.28        96.73753
375.72        96.17704
376.17        95.57048
376.62         94.8522
377.07        94.03671
377.52        93.13546
377.97        92.26627
378.42         91.6263
378.87        91.24944
379.32        91.07571
379.77        90.96789
380.22        90.70719
380.67        90.23747
381.11        89.62441
381.56        88.95847
382.01        88.41474
382.46        88.04872
382.91        87.80736
383.36        87.61324
383.81        87.34989
384.26        86.98106
384.71        86.53996
385.15        86.07339
385.60        85.70146
386.05        85.43056
386.50        85.22667
386.95        85.00925
387.40        84.67061
387.85        84.19524
388.29         83.5704
388.74        83.00066
389.19        82.58391
389.64        82.34911
390.09        82.24627
390.54        82.15204
390.98         81.9457
391.43         81.6669
391.88        81.08988
392.33        80.39077
392.78        80.42174
393.23        80.90942
393.67        80.38699
394.12        79.14204
394.57        78.72568
395.02        79.07585
395.47        78.90627
395.91        78.26992
396.36        78.05139
396.81        78.27112
397.26        78.53397
397.71        78.67117
398.15        78.56036
398.60         78.2589
399.05        77.68166
399.50        77.05646
399.95        76.90315
400.39        77.18591
400.84        77.27425
401.29        77.06762
401.74        76.86281
402.18        76.63388
402.63        76.10137
403.08         75.4228
403.53        74.99028
403.97        74.83304
404.42        74.81042
404.87        74.85432
405.32        74.81185
405.76        74.62624
406.21        74.60009
406.66        74.63587
407.11        74.10262
407.55        73.27465
408.00        73.18843
408.45        73.80508
408.90        74.30577
409.34        74.39138
409.79        73.87907
410.24        72.98831
410.68        72.51109
411.13        72.53345
411.58        72.53487
412.03        72.47447
412.47        72.56375
412.92        72.74939
413.37        72.96744
413.81        73.13982
414.26        73.21763
414.71        73.16628
415.15        73.02116
415.60        72.79825
416.05        72.59294
416.49        72.44283
416.94        72.32069
417.39        72.23312
417.83        72.16657
418.28        72.12324
418.73        72.13275
419.17        72.15511
419.62        72.12328
420.07        72.01734
420.51        71.82714
420.96        71.69504
421.41        71.69449
421.85        71.80258
422.30        72.23796
422.74        72.76588
423.19        72.62923
423.64        71.99255
424.08        72.06021
424.53        72.75716
424.98        72.97536
425.42        72.63764
425.87         72.5094
426.31        72.62723
426.76        72.33964
427.21        71.86423
427.65        72.21188
428.10        73.07905
428.54        73.34196
428.99        72.99575
429.44        72.12799
429.88        71.17485
430.33        71.80163
430.77        73.41479
431.22        73.40418
431.66        71.95477
432.11        71.38316
432.56        71.79637
433.00        72.34635
433.45        72.85091
433.89        72.51015
434.34        71.35266
434.78        73.29979
435.23        72.49106
435.67        72.79167
436.12        72.56257
436.57        72.94407
437.01        73.79089
437.46        74.11685
437.90        73.85847
438.35        73.65289
438.79        73.53955
439.24        73.20795
439.68        72.78288
440.13        72.84975
440.57        73.41245
441.02        73.75023
441.46         73.7293
441.91        74.20764
442.35        74.99145
442.80        74.10724
443.24        74.04575
443.69         73.7981
444.13        74.07159
444.58        74.16911
445.02        74.08341
445.47        74.22216
445.91        74.56506
446.36        74.89462
446.80        75.15431
447.24        75.63614
447.69        75.84421
448.13        76.00158
448.58        75.98315
449.02        75.79677
449.47        75.54922
449.91        75.40118
450.36        75.40418
450.80          75.444
451.25         75.4922
451.69        75.49497
452.13        75.43991
452.58        75.33777
453.02        75.18939
453.47        75.07545
453.91        75.00071
454.36        74.87821
454.80        74.71569
455.24        74.69106
455.69        74.69241
456.13        74.34945
456.58        73.90838
457.02        73.29911
457.46        73.72498
457.91        74.17752
458.35        74.71769
458.79        74.75198
459.24        74.22651
459.68        73.55719
460.13        73.10215
460.57        71.99008
461.01        72.37079
461.46        72.54772
461.90        72.84384
462.34        73.04897
462.79        72.01373
463.23        72.10798
463.68        72.80648
464.12        72.94323
464.56        72.46317
465.01        72.07281
465.45         71.8847
465.89        71.97966
466.34        72.13268
466.78        72.51932
467.22        71.63957
467.67        71.11653
468.11        71.34819
468.55        71.38121
468.99        71.38931
469.44        71.39918
469.88        71.42116
470.32        71.48957
470.77        71.52597
471.21        71.56337
471.65        71.55605
472.10        71.52998
472.54        71.45422
472.98        71.29358
473.42        71.04845
473.87           70.82
474.31        70.61137
474.75        70.31973
475.20        70.04543
475.64        70.18546
476.08        70.63389
476.52        70.75269
476.97        70.44982
477.41        70.66241
477.85        69.93021
478.29        70.33086
478.74        70.93613
479.18        70.97045
479.62        70.00045
480.06         69.7739
480.50        70.25829
480.95        69.50901
481.39        69.93633
481.83         69.6377
482.27        69.80804
482.72        70.16125
483.16        69.85799
483.60        69.98022
484.04        70.15101
484.48        70.07073
484.93        70.06315
485.37        70.37191
485.81        70.07671
486.25        71.22211
486.69        71.12002
487.14        68.80459
487.58        67.98589
488.02        69.63976
488.46        69.25723
488.90        68.85493
489.34        69.73296
489.79        69.45819
490.23        69.59279
490.67        69.21348
491.11        68.78986
491.55         68.9221
491.99        69.48003
492.43         69.6649
492.88        69.40099
493.32        69.19247
493.76        69.13036
494.20        69.12418
494.64        69.18081
495.08        69.36625
495.52        69.58905
495.96        69.51211
496.41        69.18349
496.85        69.12772
497.29        69.21215
497.73        69.01505
498.17        68.58252
498.61        68.17464
499.05        67.96442
499.49        68.28329
499.93        68.95339
500.37        69.16957
500.82        68.92931
501.26        68.84867
501.70        69.14708
502.14        69.17957
502.58        68.99911
503.02        68.84647
503.46        68.74725
503.90        68.59276
504.34        68.50651
504.78        68.54171
505.22        68.70656
505.66        69.02895
506.10         69.3957
506.54        69.43603
506.98        69.07317
507.42        69.07326
507.86        68.40323
508.30        68.23067
508.74         68.2642
509.18        68.45891
509.62        68.72976
510.06        68.95872
510.50        69.10413
510.94        69.19102
511.38        69.21407
511.82        69.16268
512.26        69.04331
512.70        68.84761
513.14        68.62747
513.58        68.47384
514.02        68.40844
514.46        68.42052
514.90        68.45201
515.34        68.39856
515.78        68.24506
516.22        68.03438
516.66        67.83986
517.10        67.77254
517.54        67.85094
517.98        68.02795
518.42        68.24677
518.86         68.3976
519.30        68.44322
519.74        68.46814
520.18        68.47089
520.62        68.32737
521.06        68.10765
521.50        68.08219
521.93        68.23238
522.37        68.26871
522.81        68.17999
523.25        68.14657
523.69        68.14404
524.13        68.05173
524.57        67.87321
525.01        67.64814
525.45        67.45636
525.89        67.42298
526.32        67.56679
526.76        67.83979
527.20        68.14739
527.64        68.34087
528.08        68.37679
528.52        68.29993
528.96        68.16467
529.40        68.05933
529.83        68.00659
530.27        67.99502
530.71        68.00928
531.15        68.04386
531.59        68.09201
532.03        68.15683
532.46        68.21677
532.90         68.2554
533.34         68.2663
533.78        68.19927
534.22        68.07297
534.66        68.03706
535.09        68.03725
535.53        67.82743
535.97         67.4638
536.41        67.27645
536.85        67.29273
537.28        67.34356
537.72        67.40115
538.16        67.48072
538.60        67.55939
539.04        67.63065
539.47        67.67783
539.91        67.70248
540.35        67.69371
540.79        67.70311
541.22        67.72193
541.66        67.62012
542.10        67.57323
542.54        67.46712
542.97        67.37623
543.41        67.36153
543.85         67.4195
544.29        67.53237
544.72         67.6489
545.16        67.72676
545.60        67.73795
546.04         67.6908
546.47        67.60938
546.91        67.55926
547.35        67.56322
547.79         67.5539
548.22        67.48012
548.66        67.48354
549.10        67.53696
549.53          67.161
549.97        67.00882
550.41        66.98197
550.84        67.24852
551.28        67.43787
551.72        67.53693
552.15        67.82748
552.59        68.17293
553.03        68.26404
553.46        67.69046
553.90        67.54357
554.34        67.72776
554.77        67.72698
555.21        67.47617
555.65        67.88508
556.08        67.61887
556.52        67.47961
556.96        67.15561
557.39        67.01058
557.83        67.08578
558.27        67.14379
558.70        67.14108
559.14        67.37853
559.57        67.26447
560.01        67.40565
560.45        67.52993
560.88        67.53551
561.32         67.4668
561.75        67.04003
562.19        66.52108
562.63        66.87628
563.06        67.84498
563.50        67.82001
563.93        66.92281
564.37        66.64924
564.80        67.10342
565.24        67.38466
565.68        67.41554
566.11        67.43638
566.55        67.46072
566.98        67.32624
567.42         67.1612
567.85        67.26474
568.29        67.58081
568.72        67.69336
569.16        67.68874
569.60        67.63965
570.03        67.43982
570.47         67.8157
570.90        67.85801
571.34        66.98434
571.77        67.44931
572.21         67.4323
572.64        67.73038
573.08         67.2806
573.51        67.46111
573.95        68.11157
574.38        67.64354
574.82        67.76614
