SpectraSmart Spectrum 2.9.0.0
--------- Device Information -----------
Spectrum Name :  反射率_0
Saving Time :  2024/05/01 16:39:54
Spectro-Module Model Name : SE2030-DUVN
Spectro-Module Serial Number : OS361AC55029948
Wavelength Start : 200
Wavelength End : 1025
Wavelength Unit : Wavelength(nm)
Spectrum Unit : Reflectance(%)
-----------Spectrum Setting ------------
Integration Time : 20ms
Average : 10
Boxcar : 0
Background removal :  enabled
linearity correction :  enabled
SC :  disabled
Intensity correction :  disabled
DWT denoise :  enabled
savitzky-golay :  disabled
FFT :  disabled
Running average :  disabled
Kalman :  disabled
High pass :  disabled
---------------BEGIN--------------------
Wavelength(nm)             Reflectance(%)
200.29               0
200.75        158.5869
201.21        626.2623
201.67       -238.4395
202.13       -75.01236
202.58       -22.04255
203.04        9.556089
203.50        29.19368
203.96        38.30873
204.42        39.53117
204.88        28.51441
205.34       -300.9927
205.80        87.60218
206.26        53.02004
206.72        10.63402
207.18       -170.9688
207.64        317.1148
208.10        132.5625
208.55        81.31557
209.01        54.24594
209.47        42.63101
209.93        40.41066
210.39         41.8122
210.85        44.32099
211.31        44.10705
211.77        32.72038
212.23        124.5709
212.69        75.00813
213.14        88.15164
213.60        155.6212
214.06       -611.1563
214.52       -79.61127
214.98       -41.17875
215.44       -25.71698
215.90       -5.954604
216.36        199.5409
216.81       -90.76944
217.27       -51.92229
217.73       -147.1559
218.19       -91.24902
218.65       -93.40433
219.11       -109.9968
219.57       -159.7088
220.02       -303.6193
220.48       -95.16702
220.94       -20.05551
221.40       -6.246517
221.86       -1.397933
222.32        3.231283
222.77        9.908119
223.23        19.56531
223.69         32.0986
224.15        39.46611
224.61        37.31226
225.06        31.16817
225.52        26.47287
225.98        25.28156
226.44        27.16124
226.90        31.52475
227.36        37.34465
227.81        39.90994
228.27        37.45272
228.73         33.1855
229.19        29.70748
229.65        28.21506
230.10        28.49178
230.56        30.38408
231.02         33.4465
231.48        36.09766
231.93        37.23716
232.39        37.34818
232.85        37.59545
233.31         39.2803
233.77        42.19185
234.22         45.6484
234.68         48.6884
235.14        50.30945
235.60        50.41691
236.05        49.24787
236.51        47.16732
236.97        46.26438
237.43        48.11644
237.88        52.32016
238.34        56.82332
238.80        59.63879
239.26        60.30892
239.71        59.11711
240.17        55.11778
240.63        48.73568
241.08        42.82043
241.54        39.29792
242.00        38.54526
242.46        39.75927
242.91        43.21197
243.37        49.71537
243.83        62.66752
244.28        79.48511
244.74        86.63658
245.20         85.3328
245.66        80.85275
246.11        75.18123
246.57        67.60813
247.03        55.18401
247.48        34.03164
247.94        7.172215
248.40       -13.34762
248.85       -23.30398
249.31       -18.23555
249.77       -1.901418
250.22        17.00167
250.68         34.4315
251.14        47.25394
251.59        54.58781
252.05        58.42266
252.51         60.0326
252.96        61.61583
253.42        77.98086
253.88        108.3572
254.33        117.0115
254.79        112.3672
255.25        104.6516
255.70        96.26437
256.16        89.26785
256.62        83.76614
257.07        80.10388
257.53        78.55913
257.99         77.9894
258.44        77.64888
258.90        77.59404
259.35        77.28156
259.81         77.0267
260.27        76.75462
260.72        76.46782
261.18        76.39689
261.63         76.0916
262.09        75.56531
262.55        74.30965
263.00        72.32132
263.46         70.0983
263.91        67.81999
264.37        66.14072
264.83        65.01013
265.28        64.18729
265.74        63.54891
266.19        62.60093
266.65        61.39991
267.11        60.01433
267.56        58.63584
268.02        57.66966
268.47        57.13031
268.93        56.83728
269.38        56.57608
269.84        55.96801
270.30        54.94325
270.75        53.63576
271.21        52.20148
271.66        50.72413
272.12        49.34237
272.57        47.97702
273.03        46.78856
273.48        45.95104
273.94        45.49826
274.39        45.30409
274.85         45.1946
275.31        44.82105
275.76        44.10747
276.22        43.23595
276.67        42.26608
277.13        41.43191
277.58        40.70083
278.04        40.03121
278.49        39.38484
278.95        38.85634
279.40        38.37717
279.86        37.99624
280.31         37.5219
280.77        36.79942
281.22        35.78227
281.68        34.63387
282.13        33.49985
282.59        32.69044
283.04        32.21827
283.50        32.03854
283.95        32.00651
284.41        31.96279
284.86        31.83671
285.32        31.69754
285.77        31.60197
286.22         31.6818
286.68        31.94956
287.13        32.32157
287.59          32.686
288.04        32.82621
288.50        32.72714
288.95        32.41536
289.41        32.07952
289.86        31.89127
290.32        31.92941
290.77        32.14283
291.22        32.41681
291.68        32.55751
292.13        32.54624
292.59        32.50302
293.04        32.60408
293.50        33.17142
293.95        34.23636
294.40        35.68381
294.86        37.30922
295.31        38.79771
295.77        40.04383
296.22        41.11951
296.68         42.1127
297.13        43.14172
297.58        44.28701
298.04         45.5448
298.49        46.90667
298.95        48.40408
299.40        49.99657
299.85        51.66023
300.31        53.43523
300.76         55.3591
301.21        57.43894
301.67        59.66888
302.12        61.82966
302.58        63.61127
303.03        64.92003
303.48         65.8839
303.94        66.85896
304.39        68.26246
304.84        70.23367
305.30        72.62359
305.75        75.12747
306.20        77.29801
306.66        79.01194
307.11        80.34693
307.57        81.51245
308.02        82.70545
308.47        84.02947
308.93         85.4163
309.38        86.73418
309.83        87.88342
310.29        88.85931
310.74        89.70612
311.19        90.51896
311.65        91.40768
312.10        92.37511
312.55        93.37784
313.00         94.3915
313.46        95.38513
313.91        96.32088
314.36        97.20319
314.82        97.94926
315.27        98.44383
315.72         98.6615
316.18        98.67633
316.63        98.57785
317.08        98.57551
317.53        98.73286
317.99        99.00754
318.44        99.35857
318.89        99.68561
319.35        99.95512
319.80        100.2149
320.25        100.4725
320.70        100.7431
321.16        101.0182
321.61        101.2913
322.06        101.5753
322.51        101.9196
322.97        102.2967
323.42        102.7213
323.87         103.092
324.32        103.2681
324.78        103.2169
325.23        103.0278
325.68        102.7823
326.13        102.6349
326.59        102.6221
327.04        102.7544
327.49        103.0102
327.94        103.3726
328.39        103.8121
328.85        104.2865
329.30        104.8068
329.75        105.2311
330.20        105.5243
330.66        105.6787
331.11        105.7802
331.56        105.8563
332.01        105.9488
332.46        106.0579
332.92        106.2207
333.37        106.6043
333.82        107.2062
334.27        108.0166
334.72        108.9282
335.17        109.7389
335.63        110.3417
336.08        110.7996
336.53        111.1756
336.98        111.6548
337.43        112.2845
337.88        113.0201
338.34        113.6816
338.79         114.063
339.24         114.086
339.69        113.8335
340.14        113.5655
340.59        113.6833
341.05        114.2629
341.50        115.2069
341.95        116.2159
342.40        116.8005
342.85        116.8562
343.30        116.5555
343.75        116.2065
344.20        116.2869
344.66        116.9044
345.11        117.8864
345.56         119.014
346.01        119.9151
346.46        120.4628
346.91        120.7877
347.36        120.9662
347.81        121.1135
348.26        121.2876
348.72        121.4415
349.17        121.6099
349.62        121.9342
350.07        122.3944
350.52        122.9179
350.97        123.3449
351.42        123.4004
351.87        123.0409
352.32        122.4137
352.77        121.5899
353.22        120.6828
353.67        119.7804
354.13        118.8818
354.58        118.1622
355.03        118.0007
355.48        118.4177
355.93         119.324
356.38        120.2531
356.83        120.4125
357.28        119.6421
357.73        118.1899
358.18        116.6246
358.63        115.8031
359.08         115.885
359.53        116.5779
359.98         117.417
360.43        117.6301
360.88        116.9958
361.33        115.7879
361.78        114.3307
362.23        113.0706
362.68        112.1401
363.13        111.4017
363.58        110.7342
364.03         109.978
364.48        109.0851
364.93        108.1141
365.38        107.1799
365.83        106.4194
366.28        105.8463
366.73        105.4253
367.18        104.9435
367.63        104.0806
368.08        102.8172
368.53        101.2811
368.98        99.82627
369.43        98.96355
369.88        98.76509
370.33        99.06096
370.78        99.48254
371.23        99.38585
371.68        98.59571
372.13        97.33472
372.58        95.91959
373.03        94.81826
373.48         94.1509
373.93         93.7514
374.38        93.50081
374.83         93.2185
375.28        92.82912
375.72        92.39487
376.17        91.91686
376.62        91.32137
377.07        90.61335
377.52        89.79539
377.97        88.97137
378.42        88.32298
378.87        87.88445
379.32        87.60667
379.77        87.37528
380.22        87.00105
380.67        86.44585
381.11        85.78671
381.56        85.10838
382.01        84.57183
382.46        84.22883
382.91        84.01713
383.36        83.89512
383.81        83.80344
384.26        83.69605
384.71         83.5733
385.15        83.37433
385.60        83.05312
386.05        82.59534
386.50        82.03645
386.95        81.42464
387.40        80.84622
387.85        80.33863
388.29        79.83634
388.74        79.45846
389.19        79.18027
389.64        78.98158
390.09        78.84668
390.54         78.6918
390.98        78.36718
391.43        77.90879
391.88        77.35124
392.33        76.79511
392.78        76.39974
393.23        76.19387
393.67        76.04703
394.12        75.94779
394.57        75.88313
395.02        75.74641
395.47        75.22437
395.91        74.51304
396.36        74.20691
396.81        74.37663
397.26        74.77405
397.71        75.10585
398.15        75.03065
398.60        74.58349
399.05        73.68159
399.50        72.73426
399.95        72.60474
400.39         73.3853
400.84        73.72913
401.29        73.50407
401.74        73.31776
402.18        73.13071
402.63        72.45629
403.08        71.52273
403.53        70.93259
403.97        70.76148
404.42        70.83773
404.87        71.00529
405.32        71.02411
405.76        70.82526
406.21        70.55379
406.66        70.26076
407.11        70.00533
407.55         69.8833
408.00        69.81259
408.45        69.79346
408.90        70.06933
409.34        70.40601
409.79        70.01289
410.24        69.09274
410.68        68.66085
411.13        68.79427
411.58        68.93094
412.03        68.96883
412.47         69.0001
412.92        68.96259
413.37        68.85413
413.81        68.71204
414.26        68.64423
414.71        68.64958
415.15        68.71414
415.60        68.77336
416.05        68.77647
416.49        68.70619
416.94        68.57195
417.39        68.40951
417.83        68.25758
418.28        68.14056
418.73        68.06749
419.17        68.00368
419.62        67.90469
420.07        67.76105
420.51        67.54603
420.96        67.39766
421.41        67.45285
421.85        67.66064
422.30        68.05979
422.74        68.46496
423.19        68.40938
423.64        68.01467
424.08         68.1345
424.53        68.71065
424.98         68.9178
425.42        68.65926
425.87        68.58571
426.31        68.70614
426.76        68.15548
427.21        67.27644
427.65        67.77351
428.10        69.22586
428.54        69.50195
428.99        68.68667
429.44        67.83723
429.88        67.31017
430.33        68.07195
430.77        69.51424
431.22        69.30142
431.66        67.69375
432.11        67.05846
432.56        67.52713
433.00        68.11185
433.45        68.67388
433.89        68.16653
434.34        67.94816
434.78        69.24587
435.23        69.05523
435.67        68.95329
436.12        68.25138
436.57        68.53822
437.01        69.59467
437.46        70.44185
437.90        69.77942
438.35         69.6277
438.79        69.66253
439.24        69.38961
439.68        68.92539
440.13        68.89193
440.57        69.29107
441.02        69.59177
441.46        69.71361
441.91        70.07257
442.35        70.45226
442.80        70.42164
443.24        70.12967
443.69        69.85727
444.13        69.73087
444.58        69.65015
445.02        69.61263
445.47        69.78059
445.91        70.10699
446.36        70.34598
446.80        70.42728
447.24        70.84451
447.69        70.81675
448.13        70.90951
448.58        70.91119
449.02        70.81794
449.47        70.70027
449.91        70.64832
450.36        70.70422
450.80        70.81457
451.25        70.92122
451.69         70.8847
452.13        70.68683
452.58        70.38135
453.02        70.04603
453.47        69.79643
453.91        69.64657
454.36        69.66145
454.80        69.79601
455.24         69.5056
455.69        69.45298
456.13        69.17683
456.58        69.05585
457.02        68.60482
457.46         68.9053
457.91         69.2042
458.35        69.60786
458.79        69.62605
459.24        69.24488
459.68        68.75318
460.13        68.40131
460.57        67.47043
461.01        68.00205
461.46        67.54855
461.90        67.94756
462.34        68.00677
462.79         67.3028
463.23        67.28121
463.68        67.59624
464.12        67.66072
464.56        67.43449
465.01        67.17523
465.45        67.17957
465.89        67.24631
466.34        67.31705
466.78        67.51387
467.22        66.74155
467.67        66.55741
468.11        66.43365
468.55        66.44401
468.99        66.46484
469.44        66.47234
469.88        66.46984
470.32        66.50288
470.77        66.55621
471.21        66.56802
471.65        66.51084
472.10        66.41261
472.54        66.28439
472.98        66.13187
473.42        65.95589
473.87        65.90295
474.31         65.9026
474.75        65.58293
475.20        65.09059
475.64        65.19426
476.08        65.76255
476.52        65.83987
476.97        65.32875
477.41        65.46743
477.85        64.56993
478.29        65.11848
478.74        64.90552
479.18        65.38039
479.62        65.08015
480.06        65.15791
480.50        65.36691
480.95        64.51019
481.39        64.94115
481.83        64.18431
482.27        64.59344
482.72        64.61253
483.16        64.64732
483.60        64.62737
484.04        65.07471
484.48        65.19968
484.93        65.42916
485.37        65.80571
485.81         65.7668
486.25        66.56544
486.69        67.07631
487.14        64.83492
487.58        63.11795
488.02        65.38618
488.46        64.25275
488.90        63.89317
489.34        64.38986
489.79        63.93335
490.23        63.95672
490.67        63.81928
491.11         63.8476
491.55        64.03035
491.99        64.26809
492.43         64.3522
492.88        64.23394
493.32        64.04287
493.76        63.87113
494.20        63.79322
494.64        63.81784
495.08        64.02467
495.52         64.3052
495.96        64.14007
496.41        63.63791
496.85        63.68627
497.29        64.13058
497.73        64.00121
498.17        63.39684
498.61         63.0214
499.05        63.02654
499.49        63.51038
499.93        64.22343
500.37        64.21104
500.82        63.57381
501.26        63.43681
501.70        63.85544
502.14        64.11691
502.58         64.1041
503.02        64.05125
503.46        63.96367
503.90        63.48352
504.34        63.28039
504.78        63.14397
505.22        63.27795
505.66        63.60783
506.10        63.98868
506.54        64.16676
506.98         64.0573
507.42        63.76218
507.86        63.35396
508.30         63.1075
508.74        63.04013
509.18        63.22432
509.62        63.61968
510.06        63.30967
510.50        63.62651
510.94        63.50834
511.38        63.40323
511.82        63.33412
512.26        63.32268
512.70        63.31936
513.14        63.29518
513.58        63.24953
514.02        63.17348
514.46        63.08464
514.90        62.96758
515.34        62.79143
515.78        62.56834
516.22        62.32138
516.66        62.11737
517.10        62.05701
517.54        62.15529
517.98        62.37439
518.42         62.6489
518.86        62.86339
519.30        62.97742
519.74        63.03005
520.18        63.03304
520.62        62.98521
521.06        62.91278
521.50        62.85892
521.93        62.84004
522.37        62.82152
522.81        62.80926
523.25        62.84455
523.69         62.8785
524.13        62.81033
524.57        62.63478
525.01        62.38804
525.45        62.15949
525.89        62.08921
526.32        62.20194
526.76        62.44665
527.20        62.72823
527.64        62.90102
528.08        62.92345
528.52        62.82789
528.96        62.67019
529.40        62.57697
529.83        62.55267
530.27        62.49804
530.71        62.42321
531.15        62.43628
531.59        62.53735
532.03        62.66973
532.46        62.78479
532.90        62.84347
533.34        62.83038
533.78         62.7092
534.22        62.52126
534.66        62.43956
535.09        62.42514
535.53        62.24504
535.97        61.93838
536.41        61.78745
536.85        61.80975
537.28        61.85555
537.72        61.91104
538.16        61.99711
538.60        62.09201
539.04        62.21454
539.47        62.32121
539.91        62.31373
540.35        62.21941
540.79        62.23438
541.22        62.32185
541.66        62.35212
542.10        62.17966
542.54        62.04229
542.97        61.94057
543.41        61.92375
543.85        61.99257
544.29        62.14067
544.72        62.30019
545.16        62.39097
545.60        62.38071
546.04        62.28617
546.47         62.1645
546.91        62.12482
547.35        62.19435
547.79         62.3172
548.22         62.3954
548.66        62.42107
549.10        62.38338
549.53         62.0072
549.97        61.90488
550.41         61.8558
550.84        62.03418
551.28        62.21381
551.72        62.35267
552.15        62.61184
552.59        62.88712
553.03        62.76825
553.46        62.32806
553.90        62.15242
554.34        62.28183
554.77        62.28746
555.21         62.1048
555.65        62.46924
556.08        62.16745
556.52        62.11456
556.96        61.99416
557.39        61.83787
557.83        61.68126
558.27        61.69422
558.70        61.91892
559.14        61.64415
559.57        61.92093
560.01        62.02124
560.45        62.15598
560.88        62.11282
561.32        61.95952
561.75        61.63861
562.19        61.35959
562.63        61.64572
563.06        62.26265
563.50        62.55873
563.93        61.81625
564.37        61.53038
564.80        61.92447
565.24        62.03698
565.68        61.96243
566.11         61.9352
566.55        61.99106
566.98        62.01398
567.42        62.04701
567.85        62.13731
568.29        62.30785
568.72        62.40127
569.16         62.7115
569.60        62.76301
570.03        62.54807
570.47        62.72432
570.90        62.87709
571.34        62.15109
571.77        62.56173
572.21        62.69381
572.64        63.17802
573.08        62.69365
573.51        62.53227
573.95        63.32721
574.38        62.87085
574.82        63.09026
