SpectraSmart Spectrum 2.9.0.0
--------- Device Information -----------
Spectrum Name :  反射率_0
Saving Time :  2024/05/01 16:12:29
Spectro-Module Model Name : SE2030-DUVN
Spectro-Module Serial Number : OS361AC55029948
Wavelength Start : 200
Wavelength End : 1025
Wavelength Unit : Wavelength(nm)
Spectrum Unit : Reflectance(%)
-----------Spectrum Setting ------------
Integration Time : 20ms
Average : 10
Boxcar : 0
Background removal :  enabled
linearity correction :  enabled
SC :  disabled
Intensity correction :  disabled
DWT denoise :  enabled
savitzky-golay :  disabled
FFT :  disabled
Running average :  disabled
Kalman :  disabled
High pass :  disabled
---------------BEGIN--------------------
Wavelength(nm)             Reflectance(%)
200.29               0
200.75        36.80138
201.21        117.3188
201.67       -11.43525
202.13         20.2953
202.58        34.30819
203.04        44.77956
203.50        52.38411
203.96        57.23089
204.42        61.45796
204.88        70.47718
205.34        321.7305
205.80       -2.952921
206.26       -13.96632
206.72       -69.37529
207.18        -389.238
207.64        565.4966
208.10        243.9329
208.55        171.5747
209.01        137.6334
209.47        117.1794
209.93        103.1714
210.39        90.70878
210.85        84.17837
211.31        96.32005
211.77        176.4774
212.23       -538.2541
212.69       -112.1705
213.14       -86.60851
213.60       -118.9808
214.06        393.5328
214.52        49.17846
214.98        33.70411
215.44        43.85739
215.90        93.85493
216.36         925.877
216.81       -379.9782
217.27       -518.5909
217.73          1156.6
218.19        251.1867
218.65        176.6856
219.11        179.2338
219.57        252.4901
220.02        549.7702
220.48        264.0237
220.94        104.9137
221.40        69.57221
221.86        59.83622
222.32        59.21164
222.77        63.74989
223.23        73.57494
223.69        86.99114
224.15        92.41588
224.61        86.09883
225.06        75.90058
225.52        69.51714
225.98        69.61121
226.44        75.60622
226.90         87.1549
227.36        102.4538
227.81        110.7563
228.27        107.1577
228.73        98.46822
229.19        90.81874
229.65        87.47192
230.10        87.82908
230.56         90.5906
231.02         94.7459
231.48        97.38056
231.93         96.9043
232.39         95.3804
232.85        93.48742
233.31        91.70711
233.77        90.35663
234.22        89.19079
234.68        88.96509
235.14        90.74924
235.60        95.02052
236.05        102.7646
236.51        114.0872
236.97         125.906
237.43        133.6538
237.88        135.5277
238.34        133.0787
238.80        132.4207
239.26        135.9988
239.71        144.7074
240.17          157.16
240.63        164.4631
241.08        157.8845
241.54        141.8115
242.00        128.3398
242.46        126.5398
242.91          138.59
243.37        167.2453
243.83        214.6337
244.28        241.3949
244.74         216.213
245.20        176.0764
245.66        145.7658
246.11         128.928
246.57        119.9887
247.03        113.2483
247.48        105.2296
247.94        90.99003
248.40        72.44176
248.85        56.67409
249.31        51.56636
249.77        58.17861
250.22        70.43272
250.68        83.60786
251.14        94.85417
251.59        104.4853
252.05        115.6794
252.51        134.9067
252.96        180.8291
253.42        272.2578
253.88         318.013
254.33        271.0034
254.79        224.4618
255.25        195.7665
255.70        176.1425
256.16        163.0757
256.62        153.4001
257.07        145.7938
257.53        141.3585
257.99        138.7976
258.44        137.7947
258.90        139.4648
259.35        142.4262
259.81        146.4593
260.27        150.0961
260.72        151.5111
261.18        151.0595
261.63        148.8094
262.09        146.0617
262.55        143.1381
263.00        140.0022
263.46        137.0674
263.91        133.9149
264.37        130.9384
264.83        128.0428
265.28        125.2439
265.74        122.8952
266.19        120.8173
266.65        119.1894
267.11        117.8069
267.56        116.6679
268.02        115.9627
268.47         115.558
268.93        115.3494
269.38        114.9806
269.84        113.8882
270.30        111.9937
270.75        109.4503
271.21        106.7134
271.66        104.2751
272.12        102.3503
272.57        100.6712
273.03        99.14388
273.48        97.45448
273.94        95.64449
274.39        93.79321
274.85        91.99844
275.31        90.15141
275.76        88.24478
276.22        86.42469
276.67        84.75388
277.13        83.63158
277.58        82.90124
278.04        82.49593
278.49         82.0461
278.95        81.25385
279.40        79.95806
279.86         78.4241
280.31        76.70554
280.77        75.13966
281.22        73.67985
281.68        72.37726
282.13        71.13413
282.59        70.03824
283.04        69.00852
283.50        68.16989
283.95        67.41647
284.41        66.71624
284.86        66.03576
285.32        65.43835
285.77        65.01685
286.22        65.03979
286.68        65.49091
287.13        66.20556
287.59        66.90311
288.04        67.06879
288.50        66.64758
288.95        65.74675
289.41        64.72322
289.86        63.90248
290.32        63.46122
290.77        63.27658
291.22        63.26033
291.68        63.23772
292.13        63.16747
292.59        63.18895
293.04         63.4135
293.50        64.07633
293.95        65.17434
294.40        66.60321
294.86        68.20243
295.31        69.73043
295.77        71.09786
296.22        72.32496
296.68        73.45399
297.13         74.5059
297.58        75.55373
298.04        76.63165
298.49         77.7652
298.95        79.06059
299.40        80.49308
299.85        82.02859
300.31        83.70995
300.76        85.54083
301.21        87.52596
301.67        89.65554
302.12        91.70041
302.58        93.36024
303.03         94.5269
303.48        95.34611
303.94         96.1627
304.39        97.31732
304.84        98.97212
305.30         100.999
305.75        103.1684
306.20         105.179
306.66        106.9329
307.11        108.4335
307.57        109.7868
308.02        110.9892
308.47        112.1152
308.93        113.1575
309.38        114.0652
309.83        114.8905
310.29        115.6786
310.74        116.4293
311.19        117.1846
311.65        117.9673
312.10         118.753
312.55        119.5325
313.00        120.3501
313.46        121.2757
313.91        122.2838
314.36        123.3399
314.82        124.2574
315.27        124.7638
315.72        124.7967
316.18        124.4887
316.63        124.0304
317.08         123.806
317.53        123.9167
317.99        124.2669
318.44        124.7284
318.89        125.0452
319.35        125.1496
319.80        125.1534
320.25        125.1479
320.70        125.2813
321.16        125.5728
321.61        125.9624
322.06        126.4126
322.51        126.8975
322.97        127.3495
323.42        127.8193
323.87        128.1716
324.32         128.218
324.78        127.9299
325.23        127.4169
325.68        126.8546
326.13        126.5556
326.59        126.5907
327.04        126.9535
327.49        127.5108
327.94        128.0547
328.39        128.4961
328.85        128.8149
329.30        129.1604
329.75        129.5925
330.20         130.125
330.66        130.6829
331.11        131.1863
331.56        131.3589
332.01        131.1784
332.46         130.739
332.92        130.3034
333.37        130.4366
333.82        131.2342
334.27        132.5788
334.72        134.1448
335.17          135.34
335.63        135.9273
336.08        136.0989
336.53        136.0694
336.98        136.2847
337.43        136.8728
337.88        137.6929
338.34        138.4934
338.79        138.9783
339.24          139.02
339.69        138.7523
340.14        138.4275
340.59        138.4189
341.05         138.814
341.50        139.5262
341.95        140.3195
342.40        140.8165
342.85        140.9321
343.30        140.7967
343.75        140.6563
344.20        140.8897
344.66        141.5616
345.11        142.5164
345.56        143.5378
346.01        144.2619
346.46         144.584
346.91        144.6573
347.36        144.5757
347.81        144.4775
348.26        144.4375
348.72        144.4047
349.17        144.4664
349.62         144.848
350.07        145.5197
350.52        146.3626
350.97        147.0806
351.42        147.1801
351.87        146.5734
352.32        145.4842
352.77        144.1046
353.22        142.7407
353.67        141.5378
354.13        140.4403
354.58        139.5863
355.03        139.3121
355.48         139.612
355.93        140.4217
356.38        141.2246
356.83        141.1448
357.28        140.0146
357.73        138.0992
358.18        136.0672
358.63        134.9224
359.08        134.8468
359.53        135.5155
359.98        136.3459
360.43        136.3712
360.88        135.3357
361.33        133.5802
361.78        131.5908
362.23        130.0449
362.68        129.1141
363.13        128.5893
363.58        128.1747
364.03        127.4317
364.48        126.2442
364.93        124.7473
365.38         123.243
365.83        122.1579
366.28        121.5603
366.73        121.3185
367.18        121.0198
367.63         120.024
368.08        118.2515
368.53         115.962
368.98        113.7146
369.43        112.3101
369.88        111.8935
370.33        112.2106
370.78        112.7779
371.23        112.7501
371.68        111.8824
372.13        110.4585
372.58        108.8675
373.03        107.6845
373.48        107.0442
373.93        106.7174
374.38        106.5164
374.83        106.1634
375.28        105.5605
375.72        104.8178
376.17        103.9835
376.62         103.038
377.07        102.0179
377.52        100.9202
377.97         99.8798
378.42        99.12317
378.87        98.68468
379.32        98.49863
379.77        98.39215
380.22        98.08607
380.67         97.5127
381.11        96.75679
381.56         95.9403
382.01        95.29475
382.46         94.8928
382.91         94.6624
383.36        94.51121
383.81        94.29889
384.26        93.97883
384.71        93.59269
385.15        93.17641
385.60        92.83556
386.05        92.57224
386.50         92.3499
386.95        92.10567
387.40        91.76157
387.85        91.30272
388.29        90.70033
388.74        90.13252
389.19        89.64027
389.64        89.23717
390.09        88.89726
390.54        88.53912
390.98        88.04918
391.43        87.49294
391.88        86.81948
392.33        86.16182
392.78         85.9325
393.23        86.04307
393.67        85.84505
394.12        85.42027
394.57        85.33849
395.02        85.46615
395.47        85.00257
395.91        84.10768
396.36        83.66206
396.81        83.73113
397.26        83.89701
397.71        84.00235
398.15        83.91718
398.60        83.68579
399.05        83.30379
399.50        82.89274
399.95        82.65689
400.39         82.6366
400.84        82.59354
401.29        82.46731
401.74        82.38749
402.18        82.24078
402.63        81.57066
403.08         80.5869
403.53        79.99277
403.97         79.8457
404.42        79.81905
404.87        79.81998
405.32        79.78712
405.76        79.64896
406.21        79.59873
406.66        79.61331
407.11        79.27988
407.55        78.74628
408.00        79.01787
408.45        79.30428
408.90        79.50391
409.34        79.23911
409.79        78.60599
410.24        77.80737
410.68        77.31759
411.13        77.22201
411.58        77.23853
412.03        77.28737
412.47        77.36143
412.92         77.3898
413.37        77.39573
413.81        77.37073
414.26        77.36776
414.71        77.37232
415.15         77.3698
415.60          77.351
416.05         77.3734
416.49        77.44062
416.94        77.53037
417.39        77.58289
417.83        77.48701
418.28        77.23837
418.73        76.88837
419.17        76.52276
419.62        76.29767
420.07        76.24227
420.51        76.24426
420.96        76.31825
421.41         76.4374
421.85        76.48602
422.30         76.5162
422.74        76.49715
423.19        76.14687
423.64        75.82491
424.08        76.20562
424.53         77.1652
424.98         77.6008
425.42        77.36351
425.87        77.27536
426.31        77.38333
426.76        76.79562
427.21        75.87691
427.65        76.32772
428.10        77.71594
428.54        77.96037
428.99        77.11627
429.44        76.08346
429.88        75.28617
430.33        75.95264
430.77         77.4604
431.22        77.30936
431.66        75.71694
432.11        75.07572
432.56        75.50498
433.00        76.06944
433.45        76.59889
433.89        76.26738
434.34        75.36377
434.78        77.33248
435.23        76.87064
435.67        77.05341
436.12        76.53654
436.57        76.85479
437.01        77.77998
437.46        78.71159
437.90         77.9635
438.35        77.68952
438.79        77.65816
439.24        77.27852
439.68        76.73608
440.13        76.70109
440.57        77.20116
441.02         77.5117
441.46        77.50919
441.91        77.99448
442.35        78.75377
442.80        78.01188
443.24        77.98874
443.69        77.66113
444.13        77.72487
444.58        77.73581
445.02        77.69008
445.47        77.87742
445.91        78.22908
446.36        78.48107
446.80        78.56276
447.24        78.88998
447.69        78.84748
448.13        78.92984
448.58        78.97342
449.02        78.95348
449.47        78.90096
449.91        78.83815
450.36          78.798
450.80        78.75051
451.25        78.69335
451.69        78.57018
452.13        78.38974
452.58        78.18048
453.02        77.96243
453.47        77.82426
453.91         77.7632
454.36        77.73065
454.80         77.7345
455.24        77.72476
455.69        77.58411
456.13        77.41106
456.58        77.46565
457.02         76.1927
457.46        76.91361
457.91        77.19556
458.35        77.73188
458.79        77.72772
459.24        77.14934
459.68        76.49776
460.13        76.08907
460.57        74.91894
461.01        75.21255
461.46         75.2494
461.90        75.47101
462.34        75.52829
462.79        74.96281
463.23        75.04547
463.68        75.51287
464.12        75.61372
464.56        75.30545
465.01        75.08308
465.45        74.95728
465.89        74.94635
466.34        74.89943
466.78        75.03721
467.22          74.126
467.67        73.84185
468.11        73.92422
468.55        74.01249
468.99         74.0405
469.44        74.03397
469.88        73.98911
470.32        73.89169
470.77        73.77237
471.21        73.69353
471.65         73.6512
472.10        73.65594
472.54        73.67343
472.98         73.6217
473.42         73.4748
473.87        73.50793
474.31        73.35583
474.75         73.1843
475.20        72.96278
475.64        73.02312
476.08        73.26859
476.52        73.23441
476.97        72.87553
477.41        72.99896
477.85        71.84077
478.29        72.73829
478.74        72.85433
479.18        72.85268
479.62        72.18669
480.06        72.02727
480.50        72.38587
480.95        71.80371
481.39        72.81841
481.83         71.6458
482.27        71.74377
482.72         72.4938
483.16        71.81847
483.60        71.98068
484.04        72.26578
484.48        72.30089
484.93        72.42679
485.37        73.01667
485.81        72.49585
486.25        73.84169
486.69        73.84178
487.14         71.0443
487.58        69.93858
488.02        72.26616
488.46        71.69496
488.90         70.7666
489.34        71.73801
489.79         71.5313
490.23        71.57556
490.67         71.2785
491.11        70.90469
491.55        70.93726
491.99        71.26868
492.43         71.3269
492.88        71.06918
493.32        70.88277
493.76        70.81205
494.20        70.77431
494.64        70.76041
495.08        70.78366
495.52        70.87743
495.96        70.94918
496.41        70.86144
496.85        71.34245
497.29        70.90527
497.73        70.47361
498.17         70.4748
498.61        70.35786
499.05        69.86265
499.49         70.0418
499.93        70.58927
500.37        70.77411
500.82        70.58231
501.26        70.47828
501.70        70.61776
502.14        70.76205
502.58        70.50141
503.02        70.38279
503.46        70.29074
503.90        70.17477
504.34        70.09158
504.78        70.14462
505.22        70.33464
505.66        70.65603
506.10        70.98336
506.54        71.02219
506.98         70.7164
507.42        70.46436
507.86        69.87952
508.30        69.63665
508.74         69.6374
509.18        69.82056
509.62        70.09466
510.06        70.31712
510.50        70.43531
510.94        70.48396
511.38        70.47387
511.82        70.42165
512.26        70.33648
512.70        70.19917
513.14        70.03092
513.58        69.87586
514.02        69.74894
514.46        69.65542
514.90        69.57104
515.34        69.46173
515.78        69.30455
516.22        69.13864
516.66        69.01336
517.10        69.01257
517.54        69.14629
517.98        69.38026
518.42        69.64237
518.86          69.815
519.30        69.86337
519.74        69.81648
520.18        69.72186
520.62        69.66079
521.06        69.65379
521.50         69.6685
521.93        69.68533
522.37        69.66301
522.81        69.59883
523.25        69.52343
523.69        69.43289
524.13        69.31373
524.57        69.17741
525.01        69.02926
525.45        68.92764
525.89        68.96529
526.32        69.14927
526.76        69.44138
527.20        69.74763
527.64        69.93079
528.08        69.96191
528.52        69.84045
528.96         69.6232
529.40        69.53483
529.83        69.59364
530.27        69.34383
530.71        69.37035
531.15        69.35405
531.59        69.46563
532.03         69.6233
532.46        69.76659
532.90        69.83515
533.34         69.8052
533.78        69.64302
534.22         69.4184
534.66        69.36314
535.09        69.43376
535.53        69.35006
535.97        69.11285
536.41        68.97145
536.85        68.93473
537.28        68.86245
537.72        68.76997
538.16        68.74215
538.60        68.77859
539.04        68.85069
539.47         68.9277
539.91        68.99223
540.35        69.02254
540.79        69.07472
541.22        69.13372
541.66        69.06061
542.10        69.03106
542.54        68.91975
542.97        68.81573
543.41        68.80711
543.85        68.89249
544.29        69.04681
544.72        69.19128
545.16        69.24032
545.60        69.15993
546.04        68.97754
546.47        68.75652
546.91        68.61643
547.35         68.5978
547.79        68.63972
548.22        68.65433
548.66        68.68037
549.10        68.69585
549.53        68.32343
549.97        68.29604
550.41        68.27327
550.84        68.46133
551.28        68.77821
551.72         69.1395
552.15        69.33327
552.59        69.28957
553.03        69.39268
553.46        68.95222
553.90        68.85406
554.34        68.91687
554.77        68.85793
555.21        68.62663
555.65        69.05538
556.08        68.79182
556.52        68.70811
556.96        68.44284
557.39        68.25803
557.83        68.20576
558.27         68.1227
558.70        68.02991
559.14        68.29036
559.57        68.28783
560.01        68.61813
560.45        68.93224
560.88        68.89354
561.32         68.6117
561.75        68.20693
562.19         67.8949
562.63          68.208
563.06        68.91006
563.50        68.75459
563.93        67.87882
564.37        67.62235
564.80        67.99277
565.24        68.27249
565.68        68.34972
566.11         68.3917
566.55        68.40895
566.98        68.30788
567.42        68.19855
567.85        68.26695
568.29        68.49738
568.72        68.62564
569.16         68.7383
569.60        68.78886
570.03        68.65572
570.47        68.99919
570.90        69.27531
571.34        68.18366
571.77        68.84909
572.21        68.78352
572.64        69.02341
573.08        68.65644
573.51        68.58335
573.95        69.46732
574.38        68.79742
574.82        68.72602
