SpectraSmart Spectrum 2.9.0.0
--------- Device Information -----------
Spectrum Name :  反射率_0
Saving Time :  2024/05/01 16:37:36
Spectro-Module Model Name : SE2030-DUVN
Spectro-Module Serial Number : OS361AC55029948
Wavelength Start : 200
Wavelength End : 1025
Wavelength Unit : Wavelength(nm)
Spectrum Unit : Reflectance(%)
-----------Spectrum Setting ------------
Integration Time : 20ms
Average : 10
Boxcar : 0
Background removal :  enabled
linearity correction :  enabled
SC :  disabled
Intensity correction :  disabled
DWT denoise :  enabled
savitzky-golay :  disabled
FFT :  disabled
Running average :  disabled
Kalman :  disabled
High pass :  disabled
---------------BEGIN--------------------
Wavelength(nm)             Reflectance(%)
200.29               0
200.75        77.68729
201.21        533.7271
201.67       -264.1255
202.13       -91.92388
202.58       -25.52177
203.04        18.15939
203.50        47.02855
203.96        61.84371
204.42        66.88659
204.88        62.04861
205.34       -141.1566
205.80         93.8923
206.26        65.23506
206.72         24.5995
207.18       -153.7014
207.64        320.9224
208.10        139.1572
208.55         89.3105
209.01         63.7695
209.47        53.77477
209.93        53.45535
210.39        56.57069
210.85        62.25711
211.31        71.98849
211.77        100.7345
212.23       -134.9288
212.69        12.85489
213.14        37.45246
213.60        85.82215
214.06       -393.6666
214.52        -56.3176
214.98        -28.0771
215.44       -10.09104
215.90        27.10227
216.36        555.0823
216.81       -265.2148
217.27       -341.9794
217.73        629.3508
218.19        98.90403
218.65        42.15179
219.11        12.13162
219.57       -42.73111
220.02       -254.6931
220.48       -141.6612
220.94       -30.88605
221.40        0.713781
221.86        13.61197
222.32        20.86163
222.77         27.3083
223.23        35.12289
223.69        44.66799
224.15        50.57532
224.61        49.56066
225.06        45.09152
225.52        41.48946
225.98        40.21654
226.44        40.96895
226.90         43.3596
227.36        46.77178
227.81         48.3528
228.27        47.03091
228.73        44.66648
229.19        42.88507
229.65        42.58666
230.10        43.60425
230.56        45.74791
231.02        48.39513
231.48        49.70741
231.93        48.87378
232.39        47.12766
232.85        45.38838
233.31        44.47739
233.77         44.4265
234.22        44.88149
234.68        45.73323
235.14        47.07249
235.60        49.05665
236.05        52.17277
236.51        56.63301
236.97        61.55572
237.43        65.28616
237.88        66.84049
238.34         66.4836
238.80        66.56026
239.26        68.03968
239.71        71.46317
240.17        75.84971
240.63        76.32948
241.08        69.79646
241.54        59.89664
242.00        53.54556
242.46        56.05194
242.91        69.62959
243.37        97.99473
243.83        146.4038
244.28        184.4469
244.74        176.0548
245.20        147.6405
245.66        123.0104
246.11         108.123
246.57        98.93374
247.03         89.8699
247.48         76.5357
247.94        54.94848
248.40        30.26741
248.85        10.67942
249.31        5.817129
249.77        16.86102
250.22        34.74058
250.68        52.80384
251.14        66.65487
251.59        74.95138
252.05        79.67184
252.51        82.66944
252.96         85.9777
253.42        98.05714
253.88        114.2061
254.33        113.8189
254.79        107.9292
255.25        101.6767
255.70        95.45593
256.16        90.88686
256.62        87.19389
257.07        84.02706
257.53        82.11924
257.99        80.79964
258.44          79.921
258.90        80.08497
259.35        80.59879
259.81        81.49483
260.27         82.1601
260.72         81.8948
261.18        81.00758
261.63        79.45135
262.09        77.79068
262.55        76.05046
263.00        74.19253
263.46        72.45647
263.91        70.68814
264.37        69.15141
264.83        67.78516
265.28        66.54505
265.74        65.52708
266.19        64.51718
266.65        63.60184
267.11        62.69218
267.56        61.86845
268.02        61.37952
268.47        61.17257
268.93        61.13332
269.38          60.971
269.84        60.18826
270.30        58.73254
270.75        56.77493
271.21        54.71072
271.66        52.98564
272.12         51.7863
272.57        50.91362
273.03          50.252
273.48        49.53585
273.94        48.72789
274.39        47.87454
274.85        47.03788
275.31        46.19512
275.76         45.3364
276.22        44.51573
276.67        43.68805
277.13        42.95292
277.58        42.23904
278.04        41.57173
278.49        40.90751
278.95         40.3275
279.40        39.77365
279.86        39.28616
280.31        38.73946
280.77        38.08712
281.22        37.27068
281.68        36.40033
282.13        35.51129
282.59        34.76239
283.04        34.14702
283.50        33.69022
283.95        33.32673
284.41        33.02528
284.86        32.75885
285.32        32.55951
285.77        32.46788
286.22         32.5959
286.68        32.93437
287.13        33.39812
287.59        33.84463
288.04        34.00045
288.50        33.84414
288.95        33.42918
289.41        32.96147
289.86        32.63736
290.32        32.55304
290.77        32.64738
291.22          32.851
291.68        33.04052
292.13        33.19049
292.59        33.38628
293.04        33.71234
293.50        34.34377
293.95         35.2879
294.40        36.49218
294.86        37.82474
295.31        39.08981
295.77        40.22575
296.22         41.2615
296.68        42.29826
297.13        43.47567
297.58        44.84689
298.04        46.38668
298.49        47.98233
298.95        49.49844
299.40        50.87107
299.85        52.14363
300.31        53.46236
300.76        55.02483
301.21        56.88717
301.67        59.00074
302.12        61.13619
302.58        62.96026
303.03        64.35687
303.48        65.46131
303.94        66.57779
304.39        68.04569
304.84        69.99553
305.30        72.29528
305.75        74.69872
306.20        76.85875
306.66        78.66913
307.11        80.16888
307.57         81.5155
308.02        82.82818
308.47        84.19369
308.93        85.57823
309.38        86.87428
309.83        88.01491
310.29        89.01581
310.74        89.91669
311.19         90.8246
311.65        91.87151
312.10        93.05292
312.55        94.30154
313.00        95.57581
313.46         96.8176
313.91         97.9721
314.36        99.05196
314.82        99.92574
315.27        100.4052
315.72        100.4682
316.18        100.2204
316.63        99.86835
317.08         99.7979
317.53        100.1054
317.99         100.702
318.44        101.4256
318.89        101.9665
319.35         102.234
319.80        102.3357
320.25        102.3861
320.70        102.5753
321.16        102.9389
321.61        103.4095
322.06         103.917
322.51        104.3782
322.97        104.7277
323.42        105.0317
323.87        105.2447
324.32        105.3144
324.78        105.2409
325.23        105.0868
325.68        104.9149
326.13        104.8526
326.59        104.9234
327.04        105.1505
327.49         105.507
327.94        105.9644
328.39        106.4858
328.85        107.0159
329.30        107.5734
329.75        108.0313
330.20        108.3583
330.66        108.5509
331.11        108.6703
331.56        108.6969
332.01        108.6739
332.46        108.6218
332.92        108.6478
333.37        109.0374
333.82        109.8074
334.27        110.9027
334.72        112.1331
335.17         113.147
335.63        113.7872
336.08        114.1719
336.53        114.3866
336.98        114.6596
337.43        115.0746
337.88        115.5726
338.34        116.0668
338.79        116.5078
339.24        116.8348
339.69         117.086
340.14        117.3516
340.59        117.7561
341.05        118.3108
341.50        118.9939
341.95        119.6605
342.40        120.0811
342.85        120.2237
343.30        120.1812
343.75         120.149
344.20        120.4326
344.66        121.0861
345.11        121.9829
345.56        122.9802
346.01        123.8221
346.46        124.4121
346.91        124.8487
347.36        125.1117
347.81        125.1743
348.26        125.0811
348.72        124.8391
349.17        124.6367
349.62         124.854
350.07        125.5179
350.52        126.4805
350.97        127.4017
351.42         127.712
351.87        127.2956
352.32        126.3936
352.77        125.2374
353.22        124.1887
353.67        123.3938
354.13        122.7644
354.58        122.3639
355.03        122.4096
355.48        122.8787
355.93          123.74
356.38        124.5832
356.83        124.7045
357.28        123.9666
357.73        122.5704
358.18        121.0578
358.63        120.2528
359.08        120.3039
359.53        120.9441
359.98        121.6961
360.43        121.7627
360.88        120.9385
361.33        119.5184
361.78        117.8933
362.23        116.6065
362.68        115.8018
363.13        115.3046
363.58        114.9267
364.03        114.3939
364.48        113.6174
364.93        112.6816
365.38        111.7232
365.83        110.9202
366.28         110.304
366.73        109.8247
367.18        109.2809
367.63        108.3749
368.08        107.0931
368.53        105.5667
368.98         104.135
369.43        103.2789
369.88        103.0667
370.33        103.3411
370.78        103.7479
371.23         103.668
371.68        102.9325
372.13        101.7477
372.58        100.4257
373.03        99.43282
373.48         98.8796
373.93        98.59308
374.38        98.42522
374.83        98.15051
375.28         97.6845
375.72        97.10401
376.17        96.44805
376.62        95.69559
377.07        94.87464
377.52        93.99068
377.97        93.13367
378.42        92.45767
378.87        91.99532
379.32        91.70577
379.77         91.5079
380.22        91.26509
380.67         90.9325
381.11        90.54764
381.56        90.12754
382.01        89.72675
382.46        89.36935
382.91        89.03587
383.36        88.71736
383.81         88.4059
384.26        88.09059
384.71        87.76846
385.15        87.43265
385.60        87.12053
386.05        86.81853
386.50        86.52766
386.95        86.20992
387.40        85.81247
387.85        85.34159
388.29        84.77636
388.74        84.28724
389.19        83.91941
389.64        83.67602
390.09        83.51148
390.54        83.36224
390.98        83.10732
391.43        82.77561
391.88        82.40017
392.33        82.02829
392.78        81.65655
393.23        81.29121
393.67         80.9884
394.12        80.86957
394.57        80.31383
395.02        80.57223
395.47        80.14134
395.91        79.53434
396.36        79.25269
396.81        79.34797
397.26         79.5582
397.71        79.67863
398.15        79.54201
398.60        79.20235
399.05        78.54991
399.50        77.87156
399.95        77.83057
400.39        78.37321
400.84        78.71554
401.29        78.66628
401.74        78.49215
402.18        78.14841
402.63        77.35783
403.08        76.40141
403.53        75.84554
403.97         75.7692
404.42        76.02109
404.87        76.37764
405.32        76.45138
405.76        76.13296
406.21        75.70079
406.66        75.29104
407.11        74.78275
407.55        74.40574
408.00        74.83422
408.45        75.80895
408.90        76.06609
409.34        75.49474
409.79        74.90672
410.24        74.50149
410.68        74.19929
411.13        74.07867
411.58        74.18425
412.03        74.42587
412.47        74.61099
412.92        74.65148
413.37         74.6271
413.81        74.54702
414.26        74.48248
414.71        74.43193
415.15        74.37629
415.60        74.30675
416.05        74.28392
416.49        74.31493
416.94        74.37945
417.39        74.43466
417.83        74.39156
418.28        74.24469
418.73        74.03931
419.17        73.82136
419.62        73.66982
420.07         73.5965
420.51        73.54863
420.96         73.5862
421.41        73.65714
421.85        73.71674
422.30        74.01096
422.74        74.36239
423.19        74.17413
423.64        73.58993
424.08        73.60074
424.53         74.1764
424.98        74.41283
425.42        74.23484
425.87         74.4173
426.31         74.8597
426.76         74.4465
427.21        73.49321
427.65        73.72219
428.10        74.83489
428.54         75.0897
428.99        74.50533
429.44         73.6143
429.88        72.79946
430.33        73.43459
430.77        74.91449
431.22         74.7264
431.66        73.13437
432.11        72.53148
432.56        73.02867
433.00        73.82198
433.45        74.67751
433.89        74.16426
434.34        73.06519
434.78        75.00054
435.23         74.3655
435.67        74.69955
436.12        74.43131
436.57        74.87288
437.01        75.80929
437.46        76.51617
437.90        76.13338
438.35        75.72223
438.79        75.70236
439.24          75.283
439.68        74.78041
440.13        74.77369
440.57        75.25481
441.02        75.61934
441.46        75.75917
441.91        76.20471
442.35        76.67127
442.80        76.55903
443.24        75.94553
443.69        75.62807
444.13        75.69437
444.58        75.72289
445.02        75.71471
445.47         76.0044
445.91        76.48541
446.36        76.81753
446.80        76.93214
447.24        76.97961
447.69        76.92632
448.13        76.91504
448.58        76.96033
449.02        77.00053
449.47        77.03636
449.91        77.03426
450.36        77.00777
450.80        76.95242
451.25        76.88509
451.69        76.77815
452.13        76.65087
452.58        76.52117
453.02        76.39259
453.47        76.34152
453.91        76.36018
454.36        76.35543
454.80        76.30939
455.24        76.38001
455.69         76.4627
456.13        76.18427
456.58        75.69501
457.02        75.25352
457.46        75.05014
457.91        75.39291
458.35        76.04797
458.79        76.15225
459.24        75.64754
459.68        75.15318
460.13        74.98272
460.57        73.98781
461.01        74.34469
461.46        74.39719
461.90        74.76514
462.34        74.52884
462.79         74.0657
463.23        74.08981
463.68        74.54688
464.12         74.6404
464.56        74.32777
465.01        73.97113
465.45        73.65192
465.89        73.77457
466.34        74.17786
466.78        74.28432
467.22        73.70177
467.67        73.49241
468.11         73.3447
468.55        73.37074
468.99        73.43698
469.44          73.438
469.88        73.37074
470.32        73.34627
470.77        73.37446
471.21        73.39967
471.65        73.40258
472.10        73.41866
472.54        73.39896
472.98         73.2894
473.42        73.08313
473.87        72.84978
474.31        72.61364
474.75        72.38329
475.20        72.24298
475.64        72.39106
476.08        72.70845
476.52        72.78973
476.97        72.58312
477.41        72.40207
477.85        71.78587
478.29        72.05804
478.74        72.80453
479.18        72.76193
479.62        71.95821
480.06        71.77107
480.50        72.27602
480.95        71.50691
481.39        71.89314
481.83        71.59438
482.27        71.33199
482.72         71.6536
483.16        71.41761
483.60        71.67702
484.04        72.03576
484.48        72.13295
484.93        72.12543
485.37        73.12527
485.81        72.20968
486.25        73.04044
486.69        73.21262
487.14        70.67356
487.58        69.89875
488.02        71.84484
488.46        71.44796
488.90        71.21095
489.34        71.75659
489.79        71.24326
490.23        71.59736
490.67        71.31691
491.11        70.95905
491.55        71.00893
491.99        71.37895
492.43        71.48444
492.88        71.26513
493.32        71.07991
493.76        70.99572
494.20        70.96947
494.64        70.99485
495.08        71.13481
495.52        71.34592
495.96        71.28966
496.41        70.96127
496.85         71.2884
497.29        71.23203
497.73        71.05602
498.17         70.5799
498.61        70.27821
499.05        70.26933
499.49        70.59066
499.93        71.09116
500.37        71.28145
500.82        71.17471
501.26        71.18056
501.70        71.27135
502.14        71.61935
502.58        71.28525
503.02        71.15819
503.46        70.98694
503.90        70.74475
504.34        70.52668
504.78         70.4996
505.22        70.68479
505.66        71.05621
506.10        71.47824
506.54          71.532
506.98        71.39065
507.42        71.07421
507.86        70.24711
508.30         69.9451
508.74        70.06633
509.18        70.39878
509.62        70.79744
510.06        71.10173
510.50        71.23958
510.94        71.25604
511.38        71.19167
511.82        71.10986
512.26        71.03422
512.70        70.92934
513.14        70.80858
513.58        70.70238
514.02        70.61759
514.46        70.56748
514.90        70.51666
515.34        70.39684
515.78        70.20528
516.22         69.9696
516.66        69.76544
517.10        69.70812
517.54        69.81702
517.98        70.05148
518.42        70.32715
518.86        70.50524
519.30        70.54478
519.74         70.4817
520.18        70.37347
520.62        70.31557
521.06        70.33218
521.50        70.38636
521.93        70.44615
522.37         70.4521
522.81        70.39571
523.25        70.30877
523.69        70.20397
524.13        70.09391
524.57        69.99294
525.01        69.89861
525.45        69.83834
525.89        69.85686
526.32        69.95348
526.76        70.10742
527.20        70.27048
527.64        70.36694
528.08        70.37642
528.52        70.32667
528.96        70.23618
529.40        70.13674
529.83        70.03921
530.27        69.95187
530.71        69.89961
531.15        69.93785
531.59        70.06964
532.03        70.27436
532.46        70.47912
532.90        70.58792
533.34        70.57658
533.78        70.42018
534.22        70.18591
534.66        70.10051
535.09        70.12431
535.53        69.97803
535.97        69.68652
536.41        69.53942
536.85        69.54962
537.28         69.5613
537.72        69.56184
538.16        69.58534
538.60        69.61808
539.04        69.66342
539.47        69.70235
539.91        69.70008
540.35        69.66118
540.79        69.71625
541.22        69.83727
541.66        69.79106
542.10        69.74641
542.54        69.63126
542.97        69.52853
543.41        69.49206
543.85        69.52242
544.29        69.60739
544.72        69.69001
545.16        69.71888
545.60        69.66785
546.04        69.55381
546.47        69.42227
546.91         69.3633
547.35         69.4034
547.79        69.48441
548.22        69.52637
548.66        69.57976
549.10        69.62164
549.53        69.29286
549.97        69.25697
550.41         69.2193
550.84         69.3795
551.28         69.6257
551.72        69.89127
552.15        70.10081
552.59        70.21512
553.03        70.17916
553.46         70.0026
553.90        69.92422
554.34        69.97271
554.77        69.84985
555.21        69.53995
555.65        69.98151
556.08        69.78526
556.52        69.69594
556.96        69.37126
557.39        69.24006
557.83        69.33937
558.27        69.36286
558.70        69.28854
559.14        69.52456
559.57        69.44318
560.01        69.58159
560.45        69.66147
560.88        69.58578
561.32        69.43033
561.75        69.04707
562.19        68.66326
562.63        68.99323
563.06        69.81487
563.50        69.82711
563.93        69.10788
564.37        68.91425
564.80        69.24183
565.24        69.41399
565.68        69.36888
566.11        69.33086
566.55        69.32168
566.98        69.25347
567.42        69.20707
567.85        69.24444
568.29        69.40791
568.72        69.61164
569.16        69.84879
569.60        69.98927
570.03        69.96909
570.47        69.78318
570.90        70.05836
571.34        69.38055
571.77        69.66991
572.21        69.70245
572.64        70.04803
573.08        69.70848
573.51          69.791
573.95        70.77379
574.38         69.4401
574.82        69.90263
