SpectraSmart Spectrum 2.9.0.0
--------- Device Information -----------
Spectrum Name :  反射率_0
Saving Time :  2024/05/01 16:08:59
Spectro-Module Model Name : SE2030-DUVN
Spectro-Module Serial Number : OS361AC55029948
Wavelength Start : 200
Wavelength End : 1025
Wavelength Unit : Wavelength(nm)
Spectrum Unit : Reflectance(%)
-----------Spectrum Setting ------------
Integration Time : 20ms
Average : 10
Boxcar : 0
Background removal :  enabled
linearity correction :  enabled
SC :  disabled
Intensity correction :  disabled
DWT denoise :  enabled
savitzky-golay :  disabled
FFT :  disabled
Running average :  disabled
Kalman :  disabled
High pass :  disabled
---------------BEGIN--------------------
Wavelength(nm)             Reflectance(%)
200.29               0
200.75        17.48086
201.21        224.6758
201.67       -121.9731
202.13       -38.72325
202.58       -2.584693
203.04        22.24192
203.50        39.52667
203.96        50.22725
204.42        58.44924
204.88        73.96432
205.34         442.332
205.80        -17.6536
206.26       -15.25795
206.72       -50.77738
207.18       -274.3816
207.64        405.6426
208.10        180.3723
208.55        131.1548
209.01        108.7551
209.47        95.71861
209.93        86.68745
210.39         78.4512
210.85        72.09349
211.31        70.18687
211.77         78.6964
212.23        -25.5955
212.69        39.73572
213.14        57.89775
213.60        109.8034
214.06        -432.376
214.52       -54.73517
214.98       -28.50157
215.44       -20.21302
215.90       -15.75977
216.36        11.97518
216.81       -46.15545
217.27       -95.77676
217.73        246.3038
218.19          52.313
218.65        29.24364
219.11        13.63612
219.57       -20.47916
220.02        -174.369
220.48       -118.4595
220.94       -37.09466
221.40        -12.7225
221.86       -2.328296
222.32        4.076976
222.77        10.37191
223.23        18.70102
223.69        29.41205
224.15        36.19693
224.61        35.27443
225.06        30.65705
225.52        27.01055
225.98        26.30917
226.44        28.27057
226.90        32.39359
227.36        37.84731
227.81        40.45023
228.27         38.4609
228.73        34.69971
229.19         31.3462
229.65        29.28253
230.10        28.18348
230.56        27.73136
231.02        27.68322
231.48        27.76242
231.93         27.8344
232.39        28.03155
232.85        28.65354
233.31        30.05787
233.77        32.04424
234.22        34.35511
234.68        36.39916
235.14        37.65565
235.60        38.14665
236.05        38.05656
236.51        37.80829
236.97        38.79555
237.43        41.77567
237.88        46.13519
238.34        50.41982
238.80        53.93763
239.26        56.98055
239.71        60.49318
240.17        63.95303
240.63        64.66861
241.08        60.92422
241.54        54.47258
242.00        50.44183
242.46        53.35181
242.91        65.30863
243.37        89.79945
243.83        130.9127
244.28        161.2741
244.74        151.1198
245.20        124.8811
245.66        103.0775
246.11        90.51016
246.57        83.61214
247.03        77.92989
247.48        70.25191
247.94        56.84803
248.40        39.75521
248.85        24.91935
249.31        20.17281
249.77        27.04075
250.22        39.31102
250.68        51.89574
251.14        61.58445
251.59        67.34434
252.05        70.53538
252.51        72.60783
252.96        75.27825
253.42        86.41324
253.88        101.8665
254.33        102.4271
254.79         97.9715
255.25        93.50143
255.70        89.14501
256.16        86.11527
256.62        83.35649
257.07        80.32547
257.53        77.96304
257.99        75.89082
258.44        74.33785
258.90          74.131
259.35         74.5444
259.81        75.50823
260.27        76.09009
260.72        75.18676
261.18        73.22939
261.63        70.50703
262.09        68.00381
262.55        66.24635
263.00        65.08874
263.46        64.38275
263.91         63.6298
264.37        62.61946
264.83         61.2609
265.28        59.73861
265.74        58.26144
266.19        56.78344
266.65        55.45829
267.11        54.15915
267.56         53.0654
268.02        52.58216
268.47         52.6641
268.93        53.13799
269.38        53.55713
269.84        53.14838
270.30        51.78601
270.75        49.72836
271.21        47.44472
271.66        45.51375
272.12        44.17474
272.57        43.19216
273.03        42.50103
273.48        41.92777
273.94         41.4132
274.39        40.97191
274.85        40.52966
275.31        39.88028
275.76        38.99865
276.22        38.00474
276.67        36.96479
277.13        36.11169
277.58        35.41532
278.04        34.84155
278.49        34.32521
278.95        33.89782
279.40        33.48499
279.86        33.13624
280.31        32.71565
280.77        32.13337
281.22        31.35206
281.68        30.49816
282.13        29.65033
282.59        29.01511
283.04        28.59826
283.50        28.38308
283.95        28.30884
284.41        28.33543
284.86        28.41207
285.32        28.55943
285.77        28.74399
286.22        28.96699
286.68        29.22297
287.13        29.47335
287.59        29.69855
288.04        29.82804
288.50        29.87692
288.95        29.82604
289.41        29.76338
289.86        29.72858
290.32        29.77598
290.77        29.89729
291.22           30.07
291.68        30.24105
292.13        30.41252
292.59        30.65052
293.04        31.02356
293.50        31.68402
293.95        32.63797
294.40        33.84508
294.86        35.20802
295.31        36.57932
295.77        37.89822
296.22        39.17247
296.68        40.44223
297.13        41.75903
297.58        43.16193
298.04        44.65675
298.49        46.18964
298.95        47.71897
299.40         49.2007
299.85        50.63842
300.31        52.13889
300.76        53.84452
301.21        55.79285
301.67        57.95663
302.12         60.1008
302.58        61.88194
303.03         63.1925
303.48        64.17083
303.94        65.16161
304.39        66.56609
304.84         68.5206
305.30        70.87858
305.75        73.34901
306.20          75.507
306.66         77.2394
307.11        78.62615
307.57        79.87109
308.02        81.16499
308.47        82.60734
308.93        84.12498
309.38        85.59863
309.83        86.94585
310.29        88.15605
310.74        89.26245
311.19        90.31409
311.65        91.35338
312.10        92.37218
312.55        93.34538
313.00         94.3106
313.46        95.33566
313.91        96.40681
314.36        97.50598
314.82        98.48378
315.27        99.11346
315.72        99.34383
316.18        99.28252
316.63        99.09689
317.08        99.11527
317.53        99.42316
317.99        99.93881
318.44         100.539
318.89        100.9861
319.35        101.2163
319.80        101.3302
320.25         101.416
320.70        101.6171
321.16        101.9593
321.61        102.3883
322.06        102.8775
322.51        103.4113
322.97        103.9333
323.42         104.485
323.87        104.9429
324.32        105.1279
324.78        105.0115
325.23        104.6928
325.68        104.3261
326.13        104.1889
326.59        104.3431
327.04        104.7671
327.49        105.3575
327.94        105.9546
328.39        106.4802
328.85        106.9201
329.30        107.3439
329.75        107.7101
330.20        108.0207
330.66        108.2468
331.11        108.4252
331.56        108.5012
332.01        108.4992
332.46        108.4436
332.92        108.4599
333.37        108.8571
333.82        109.6611
334.27        110.8256
334.72        112.1032
335.17        113.0487
335.63        113.4933
336.08        113.5729
336.53        113.5236
336.98        113.8153
337.43        114.5679
337.88        115.6529
338.34        116.7451
338.79        117.3901
339.24        117.4359
339.69        117.0527
340.14        116.5979
340.59        116.6255
341.05        117.2594
341.50        118.3402
341.95        119.5376
342.40        120.3227
342.85        120.5589
343.30        120.4266
343.75        120.2015
344.20        120.3047
344.66        120.8396
345.11         121.655
345.56        122.5697
346.01        123.2813
346.46        123.6945
346.91        123.9294
347.36        124.0752
347.81        124.2588
348.26        124.5292
348.72        124.8331
349.17        125.1599
349.62        125.5751
350.07         126.043
350.52        126.5129
350.97         126.862
351.42        126.8825
351.87         126.549
352.32        125.9793
352.77        125.2368
353.22        124.4251
353.67        123.6173
354.13        122.8158
354.58        122.1558
355.03        121.9554
355.48        122.2328
355.93         122.925
356.38        123.6259
356.83         123.648
357.28        122.8621
357.73        121.4854
358.18        120.0497
358.63        119.3546
359.08        119.5375
359.53        120.3202
359.98        121.2283
360.43         121.473
360.88        120.8318
361.33        119.5796
361.78        118.0639
362.23        116.7698
362.68        115.8411
363.13         115.136
363.58        114.5206
364.03        113.8099
364.48        112.9491
364.93        112.0032
365.38        111.0976
365.83        110.3878
366.28         109.884
366.73         109.532
367.18        109.1014
367.63        108.2461
368.08        106.9417
368.53        105.3364
368.98        103.7796
369.43        102.7719
369.88        102.3936
370.33        102.4796
370.78        102.7245
371.23        102.5935
371.68        101.9336
372.13        100.9341
372.58        99.80772
373.03        98.86564
373.48        98.18874
373.93        97.64179
374.38        97.19351
374.83        96.81577
375.28         96.4694
375.72        96.16829
376.17        95.81654
376.62        95.19007
377.07        94.27331
377.52        93.13589
377.97        91.99306
378.42        91.19142
378.87        90.80583
379.32        90.73269
379.77         90.7726
380.22        90.61076
380.67         90.1684
381.11        89.54716
381.56        88.87888
382.01        88.40223
382.46        88.18214
382.91        88.12609
383.36        88.12186
383.81        88.00744
384.26        87.73077
384.71        87.34315
385.15        86.88596
385.60        86.47088
386.05        86.11372
386.50        85.78824
386.95        85.46107
387.40        85.09094
387.85        84.67635
388.29        84.19382
388.74        83.78339
389.19        83.44201
389.64        83.16833
390.09        82.93714
390.54        82.70991
390.98        82.41053
391.43        82.08713
391.88        81.74812
392.33        81.42081
392.78        81.17568
393.23        81.02162
393.67         80.8027
394.12        80.58138
394.57        80.54041
395.02        80.54992
395.47        80.06431
395.91         79.2418
396.36         78.8119
396.81        78.84377
397.26          78.993
397.71        79.07949
398.15        78.96294
398.60        78.69096
399.05        78.16163
399.50        77.60063
399.95        77.55612
400.39        77.97518
400.84        78.15767
401.29        77.98965
401.74        77.79986
402.18        77.57274
402.63        77.04088
403.08        76.36815
403.53         75.9305
403.97        75.76855
404.42        75.76951
404.87        75.84894
405.32        75.85508
405.76        75.73569
406.21        75.66731
406.66        75.59435
407.11        75.26672
407.55        74.83084
408.00        74.57739
408.45         74.5582
408.90        74.86343
409.34        75.21893
409.79        74.78171
410.24        73.76737
410.68        73.32501
411.13        73.53393
411.58        73.71366
412.03        73.78629
412.47        73.95382
412.92        74.14394
413.37         74.2975
413.81        74.37055
414.26        74.36529
414.71        74.26334
415.15        74.09569
415.60        73.86517
416.05        73.63952
416.49        73.45451
416.94        73.30056
417.39        73.20172
417.83        73.16969
418.28        73.20547
418.73        73.31323
419.17         73.4398
419.62        73.50152
420.07        73.46719
420.51        73.33372
420.96        73.20927
421.41        73.12536
421.85        73.06445
422.30        73.24394
422.74        73.53394
423.19        73.32356
423.64         72.7498
424.08         72.9849
424.53        73.94913
424.98         73.7991
425.42        73.81654
425.87        73.58064
426.31          73.583
426.76        73.29448
427.21        72.93068
427.65        73.33468
428.10        74.19288
428.54        74.47632
428.99        74.16311
429.44        73.36842
429.88         72.4669
430.33        72.87889
430.77        74.10444
431.22         73.9698
431.66        72.65745
432.11        72.10987
432.56        72.43452
433.00        73.10705
433.45        73.90185
433.89        73.79406
434.34        72.30916
434.78        74.52386
435.23        74.17623
435.67        74.33545
436.12         73.5057
436.57        73.78463
437.01        74.94954
437.46        75.51112
437.90        75.51484
438.35        74.16315
438.79        74.79255
439.24        74.26104
439.68        73.67222
440.13        73.58253
440.57        74.01936
441.02        74.38537
441.46        74.54536
441.91        75.07436
442.35        75.68714
442.80        75.52678
443.24        75.13027
443.69        74.88387
444.13        74.97612
444.58        74.96326
445.02        74.84955
445.47         74.9521
445.91           75.24
446.36        75.52222
446.80         75.7544
447.24        75.99732
447.69        76.21077
448.13        76.30871
448.58        76.29904
449.02         76.1687
449.47        76.01247
449.91          75.942
450.36        76.00339
450.80        76.14213
451.25        76.29233
451.69        76.30149
452.13        76.14689
452.58         75.8789
453.02        75.56748
453.47        75.35859
453.91        75.26853
454.36        75.28804
454.80        75.33475
455.24        75.19577
455.69        74.84734
456.13        74.52102
456.58        74.40649
457.02        73.82773
457.46        74.03025
457.91         74.4405
458.35        75.09486
458.79        75.20444
459.24        74.73523
459.68        73.99673
460.13        73.31277
460.57        72.76953
461.01        72.75731
461.46        72.92878
461.90        73.54057
462.34        73.28563
462.79        72.78791
463.23        72.79167
463.68        73.30505
464.12        73.34295
464.56        72.89409
465.01        72.43077
465.45         72.0602
465.89        72.23849
466.34        72.75836
466.78        72.82372
467.22         72.1207
467.67        71.85545
468.11        71.75449
468.55        71.80379
468.99        71.85993
469.44        71.84697
469.88        71.76354
470.32        71.72838
470.77        71.74648
471.21        71.75027
471.65        71.71142
472.10         71.6591
472.54        71.59463
472.98        71.48207
473.42        71.31123
473.87        71.30989
474.31        71.37232
474.75        70.93533
475.20        70.23899
475.64        70.35789
476.08        71.13686
476.52        71.41469
476.97        71.10709
477.41        71.06814
477.85        70.55891
478.29        71.02754
478.74        71.05494
479.18        71.06786
479.62        70.29713
480.06        70.08889
480.50        70.33255
480.95        69.70639
481.39        70.36488
481.83        69.55916
482.27        69.81261
482.72        69.96632
483.16         69.8474
483.60        70.03987
484.04        70.27043
484.48        70.30458
484.93        70.31812
485.37          70.943
485.81        70.77836
486.25        71.55128
486.69        71.18217
487.14        68.85635
487.58        68.10209
488.02        70.22134
488.46        69.81216
488.90        68.46649
489.34         69.9322
489.79        69.46007
490.23        69.58191
490.67        69.39732
491.11        69.31717
491.55        69.42466
491.99        69.60894
492.43        69.62016
492.88        69.42062
493.32        69.20706
493.76        69.04337
494.20        68.98913
494.64        69.06548
495.08        69.17218
495.52        69.28094
495.96        69.45724
496.41        69.58238
496.85        69.43439
497.29        69.08768
497.73         68.5212
498.17        68.47521
498.61          68.363
499.05        68.27401
499.49        68.42411
499.93        68.70068
500.37        69.04118
500.82        69.38981
501.26        69.28845
501.70        69.41061
502.14        69.37086
502.58        69.02733
503.02        68.78076
503.46        68.56028
503.90        68.33445
504.34        68.17899
504.78        68.23167
505.22        68.47984
505.66        68.94295
506.10        69.46104
506.54        69.54427
506.98        69.08556
507.42        69.05915
507.86        68.15336
508.30        67.86703
508.74        67.83716
509.18        68.01102
509.62        68.28672
510.06        68.52353
510.50        68.67345
510.94        68.76643
511.38         68.8068
511.82        68.79581
512.26        68.73933
512.70        68.61807
513.14        68.46033
513.58        68.33022
514.02        68.24657
514.46        68.18314
514.90         68.1583
515.34        68.08105
515.78        67.96032
516.22        67.81843
516.66        67.70547
517.10        67.69476
517.54        67.79642
517.98        67.98021
518.42        68.18863
518.86         68.3285
519.30        68.37232
519.74        68.34522
520.18        68.28007
520.62        68.23409
521.06        68.22114
521.50        68.21275
521.93        68.20538
522.37         68.1841
522.81         68.1498
523.25        68.12399
523.69        68.07626
524.13        67.95201
524.57         67.7579
525.01        67.51614
525.45        67.31777
525.89        67.30623
526.32        67.49755
526.76        67.83409
527.20        68.19973
527.64        68.40866
528.08         68.4105
528.52        68.26861
528.96        68.04642
529.40        67.84618
529.83        67.70223
530.27        67.60026
530.71        67.55325
531.15        67.59895
531.59        67.73235
532.03        67.94189
532.46        68.15314
532.90        68.26217
533.34         68.2441
533.78        68.07652
534.22        67.82852
534.66        67.72836
535.09        67.74065
535.53        67.59277
535.97        67.31344
536.41        67.18757
536.85         67.2244
537.28        67.28198
537.72        67.33799
538.16        67.37958
538.60        67.38304
539.04        67.48081
539.47        67.42167
539.91        67.44187
540.35        67.45473
540.79        67.48394
541.22        67.51501
541.66        67.43419
542.10        67.41548
542.54        67.33319
542.97        67.25314
543.41         67.2297
543.85        67.25749
544.29        67.31837
544.72         67.3861
545.16        67.44478
545.60        67.46769
546.04        67.49319
546.47        67.50507
546.91        67.40217
547.35        67.23938
547.79        67.20322
548.22         67.2333
548.66        67.21709
549.10        67.15034
549.53        66.82569
549.97        66.87357
550.41        66.88966
550.84        67.05013
551.28        67.32433
551.72        67.62556
552.15        67.76354
552.59         67.7343
553.03        67.64663
553.46        67.51141
553.90        67.44691
554.34        67.48027
554.77         67.3706
555.21        67.10027
555.65        67.57983
556.08        67.43262
556.52         67.2926
556.96        66.85452
557.39        66.60715
557.83        66.65687
558.27        66.70203
558.70        66.72472
559.14         67.0047
559.57        66.93737
560.01        67.20541
560.45        67.48019
560.88        67.38218
561.32        67.02374
561.75        66.56482
562.19        66.22124
562.63        66.47385
563.06        67.11423
563.50        67.01984
563.93         66.2964
564.37        66.12698
564.80         66.5096
565.24        66.80319
565.68        66.89962
566.11        66.94665
566.55        66.95355
566.98        66.81734
567.42        66.66441
567.85        66.71884
568.29        66.98967
568.72        67.16184
569.16        67.28368
569.60        67.32986
570.03        67.25578
570.47        67.06809
570.90        67.37292
571.34        66.48127
571.77        66.87383
572.21        66.78866
572.64        66.98664
573.08        66.74425
573.51        67.23713
573.95        67.70768
574.38        67.16713
574.82        67.12473
