SpectraSmart Spectrum 2.9.0.0
--------- Device Information -----------
Spectrum Name :  反射率_0
Saving Time :  2024/05/01 16:34:46
Spectro-Module Model Name : SE2030-DUVN
Spectro-Module Serial Number : OS361AC55029948
Wavelength Start : 200
Wavelength End : 1025
Wavelength Unit : Wavelength(nm)
Spectrum Unit : Reflectance(%)
-----------Spectrum Setting ------------
Integration Time : 20ms
Average : 10
Boxcar : 0
Background removal :  enabled
linearity correction :  enabled
SC :  disabled
Intensity correction :  disabled
DWT denoise :  enabled
savitzky-golay :  disabled
FFT :  disabled
Running average :  disabled
Kalman :  disabled
High pass :  disabled
---------------BEGIN--------------------
Wavelength(nm)             Reflectance(%)
200.29               0
200.75        186.0574
201.21        673.9326
201.67       -233.6039
202.13       -67.58432
202.58       -16.83284
203.04        12.17901
203.50        29.61839
203.96        37.28235
204.42        37.43945
204.88        24.65229
205.34        -341.873
205.80        91.66262
206.26        55.11516
206.72        12.09177
207.18       -176.3277
207.64        347.1263
208.10        157.4546
208.55        108.2444
209.01        82.72409
209.47        69.58038
209.93        63.42388
210.39        59.37742
210.85        57.12098
211.31        57.19119
211.77        62.58721
212.23       -3.268776
212.69        39.26561
213.14        54.46972
213.60        101.7515
214.06       -403.2555
214.52       -51.54557
214.98       -25.89239
215.44       -15.28432
215.90       -1.255633
216.36          163.67
216.81       -89.77454
217.27       -110.0599
217.73        155.1853
218.19        10.07307
218.65        -5.90159
219.11       -14.74502
219.57       -27.37675
220.02       -65.49049
220.48       -32.69208
220.94       -12.91126
221.40        -7.70133
221.86       -4.238105
222.32       0.8849593
222.77        8.962095
223.23        21.36174
223.69        37.33452
224.15         45.2014
224.61        39.96891
225.06        30.01402
225.52        22.48171
225.98        19.78454
226.44        21.09933
226.90        25.52665
227.36        32.17955
227.81        36.29624
228.27        35.35253
228.73        32.09894
229.19        29.25853
229.65        28.34583
230.10        29.22015
230.56        31.67559
231.02        34.70819
231.48        35.67308
231.93        33.75886
232.39        30.54264
232.85        28.20971
233.31        28.78827
233.77        31.80704
234.22        36.11276
234.68        40.24091
235.14        42.67947
235.60        43.25825
236.05        42.40974
236.51        40.51016
236.97        39.53708
237.43        40.98828
237.88        44.21738
238.34        47.80556
238.80        50.67947
239.26        52.76675
239.71        55.17071
240.17        56.83326
240.63        53.87553
241.08        45.21286
241.54        34.29303
242.00        27.44504
242.46        29.23397
242.91        41.31791
243.37        67.42613
243.83        113.3207
244.28        152.0929
244.74        148.2413
245.20        124.2698
245.66        102.2878
246.11        88.41852
246.57        79.10365
247.03        68.84029
247.48        53.22078
247.94        30.14765
248.40        6.578334
248.85        -9.83289
249.31       -11.50922
249.77       0.5871888
250.22        17.84519
250.68        34.49039
251.14        47.15994
251.59        55.10262
252.05        60.34962
252.51         65.1786
252.96        72.03231
253.42        85.14536
253.88        92.35162
254.33        84.91251
254.79        78.16745
255.25         74.5715
255.70        72.30112
256.16        71.35301
256.62        70.59129
257.07        69.28582
257.53        68.19915
257.99        67.19843
258.44        66.35904
258.90        66.28931
259.35        66.44022
259.81         66.8185
260.27        66.92817
260.72        66.22494
261.18        65.04546
261.63         63.4254
262.09        61.80359
262.55        60.18553
263.00        58.51735
263.46        56.91708
263.91        55.36444
264.37        54.18145
264.83        53.28677
265.28        52.60844
265.74        51.95986
266.19        50.80366
266.65        49.22668
267.11        47.31548
267.56        45.53452
268.02         44.7075
268.47        44.89771
268.93        45.78187
269.38        46.74272
269.84        46.73384
270.30        45.54329
270.75        43.52658
271.21        41.22478
271.66        39.32506
272.12        38.09655
272.57        37.25617
273.03        36.72067
273.48        36.30829
273.94        35.94801
274.39        35.68006
274.85        35.40618
275.31        34.89436
275.76        34.12146
276.22        33.20049
276.67        32.25263
277.13        31.57156
277.58        31.13997
278.04        30.90433
278.49        30.72029
278.95        30.48622
279.40        30.11643
279.86        29.69941
280.31        29.21883
280.77        28.74359
281.22        28.24677
281.68        27.76989
282.13        27.27462
282.59        26.79645
283.04        26.32052
283.50         25.9012
283.95        25.55421
284.41        25.35343
284.86        25.29017
285.32        25.34214
285.77        25.47535
286.22        25.68259
286.68        25.94444
287.13        26.23248
287.59        26.47982
288.04        26.53684
288.50        26.41355
288.95        26.12743
289.41        25.83849
289.86        25.69801
290.32        25.77319
290.77        26.02219
291.22        26.36293
291.68        26.65372
292.13        26.87165
292.59        27.10108
293.04         27.4398
293.50        28.08686
293.95        29.05332
294.40        30.26912
294.86        31.60698
295.31        32.87717
295.77        34.01681
296.22         35.0731
296.68        36.10218
297.13         37.1776
297.58        38.35494
298.04        39.63406
298.49        41.01553
298.95        42.53681
299.40        44.15561
299.85        45.84225
300.31        47.59103
300.76         49.3839
301.21        51.22633
301.67        53.13554
302.12        54.98973
302.58        56.62559
303.03        57.98098
303.48        59.13722
303.94        60.32975
304.39        61.81373
304.84        63.69545
305.30        65.87704
305.75        68.16486
306.20        70.27933
306.66        72.12753
307.11        73.73049
307.57         75.1826
308.02        76.52419
308.47        77.82567
308.93        79.07384
309.38        80.23849
309.83         81.3685
310.29        82.49047
310.74        83.59795
311.19        84.69698
311.65        85.76442
312.10         86.7714
312.55        87.71523
313.00        88.64306
313.46        89.63397
313.91        90.67872
314.36        91.74897
314.82         92.6964
315.27        93.29988
315.72        93.51211
316.18        93.44392
316.63        93.26115
317.08         93.2823
317.53        93.59084
317.99        94.10371
318.44        94.70914
318.89        95.19201
319.35        95.48582
319.80        95.67634
320.25        95.81966
320.70        96.00765
321.16        96.25945
321.61        96.54422
322.06        96.86515
322.51        97.25459
322.97        97.67905
323.42        98.16614
323.87        98.60588
324.32        98.83762
324.78        98.82329
325.23        98.64581
325.68        98.41228
326.13        98.32201
326.59        98.41992
327.04        98.70706
327.49        99.11076
327.94        99.52615
328.39        99.90562
328.85        100.2306
329.30        100.5913
329.75        100.9873
330.20        101.4193
330.66        101.8428
331.11        102.2403
331.56        102.4715
332.01        102.5283
332.46        102.4511
332.92        102.3734
333.37        102.6215
333.82        103.2406
334.27        104.1804
334.72        105.2408
335.17        106.0576
335.63        106.4883
336.08        106.6599
336.53          106.75
336.98        107.1186
337.43        107.8567
337.88        108.8569
338.34        109.8584
338.79        110.5144
339.24        110.6949
339.69        110.5235
340.14        110.2745
340.59        110.3756
341.05        110.9225
341.50        111.8025
341.95        112.7575
342.40        113.3701
342.85         113.548
343.30        113.4517
343.75        113.3237
344.20        113.5335
344.66        114.1642
345.11        115.0673
345.56        116.0945
346.01        116.9929
346.46        117.6601
346.91         118.188
347.36        118.5691
347.81        118.7916
348.26         118.895
348.72        118.8841
349.17         118.885
349.62        119.1787
350.07        119.7838
350.52        120.5871
350.97        121.3588
351.42        121.7089
351.87        121.5525
352.32         121.058
352.77        120.3363
353.22        119.5678
353.67        118.8456
354.13          118.13
354.58        117.5487
355.03        117.4108
355.48        117.7333
355.93        118.4767
356.38         119.212
356.83        119.2065
357.28         118.332
357.73        116.8155
358.18        115.2687
358.63         114.612
359.08        114.9961
359.53        116.1089
359.98        117.3548
360.43         117.735
360.88        116.9837
361.33        115.4506
361.78        113.6267
362.23        112.2132
362.68        111.4013
363.13        110.9758
363.58        110.7077
364.03        110.2544
364.48         109.508
364.93        108.5852
365.38        107.6494
365.83        106.9129
366.28        106.4103
366.73        106.0644
367.18        105.6504
367.63        104.8373
368.08        103.5995
368.53        102.0854
368.98        100.6297
369.43        99.70502
369.88        99.38791
370.33        99.52332
370.78        99.80891
371.23        99.71749
371.68        99.09625
372.13        98.12172
372.58        97.02684
373.03        96.15397
373.48        95.59049
373.93        95.20775
374.38        94.91682
374.83        94.59151
375.28        94.18114
375.72        93.72745
376.17        93.25163
376.62        92.71214
377.07        92.11277
377.52        91.45168
377.97         90.7853
378.42         90.2137
378.87        89.76069
379.32        89.40783
379.77        89.09179
380.22        88.70636
380.67          88.228
381.11         87.6929
381.56        87.16209
382.01        86.75713
382.46        86.50884
382.91        86.37746
383.36        86.28262
383.81        86.10168
384.26        85.80078
384.71        85.41302
385.15        84.98824
385.60        84.65654
386.05        84.42796
386.50        84.26324
386.95        84.09584
387.40        83.83568
387.85         83.4626
388.29        82.95627
388.74        82.47733
389.19        82.05856
389.64          81.715
390.09        81.42311
390.54        81.11938
390.98        80.72142
391.43        80.28739
391.88        79.75148
392.33        79.22163
392.78        79.07289
393.23        79.21455
393.67        79.02665
394.12        78.59611
394.57        78.49835
395.02        78.60996
395.47        78.15118
395.91        77.29311
396.36        76.88988
396.81        77.01342
397.26        77.29087
397.71        77.48096
398.15        77.35137
398.60        76.94515
399.05        76.20322
399.50        75.44688
399.95        75.35091
400.39        75.88411
400.84        76.31508
401.29        76.43223
401.74        76.39938
402.18        76.15533
402.63        75.48289
403.08        74.63013
403.53        74.09998
403.97        73.96416
404.42        74.07335
404.87        74.30163
405.32        74.38116
405.76        74.21709
406.21        74.16356
406.66        74.18146
407.11        73.61971
407.55         72.7866
408.00        72.98276
408.45        74.02106
408.90        74.35773
409.34        73.81182
409.79        73.12333
410.24        72.52372
410.68        72.14316
411.13        72.06522
411.58        72.17217
412.03        72.36378
412.47        72.53512
412.92        72.59874
413.37        72.58904
413.81        72.52859
414.26        72.51717
414.71        72.55191
415.15         72.6107
415.60        72.63354
416.05        72.59168
416.49        72.48027
416.94        72.31175
417.39        72.13616
417.83        72.00703
418.28        71.95349
418.73        71.98482
419.17        72.04898
419.62        72.06652
420.07        72.00053
420.51        71.83228
420.96         71.7161
421.41        71.71924
421.85        71.81289
422.30        72.29254
422.74         72.8687
423.19        72.53638
423.64        71.54603
424.08        71.51672
424.53        72.41385
424.98        72.80824
425.42        72.57879
425.87        72.69375
426.31        73.09085
426.76        72.69497
427.21        71.81007
427.65        72.03032
428.10         73.0607
428.54        73.28017
428.99        72.72026
429.44        71.86078
429.88         71.0982
430.33        71.81209
430.77         73.4249
431.22        73.36972
431.66        72.21838
432.11        71.55521
432.56        71.65942
433.00        72.21191
433.45        73.13959
433.89        72.61875
434.34        72.00297
434.78        73.80098
435.23        73.12938
435.67        72.83493
436.12        71.78128
436.57        72.17247
437.01        73.76476
437.46        74.48472
437.90        74.09402
438.35        74.00861
438.79        74.20685
439.24        73.98415
439.68        73.44823
440.13        73.31981
440.57        73.64401
441.02        73.82337
441.46        73.77164
441.91        74.43443
442.35          74.803
442.80        74.69608
443.24        74.18388
443.69        74.02529
444.13        74.29144
444.58         74.3958
445.02        74.33651
445.47        74.49867
445.91          74.842
446.36        75.12931
446.80        75.31759
447.24        75.47536
447.69        75.60456
448.13         75.6876
448.58        75.74422
449.02        75.74371
449.47          75.721
449.91        75.69429
450.36        75.69131
450.80        75.68459
451.25        75.68181
451.69         75.6481
452.13         75.5899
452.58        75.52203
453.02         75.4379
453.47        75.37907
453.91         75.3382
454.36        75.26337
454.80        75.16238
455.24        75.04656
455.69        75.20161
456.13        74.73174
456.58        74.02218
457.02         73.5413
457.46        73.81638
457.91        74.33363
458.35        74.92989
458.79        75.01995
459.24        74.53187
459.68        73.90259
460.13        73.50589
460.57        72.39482
461.01        72.72295
461.46        72.91865
461.90        73.35249
462.34         73.2074
462.79        72.47366
463.23        72.45773
463.68        73.02902
464.12        73.15939
464.56        72.81374
465.01        72.63405
465.45        72.59985
465.89        72.66953
466.34        72.68952
466.78        72.74703
467.22        71.79379
467.67        71.62534
468.11        71.71994
468.55        71.89952
468.99        71.98702
469.44         72.0266
469.88         72.0063
470.32        71.90767
470.77        71.77151
471.21        71.68037
471.65        71.63691
472.10        71.62433
472.54        71.61704
472.98        71.57057
473.42        71.46507
473.87        71.45635
474.31        71.47441
474.75        71.17358
475.20         70.7021
475.64        70.77225
476.08        71.27047
476.52        71.36684
476.97        70.98606
477.41        71.15362
477.85        70.22556
478.29        71.01855
478.74        71.08736
479.18        71.22895
479.62        70.47611
480.06        70.31671
480.50        70.66967
480.95        69.90895
481.39         70.4537
481.83        69.84569
482.27        70.18774
482.72        70.43272
483.16        70.09419
483.60        70.07894
484.04         70.6741
484.48        70.79214
484.93         70.7566
485.37        71.67917
485.81        71.12668
486.25         71.8299
486.69        71.52322
487.14        69.28599
487.58        68.48846
488.02         70.7855
488.46        69.67606
488.90        69.67865
489.34        70.54311
489.79        70.10528
490.23        70.15408
490.67        69.89197
491.11        69.84619
491.55        69.99516
491.99        70.24693
492.43        70.30837
492.88        70.12997
493.32        69.92467
493.76        69.76212
494.20        69.69168
494.64        69.73453
495.08        69.83506
495.52        69.95515
495.96        70.04084
496.41        70.02087
496.85        69.91112
497.29        69.75909
497.73        69.25711
498.17        69.28956
498.61        69.17099
499.05        69.17278
499.49        69.44221
499.93        69.83962
500.37        69.88547
500.82        69.63569
501.26        69.57292
501.70        69.70156
502.14        70.06611
502.58        69.96008
503.02        69.94353
503.46         69.8206
503.90        69.59273
504.34        69.36679
504.78        69.31917
505.22        69.46791
505.66        69.81469
506.10        70.22646
506.54        70.27817
506.98        69.87489
507.42        69.90738
507.86        69.15657
508.30        68.95467
508.74        68.95772
509.18        69.12409
509.62        69.36404
510.06        69.55863
510.50        69.66872
510.94        69.71705
511.38        69.71422
511.82        69.67294
512.26         69.6013
512.70        69.48511
513.14        69.34302
513.58         69.2126
514.02         69.1087
514.46        69.03886
514.90        68.98978
515.34         68.9324
515.78        68.86459
516.22        68.79575
516.66        68.76138
517.10        68.81423
517.54        68.95728
517.98        69.16738
518.42        69.38173
518.86        69.49963
519.30         69.4966
519.74        69.39951
520.18        69.26757
520.62         69.1991
521.06        69.21479
521.50        69.27678
521.93        69.34549
522.37        69.34507
522.81        69.26428
523.25        69.14458
523.69          68.995
524.13        68.82416
524.57        68.65083
525.01        68.47214
525.45        68.34905
525.89        68.37747
526.32        68.56245
526.76        68.87015
527.20         69.1917
527.64        69.35236
528.08        69.31113
528.52        69.12195
528.96        68.87814
529.40        68.73047
529.83        68.71152
530.27        68.78836
530.71        68.90711
531.15        68.99965
531.59        69.04211
532.03        69.05935
532.46        69.04784
532.90        69.02053
533.34        68.98699
533.78        68.89115
534.22        68.75921
534.66         68.7544
535.09        68.81998
535.53        68.69924
535.97        68.43602
536.41        68.34422
536.85        68.43977
537.28        68.54977
537.72        68.63512
538.16        68.69838
538.60        68.72128
539.04        68.70581
539.47        68.65456
539.91        68.61162
540.35        68.56912
540.79         68.5408
541.22        68.53587
541.66        68.47163
542.10        68.52358
542.54        68.55499
542.97        68.58124
543.41        68.58567
543.85         68.5367
544.29        68.45262
544.72        68.36623
545.16        68.35909
545.60        68.42432
546.04        68.57612
546.47        68.74078
546.91        68.70428
547.35        68.50539
547.79        68.40272
548.22        68.36638
548.66        68.29565
549.10        68.20079
549.53        67.87817
549.97        67.95509
550.41        67.98693
550.84        68.13709
551.28        68.41339
551.72        68.75197
552.15        68.89999
552.59        68.82343
553.03        69.02271
553.46        68.75309
553.90        68.72655
554.34        68.74754
554.77        68.62525
555.21        68.33678
555.65        68.71169
556.08        68.49434
556.52        68.33806
556.96        67.96402
557.39        67.83186
557.83        67.98074
558.27         68.0973
558.70        68.12788
559.14        68.40717
559.57         68.3121
560.01        68.44646
560.45        68.52439
560.88        68.43523
561.32        68.06049
561.75        67.74678
562.19         67.5851
562.63        67.94067
563.06        68.56094
563.50        68.50111
563.93        67.61179
564.37        67.40506
564.80        67.79749
565.24        68.18066
565.68        68.39234
566.11        68.35853
566.55        68.15301
566.98        68.04734
567.42         68.1291
567.85         68.2243
568.29        68.31918
568.72          68.448
569.16        68.64732
569.60        68.63557
570.03        68.31599
570.47        68.66054
570.90        68.49016
571.34         67.9389
571.77          68.212
572.21        68.28809
572.64        68.63322
573.08        68.25737
573.51         68.5142
573.95        69.08018
574.38        67.94324
574.82         68.5236
