SpectraSmart Spectrum 2.9.0.0
--------- Device Information -----------
Spectrum Name :  反射率_0
Saving Time :  2024/05/01 16:20:08
Spectro-Module Model Name : SE2030-DUVN
Spectro-Module Serial Number : OS361AC55029948
Wavelength Start : 200
Wavelength End : 1025
Wavelength Unit : Wavelength(nm)
Spectrum Unit : Reflectance(%)
-----------Spectrum Setting ------------
Integration Time : 20ms
Average : 10
Boxcar : 0
Background removal :  enabled
linearity correction :  enabled
SC :  disabled
Intensity correction :  disabled
DWT denoise :  enabled
savitzky-golay :  disabled
FFT :  disabled
Running average :  disabled
Kalman :  disabled
High pass :  disabled
---------------BEGIN--------------------
Wavelength(nm)             Reflectance(%)
200.29               0
200.75        131.6918
201.21         570.485
201.67       -233.6979
202.13       -77.57693
202.58       -24.70488
203.04        6.433385
203.50        26.51434
203.96        38.97426
204.42        49.04499
204.88        68.73191
205.34        499.7567
205.80       -22.60581
206.26       -0.435474
206.72        5.715983
207.18       -9.921583
207.64        86.20757
208.10        72.46113
208.55        79.91413
209.01        85.55354
209.47        83.71499
209.93        75.29144
210.39        61.93166
210.85        47.35798
211.31          36.004
211.77        26.04568
212.23        45.18466
212.69        32.23293
213.14        41.19175
213.60        83.48165
214.06       -380.6603
214.52       -56.81653
214.98       -30.91448
215.44       -16.21796
215.90        10.19298
216.36        342.6479
216.81       -147.6826
217.27       -129.1532
217.73         38.6903
218.19       -51.00324
218.65       -74.13647
219.11       -112.5325
219.57       -224.8088
220.02        -638.043
220.48       -284.1803
220.94       -67.14975
221.40       -14.51945
221.86        3.476958
222.32        10.58669
222.77        14.01674
223.23        15.63598
223.69        16.61171
224.15        18.40893
224.61        20.66944
225.06        22.29653
225.52        23.37441
225.98        24.07291
226.44        24.61418
226.90        24.95094
227.36        25.34622
227.81         26.0885
228.27        26.87291
228.73        27.57595
229.19        27.59276
229.65         26.3166
230.10        23.73374
230.56        19.96213
231.02        15.95943
231.48        14.92207
231.93        17.77316
232.39        22.49082
232.85         27.1317
233.31        30.15673
233.77        31.58278
234.22         32.1588
234.68        32.07301
235.14        31.58007
235.60        30.75686
236.05        29.26888
236.51        27.26538
236.97         25.9641
237.43        26.39994
237.88         28.7218
238.34        31.48827
238.80        32.85044
239.26        32.22703
239.71        29.48003
240.17        23.85148
240.63        16.53152
241.08        11.35062
241.54        10.06811
242.00        11.86406
242.46        15.45298
242.91        21.49683
243.37        31.50338
243.83        49.79924
244.28        71.91875
244.74        80.34186
245.20        77.77552
245.66        71.53626
246.11         64.2814
246.57        55.06054
247.03        40.40207
247.48         16.6021
247.94       -10.60103
248.40       -27.16087
248.85       -30.53921
249.31       -19.56493
249.77       -1.119952
250.22        16.81625
250.68        31.91236
251.14         41.9381
251.59        45.99521
252.05        44.77176
252.51        35.81949
252.96         11.0129
253.42       -22.28554
253.88       -12.17636
254.33        25.16656
254.79        44.98045
255.25        48.73549
255.70        45.88346
256.16        41.85718
256.62         39.3539
257.07         40.1921
257.53        43.28852
257.99        46.73433
258.44        49.14901
258.90        49.77417
259.35        48.67464
259.81        46.82264
260.27        44.84851
260.72        43.65391
261.18        43.52002
261.63        43.72299
262.09         44.0116
262.55        43.86221
263.00        43.16998
263.46        42.27491
263.91        41.17479
264.37        40.07379
264.83        38.99374
265.28        37.91091
265.74        36.91219
266.19        35.92611
266.65        35.03657
267.11        34.19227
267.56        33.48513
268.02        33.13419
268.47        33.10342
268.93        33.27934
269.38        33.41379
269.84        33.05141
270.30        32.13374
270.75        30.81149
271.21        29.37204
271.66          28.142
272.12        27.27863
272.57        26.63655
273.03        26.19553
273.48        25.87698
273.94        25.63651
274.39        25.46555
274.85        25.28129
275.31        24.91789
275.76        24.35424
276.22        23.67881
276.67        22.95008
277.13        22.33112
277.58        21.81228
278.04        21.37518
278.49        20.98064
278.95        20.66476
279.40        20.37442
279.86         20.1265
280.31        19.83642
280.77        19.44303
281.22        18.91974
281.68        18.35153
282.13        17.75344
282.59        17.20192
283.04        16.70689
283.50        16.27855
283.95        15.95738
284.41        15.84215
284.86        15.91404
285.32        16.12207
285.77        16.36138
286.22         16.4979
286.68        16.50623
287.13        16.41636
287.59        16.25254
288.04        16.02638
288.50         15.7897
288.95        15.51268
289.41        15.30246
289.86         15.2613
290.32        15.40495
290.77        15.70044
291.22        16.01476
291.68        16.13518
292.13        16.03386
292.59        15.80981
293.04        15.60482
293.50        15.68614
293.95        16.09577
294.40        16.75023
294.86        17.53111
295.31        18.26291
295.77        18.87619
296.22        19.42335
296.68        19.91838
297.13        20.37927
297.58        20.83617
298.04         21.2926
298.49        21.78805
298.95        22.42049
299.40        23.18447
299.85        24.05045
300.31        24.96777
300.76        25.86302
301.21        26.72364
301.67        27.59079
302.12         28.4452
302.58        29.27152
303.03        30.05634
303.48        30.82449
303.94        31.66976
304.39        32.68771
304.84        33.92893
305.30        35.35787
305.75        36.89879
306.20        38.43475
306.66        39.91806
307.11        41.34479
307.57        42.73441
308.02        44.06668
308.47        45.37469
308.93        46.66593
309.38        47.95198
309.83        49.31335
310.29        50.76946
310.74        52.29391
311.19         53.8466
311.65        55.34562
312.10        56.76121
312.55        58.11396
313.00        59.47244
313.46        60.95243
313.91        62.56125
314.36        64.25082
314.82        65.88945
315.27        67.27212
315.72        68.32592
316.18        69.12072
316.63        69.75613
317.08         70.4465
317.53        71.26251
317.99        72.15478
318.44        73.06682
318.89        73.88348
319.35         74.5659
319.80        75.17062
320.25        75.72647
320.70        76.27595
321.16        76.83234
321.61        77.39134
322.06        77.96838
322.51        78.60787
322.97        79.28767
323.42        80.01543
323.87        80.70905
324.32        81.24976
324.78        81.59801
325.23        81.81705
325.68         81.9452
326.13        82.07076
326.59        82.22033
327.04        82.41663
327.49        82.67887
327.94        83.05479
328.39        83.54327
328.85        84.10218
329.30        84.71952
329.75        85.24179
330.20        85.62429
330.66        85.86776
331.11        86.05453
331.56        86.22841
332.01        86.42914
332.46        86.65226
332.92        86.90047
333.37        87.26963
333.82        87.75112
334.27        88.34706
334.72        89.02744
335.17        89.72483
335.63        90.37259
336.08        90.99744
336.53        91.56623
336.98        92.09297
337.43        92.58797
337.88        93.05865
338.34        93.44762
338.79        93.73678
339.24        93.90413
339.69        93.96754
340.14         94.0691
340.59        94.42667
341.05        95.06408
341.50        95.93295
341.95        96.81642
342.40        97.35789
342.85        97.48906
343.30         97.3391
343.75        97.14544
344.20        97.28127
344.66        97.83436
345.11        98.66909
345.56        99.63963
346.01         100.491
346.46        101.1172
346.91        101.5974
347.36        101.9333
347.81        102.1288
348.26        102.2209
348.72         102.216
349.17        102.1924
349.62         102.349
350.07        102.7053
350.52        103.1846
350.97        103.6651
351.42        103.9304
351.87        103.9269
352.32         103.757
352.77        103.4254
353.22        102.9455
353.67        102.3664
354.13        101.7031
354.58        101.1209
355.03        100.9776
355.48        101.3103
355.93        102.0406
356.38        102.7896
356.83         102.913
357.28        102.2806
357.73        101.0968
358.18        99.83424
358.63        99.19846
359.08        99.32009
359.53        99.96484
359.98         100.724
360.43        100.9172
360.88        100.3607
361.33        99.29602
361.78        98.05193
362.23        97.08965
362.68        96.53103
363.13         96.2289
363.58        96.00826
364.03        95.61401
364.48        94.96634
364.93        94.13984
365.38        93.28517
365.83        92.60677
366.28        92.14101
366.73        91.83616
367.18        91.46954
367.63        90.70088
368.08        89.50827
368.53        88.03985
368.98        86.65872
369.43         85.8851
369.88        85.80032
370.33        86.23428
370.78        86.82752
371.23        86.94689
371.68        86.40615
372.13        85.40887
372.58        84.24893
373.03        83.36797
373.48        82.88153
373.93        82.63406
374.38        82.50294
374.83        82.30263
375.28        81.96517
375.72        81.56052
376.17        81.12625
376.62        80.65012
377.07        80.14592
377.52        79.59936
377.97        79.05947
378.42        78.61987
378.87         78.2942
379.32        78.05669
379.77        77.84568
380.22        77.55542
380.67        77.16621
381.11        76.72827
381.56        76.27543
382.01        75.88451
382.46        75.58601
382.91        75.34667
383.36        75.18012
383.81        75.10865
384.26        75.11035
384.71        75.16856
385.15        75.17665
385.60        75.01226
386.05        74.64658
386.50        74.13576
386.95        73.58767
387.40        73.17899
387.85        72.95088
388.29        72.79478
388.74        72.74214
389.19        72.66577
389.64        72.53291
390.09        72.36803
390.54        72.14793
390.98        71.84118
391.43        71.50953
391.88        71.09152
392.33        70.66026
392.78        70.48135
393.23        70.50222
393.67        70.28884
394.12        69.92542
394.57        69.85024
395.02        69.95657
395.47        69.59499
395.91        68.91415
396.36        68.65097
396.81        68.86524
397.26        69.20103
397.71        69.42677
398.15        69.39085
398.60        69.10458
399.05        68.33915
399.50        67.45592
399.95        67.38273
400.39         68.0534
400.84        68.44267
401.29        68.37489
401.74        68.32137
402.18         68.2354
402.63        67.73249
403.08        67.00154
403.53        66.52619
403.97           66.38
404.42        66.43806
404.87        66.58538
405.32        66.65571
405.76        66.59245
406.21        66.46788
406.66        66.33732
407.11        66.31879
407.55        66.45157
408.00        66.56982
408.45        66.61401
408.90        66.69304
409.34        66.67551
409.79        66.14474
410.24        65.31856
410.68        64.92393
411.13        65.04101
411.58        65.30515
412.03        65.60475
412.47        65.88523
412.92        66.04723
413.37        66.12024
413.81        66.10284
414.26        66.04758
414.71         65.9596
415.15        65.84295
415.60        65.70937
416.05        65.64079
416.49        65.66109
416.94        65.75079
417.39        65.88866
417.83        66.01752
418.28        66.12321
418.73        66.22665
419.17        66.31297
419.62        66.36412
420.07        66.37117
420.51        66.31565
420.96        66.28861
421.41        66.30657
421.85        66.35418
422.30        66.62519
422.74        66.97069
423.19        66.89445
423.64        66.50471
424.08        66.63293
424.53        67.23101
424.98          67.466
425.42         67.2573
425.87        67.39009
426.31        67.78802
426.76        67.25973
427.21        66.21731
427.65        66.71001
428.10        68.36092
428.54        68.97229
428.99        68.46503
429.44        67.58866
429.88        66.78478
430.33        67.29517
430.77        68.62998
431.22        68.67901
431.66         67.5266
432.11         66.9345
432.56        67.06538
433.00        67.49538
433.45        68.10211
433.89        68.42805
434.34        67.35091
434.78        69.58085
435.23        69.23617
435.67        69.26865
436.12        68.39015
436.57        68.76807
437.01        70.16833
437.46        70.98612
437.90        70.28856
438.35        70.01451
438.79        70.00987
439.24        69.75843
439.68         69.3872
440.13        69.53613
440.57        70.13139
441.02        70.47536
441.46        70.48413
441.91        70.71598
442.35        71.01032
442.80        70.94659
443.24        70.64359
443.69        70.54464
444.13        70.67857
444.58        70.75817
445.02        70.76936
445.47        70.91001
445.91        71.17281
446.36        71.46568
446.80        71.75638
447.24        72.07199
447.69        72.34485
448.13         72.4527
448.58        72.39904
449.02        72.19291
449.47         71.9666
449.91        71.88889
450.36        72.01324
450.80         72.2614
451.25        72.53209
451.69         72.6175
452.13        72.47945
452.58         72.1962
453.02        71.85248
453.47        71.57547
453.91        71.38535
454.36        71.33646
454.80        71.39845
455.24        71.07846
455.69        71.04735
456.13        70.82956
456.58        70.72452
457.02        70.42973
457.46        70.31889
457.91          70.675
458.35        71.34253
458.79        71.45045
459.24        70.94792
459.68        70.42416
460.13        70.16151
460.57        69.12039
461.01        69.35106
461.46        69.24728
461.90        69.38802
462.34        69.35897
462.79        68.69962
463.23        69.00842
463.68        69.86378
464.12        70.10906
464.56        69.68044
465.01        69.17255
465.45        68.72865
465.89        68.77171
466.34        69.15075
466.78        69.10018
467.22        68.38761
467.67         68.2644
468.11        68.41754
468.55        68.55373
468.99        68.52684
469.44        68.49849
469.88        68.46718
470.32        68.37949
470.77        68.27174
471.21         68.2233
471.65        68.23453
472.10        68.29852
472.54        68.36288
472.98        68.35647
473.42        68.26124
473.87        68.17136
474.31         68.0677
474.75         67.8558
475.20        67.61347
475.64        67.61569
476.08        67.81209
476.52        67.80228
476.97        67.53252
477.41        67.55624
477.85        67.15812
478.29        67.27605
478.74        67.20263
479.18        67.39392
479.62        66.96494
480.06        66.95007
480.50        67.13993
480.95        66.49445
481.39        67.34941
481.83        66.20267
482.27        66.76389
482.72        66.59044
483.16        66.59966
483.60        66.73686
484.04        66.93281
484.48        67.05696
484.93        67.35593
485.37        67.71354
485.81        67.50844
486.25        68.66148
486.69        68.60526
487.14        66.42626
487.58        65.22523
488.02        67.03367
488.46        66.58385
488.90        65.86096
489.34        67.08674
489.79        66.14136
490.23        66.38425
490.67        66.03503
491.11         65.9144
491.55        66.15121
491.99        66.60743
492.43        66.80814
492.88        66.67176
493.32        66.53011
493.76        66.43287
494.20        66.35116
494.64        66.29366
495.08        66.23943
495.52        66.24032
495.96         66.2709
496.41        66.27228
496.85        66.64648
497.29        66.79175
497.73        66.26105
498.17        65.70648
498.61        65.33109
499.05        65.42185
499.49        65.70164
499.93        66.02912
500.37        66.08646
500.82        65.89763
501.26         65.9254
501.70        66.17806
502.14         66.2982
502.58        66.23566
503.02        66.17199
503.46        66.12596
503.90        65.79041
504.34         65.6976
504.78        65.64056
505.22        65.77642
505.66        66.06125
506.10        66.36568
506.54        66.45821
506.98        66.28916
507.42        65.94185
507.86        65.56458
508.30        65.38686
508.74        65.46156
509.18        65.70969
509.62        66.02205
510.06        66.21982
510.50        66.24422
510.94        66.15278
511.38        65.99227
511.82         65.8377
512.26        65.72295
512.70        65.61063
513.14        65.50277
513.58        65.44294
514.02        65.43769
514.46        65.35119
514.90        65.40749
515.34        65.37346
515.78        65.31437
516.22        65.23633
516.66         65.1599
517.10        65.11312
517.54        65.10282
517.98        65.12238
518.42        65.16506
518.86        65.21963
519.30        65.27944
519.74        65.34422
520.18        65.40786
520.62        65.46355
521.06        65.50483
521.50        65.52347
521.93        65.52219
522.37        65.49788
522.81        65.45831
523.25        65.41508
523.69        65.35471
524.13        65.25335
524.57        65.11877
525.01        64.96423
525.45        64.84743
525.89        64.85698
526.32        64.99982
526.76        65.23823
527.20        65.48989
527.64        65.62489
528.08        65.60892
528.52        65.48656
528.96        65.30575
529.40        65.14382
529.83        65.02521
530.27        64.94528
530.71        64.91037
531.15        64.94505
531.59        65.04653
532.03        65.20737
532.46        65.37512
532.90        65.48297
533.34        65.51074
533.78        65.42079
534.22        65.26042
534.66        65.22028
535.09        65.25724
535.53        65.11913
535.97        64.82877
536.41        64.65617
536.85        64.61839
537.28        64.57062
537.72        64.51876
538.16        64.52864
538.60        64.59326
539.04        64.68951
539.47        64.77533
539.91        64.82327
540.35        64.80796
540.79         64.7647
541.22        64.71986
541.66        64.62601
542.10        64.65959
542.54        64.67635
542.97        64.70308
543.41        64.73744
543.85        64.76234
544.29        64.78335
544.72         64.7935
545.16        64.81043
545.60        64.82215
546.04        64.83555
546.47        64.84534
546.91        64.82021
547.35        64.78518
547.79        64.80311
548.22        64.81894
548.66         64.8204
549.10        64.80229
549.53        64.50458
549.97        64.53098
550.41        64.50923
550.84        64.61476
551.28         64.8298
551.72        65.07967
552.15        65.17617
552.59        65.12408
553.03        65.05991
553.46        64.99654
553.90         64.9903
554.34        65.05628
554.77        65.06709
555.21        64.96001
555.65        65.34863
556.08        64.98885
556.52         64.9209
556.96        64.79332
557.39        64.69453
557.83        64.66105
558.27        64.59597
558.70        64.49718
559.14         64.7052
559.57        64.63931
560.01        64.76553
560.45        64.85396
560.88        64.91254
561.32        64.96243
561.75        64.74908
562.19        64.43079
562.63        64.59641
563.06        65.10458
563.50        64.99394
563.93         64.3656
564.37        64.22388
564.80        64.54813
565.24        64.77157
565.68        64.81135
566.11        64.82604
566.55        64.84377
566.98         64.7753
567.42        64.70233
567.85        64.79977
568.29        65.03555
568.72        65.06169
569.16        64.99728
569.60        65.07101
570.03        65.16045
570.47        65.49014
570.90        65.62861
571.34        64.99291
571.77        65.49092
572.21        65.65299
572.64        65.75967
573.08         65.5873
573.51        65.63783
573.95        65.70934
574.38        65.62497
574.82         65.4522
