SpectraSmart Spectrum 2.9.0.0
--------- Device Information -----------
Spectrum Name :  反射率_0
Saving Time :  2024/05/01 15:52:40
Spectro-Module Model Name : SE2030-DUVN
Spectro-Module Serial Number : OS361AC55029948
Wavelength Start : 200
Wavelength End : 1025
Wavelength Unit : Wavelength(nm)
Spectrum Unit : Reflectance(%)
-----------Spectrum Setting ------------
Integration Time : 20ms
Average : 10
Boxcar : 0
Background removal :  enabled
linearity correction :  enabled
SC :  disabled
Intensity correction :  disabled
DWT denoise :  enabled
savitzky-golay :  disabled
FFT :  disabled
Running average :  disabled
Kalman :  disabled
High pass :  disabled
---------------BEGIN--------------------
Wavelength(nm)             Reflectance(%)
200.29               0
200.75       -220.3719
201.21       -381.1407
201.67        19.52546
202.13       -3.260661
202.58        16.73697
203.04        39.27991
203.50        58.01764
203.96        70.88176
204.42        82.42722
204.88        109.4241
205.34        803.0558
205.80        -63.0433
206.26       -56.39507
206.72       -119.2311
207.18       -518.5173
207.64        695.2512
208.10        292.7969
208.55        204.3383
209.01        164.5597
209.47        141.5737
209.93        126.1968
210.39        113.0062
210.85        105.0835
211.31        111.3238
211.77        165.0734
212.23       -332.9058
212.69        -32.8554
213.14       -2.500088
213.60        22.97741
214.06       -146.0946
214.52       -21.21868
214.98       -7.587991
215.44        5.480769
215.90        38.58328
216.36        543.5977
216.81       -254.3367
217.27       -360.4244
217.73        798.0339
218.19        167.0807
218.65        111.0544
219.11        103.8681
219.57        126.2603
220.02        227.8703
220.48        123.0007
220.94        66.95819
221.40        54.84899
221.86        51.60669
222.32        51.15374
222.77        52.17052
223.23        54.77553
223.69        57.11915
224.15        54.05824
224.61         46.6391
225.06        39.03298
225.52        34.82114
225.98        34.75688
226.44        38.14248
226.90        45.03449
227.36        53.63948
227.81         56.2323
228.27        50.64709
228.73        42.18479
229.19        35.39022
229.65        32.36562
230.10        32.43724
230.56        34.96539
231.02        38.88958
231.48        41.14035
231.93         40.3455
232.39        38.07747
232.85        36.19416
233.31        36.46153
233.77        38.61819
234.22         41.6944
234.68         44.6592
235.14        46.51618
235.60         47.1675
236.05        46.99574
236.51        46.32723
236.97        46.51194
237.43         48.4451
237.88        51.65427
238.34        54.85725
238.80        57.36357
239.26        59.26514
239.71        61.25954
240.17        63.09856
240.63        63.75927
241.08        62.61106
241.54        60.37202
242.00        59.36343
242.46        61.95173
242.91        69.74112
243.37        84.51118
243.83        109.2845
244.28        129.2382
244.74        125.2648
245.20         110.831
245.66         97.8988
246.11        89.11573
246.57        82.26944
247.03        73.87431
247.48        60.56586
247.94         41.5583
248.40        23.32138
248.85        11.06577
249.31        10.76371
249.77        21.40829
250.22        35.96858
250.68        49.97542
251.14         60.7977
251.59        68.09869
252.05        73.86575
252.51        80.79981
252.96        93.48817
253.42        116.1653
253.88        123.8743
254.33        107.5417
254.79         93.9848
255.25        85.93923
255.70        80.30313
256.16        76.80297
256.62        73.99121
257.07        71.09978
257.53        68.86089
257.99        66.95352
258.44        65.49413
258.90        65.12089
259.35        65.21378
259.81         65.7418
260.27        65.99035
260.72        65.14439
261.18        63.56433
261.63        61.40162
262.09        59.39907
262.55        57.89939
263.00        56.78285
263.46        55.98183
263.91        55.11715
264.37        54.06226
264.83        52.75411
265.28        51.33181
265.74        49.97158
266.19        48.62975
266.65        47.43685
267.11         46.2851
267.56        45.31769
268.02        44.86945
268.47        44.89629
268.93        45.24469
269.38        45.54385
269.84        45.14201
270.30        43.93658
270.75        42.14402
271.21         40.1545
271.66        38.43579
272.12        37.19827
272.57         36.2544
273.03        35.57731
273.48        35.05897
273.94        34.65734
274.39        34.37434
274.85        34.11866
275.31        33.68558
275.76        33.03384
276.22         32.2503
276.67        31.41198
277.13        30.74323
277.58        30.22341
278.04        29.83706
278.49        29.45872
278.95        29.01661
279.40        28.45431
279.86        27.85588
280.31        27.26541
280.77        26.82508
281.22        26.50371
281.68        26.30688
282.13        26.09479
282.59        25.75582
283.04        25.25501
283.50        24.68582
283.95        24.16478
284.41        23.92298
284.86        23.97769
285.32        24.24567
285.77        24.58846
286.22        24.84978
286.68        24.98839
287.13        25.03323
287.59        25.00952
288.04        24.91651
288.50         24.7993
288.95         24.6191
289.41        24.46361
289.86        24.38736
290.32        24.43159
290.77        24.59159
291.22        24.81057
291.68        24.98276
292.13        25.10079
292.59        25.23492
293.04        25.48359
293.50        26.04931
293.95        26.94248
294.40        28.09367
294.86         29.3721
295.31        30.58025
295.77        31.65031
296.22        32.63026
296.68        33.57027
297.13        34.53769
297.58         35.5888
298.04        36.72924
298.49        37.97122
298.95        39.36942
299.40        40.89052
299.85        42.50234
300.31        44.19896
300.76        45.96241
301.21        47.79559
301.67        49.71878
302.12        51.60087
302.58        53.26143
303.03         54.6344
303.48        55.79623
303.94        57.00083
304.39         58.5384
304.84        60.51654
305.30        62.83261
305.75        65.25111
306.20        67.42329
306.66        69.24934
307.11         70.7776
307.57        72.17622
308.02        73.59898
308.47        75.13368
308.93        76.73183
309.38        78.27699
309.83        79.68243
310.29        80.94141
310.74        82.08162
311.19        83.19412
311.65        84.38967
312.10        85.66606
312.55        86.97758
313.00        88.27138
313.46        89.47285
313.91        90.54347
314.36         91.5064
314.82        92.32644
315.27        92.96363
315.72        93.40781
316.18        93.70242
316.63        93.90294
317.08        94.16454
317.53        94.53667
317.99        94.99782
318.44        95.50716
318.89        95.96343
319.35        96.33772
319.80        96.67286
320.25        97.00294
320.70        97.39011
321.16        97.83168
321.61         98.3047
322.06        98.78577
322.51        99.25865
322.97        99.68484
323.42        100.1117
323.87        100.4608
324.32        100.6305
324.78        100.6066
325.23        100.4574
325.68        100.3039
326.13        100.3633
326.59         100.673
327.04        101.2307
327.49        101.8991
327.94        102.4644
328.39        102.8498
328.85        103.0525
329.30        103.2451
329.75        103.5726
330.20        104.0785
330.66        104.6859
331.11        105.2925
331.56        105.6059
332.01        105.5843
332.46        105.3224
332.92        105.0529
333.37        105.2681
333.82        106.0545
334.27        107.3021
334.72         108.729
335.17        109.8257
335.63        110.3938
336.08        110.6105
336.53        110.6702
336.98        110.9655
337.43        111.6151
337.88        112.4962
338.34        113.4108
338.79        114.1258
339.24         114.522
339.69        114.6896
340.14         114.794
340.59        115.0802
341.05        115.6044
341.50        116.3145
341.95        117.0358
342.40        117.4939
342.85        117.6401
343.30         117.581
343.75        117.5469
344.20        117.8877
344.66         118.667
345.11        119.7554
345.56        120.9317
346.01        121.8184
346.46        122.2996
346.91        122.4996
347.36        122.5473
347.81        122.6458
348.26        122.8671
348.72        123.1449
349.17        123.4541
349.62        123.8304
350.07        124.2366
350.52        124.6466
350.97        124.9567
351.42        124.9819
351.87         124.704
352.32        124.2268
352.77        123.6079
353.22        122.9465
353.67        122.3004
354.13        121.6576
354.58        121.1338
355.03        121.0183
355.48        121.3268
355.93        122.0152
356.38        122.6752
356.83        122.6186
357.28        121.7298
357.73        120.2273
358.18        118.7061
358.63        118.0572
359.08        118.4255
359.53        119.5091
359.98        120.7215
360.43        121.0806
360.88          120.32
361.33         118.772
361.78        116.9247
362.23        115.4746
362.68        114.6123
363.13        114.1386
363.58        113.7954
364.03        113.1947
364.48        112.2301
364.93        111.0266
365.38         109.844
365.83        109.0408
366.28        108.6708
366.73        108.6204
367.18        108.5067
367.63        107.7383
368.08        106.2415
368.53        104.2483
368.98        102.2951
369.43        101.1595
369.88        100.9804
370.33        101.5124
370.78          102.27
371.23        102.3962
371.68        101.6452
372.13        100.3097
372.58        98.78999
373.03        97.67992
373.48        97.12954
373.93        96.91323
374.38        96.86253
374.83        96.72542
375.28        96.39688
375.72        95.96609
376.17         95.4409
376.62        94.75085
377.07        93.91511
377.52        92.94118
377.97        91.96678
378.42        91.22629
378.87        90.76833
379.32        90.53625
379.77        90.38624
380.22        90.08095
380.67        89.56532
381.11        88.91798
381.56        88.24548
382.01        87.74768
382.46        87.47791
382.91        87.35842
383.36        87.29723
383.81        87.15858
384.26        86.89576
384.71        86.55159
385.15        86.14099
385.60        85.73595
386.05        85.34668
386.50        84.95884
386.95        84.57551
387.40        84.21311
387.85        83.87165
388.29        83.49618
388.74        83.18334
389.19        82.86806
389.64        82.54104
390.09        82.21222
390.54         81.8545
390.98        81.41231
391.43        80.94876
391.88        80.46358
392.33        80.03852
392.78        79.79749
393.23        79.74297
393.67        79.76314
394.12        79.80266
394.57        79.72791
395.02        79.44895
395.47        78.78753
395.91        77.96697
396.36         77.5323
396.81        77.57639
397.26        77.90201
397.71        78.22191
398.15        78.19546
398.60        77.85397
399.05        77.04194
399.50        76.13161
399.95        76.15201
400.39        76.95025
400.84        77.10956
401.29        76.53242
401.74         76.2075
402.18        76.14914
402.63        75.69625
403.08        74.99748
403.53        74.59159
403.97        74.51429
404.42        74.60834
404.87        74.75769
405.32        74.75571
405.76        74.54032
406.21        74.33245
406.66        74.13621
407.11        73.71377
407.55        73.25301
408.00        73.22034
408.45        73.56281
408.90        73.90603
409.34        74.00067
409.79        73.48125
410.24        72.58559
410.68        72.16459
411.13        72.30383
411.58        72.50871
412.03        72.66016
412.47        72.79273
412.92        72.82529
413.37        72.76421
413.81        72.64803
414.26        72.59531
414.71        72.60917
415.15        72.67268
415.60        72.72417
416.05        72.72331
416.49        72.65918
416.94        72.54221
417.39        72.41214
417.83        72.31474
418.28        72.26985
418.73        72.26994
419.17        72.27544
419.62        72.24821
420.07        72.17834
420.51        72.01228
420.96        71.85757
421.41        71.90288
421.85        72.07941
422.30        72.19546
422.74        72.18397
423.19         72.1561
423.64        72.12933
424.08        72.17863
424.53        72.29474
424.98        72.42747
425.42        72.52299
425.87        72.71197
426.31        72.92796
426.76        72.56887
427.21        71.91491
427.65        72.26218
428.10        73.31927
428.54        73.65092
428.99        73.24426
429.44        72.44279
429.88        71.63887
430.33        72.22703
430.77         73.6741
431.22        73.67417
431.66        72.40146
432.11        71.93174
432.56        72.32054
433.00        72.83417
433.45        73.37108
433.89        72.84703
434.34         71.8459
434.78        74.05463
435.23        73.26817
435.67        73.43014
436.12        72.89214
436.57        73.30698
437.01        74.44078
437.46        75.01696
437.90        74.42153
438.35        74.05759
438.79        73.87508
439.24        73.50895
439.68        73.08989
440.13        73.26803
440.57          73.981
441.02        74.39855
441.46        74.36702
441.91        75.04415
442.35        75.10503
442.80          75.123
443.24        74.81345
443.69         74.6852
444.13        74.76081
444.58        74.79144
445.02        74.75594
445.47        74.92696
445.91        75.30614
446.36        75.53729
446.80        75.52637
447.24        76.37246
447.69        76.22635
448.13        76.40154
448.58        76.46554
449.02        76.37481
449.47         76.2308
449.91        76.14079
450.36         76.1669
450.80        76.23945
451.25        76.31892
451.69        76.29377
452.13        76.15408
452.58         75.9453
453.02        75.70594
453.47        75.55425
453.91        75.50186
454.36        75.47894
454.80         75.4578
455.24        75.46697
455.69        75.41071
456.13        75.13251
456.58        74.85028
457.02        74.16883
457.46        74.51381
457.91        74.80296
458.35        75.21126
458.79         75.1703
459.24        74.64396
459.68        74.04723
460.13        73.70783
460.57         72.6358
461.01        72.97409
461.46        73.12917
461.90        73.51608
462.34        73.38917
462.79        72.86768
463.23        72.87064
463.68        73.30354
464.12        73.38276
464.56        73.08966
465.01        72.75014
465.45        72.67694
465.89        72.79663
466.34        72.99964
466.78        73.25861
467.22         72.3119
467.67        72.18054
468.11        72.22481
468.55         72.2739
468.99        72.20778
469.44        72.12914
469.88         72.0286
470.32        72.26418
470.77        72.09444
471.21        72.11945
471.65        72.10011
472.10        72.07409
472.54        72.01126
472.98        71.89072
473.42        71.71651
473.87        71.57266
474.31         71.4529
474.75        71.24149
475.20        71.01921
475.64        71.18477
476.08        71.60585
476.52        71.64708
476.97        71.23314
477.41          71.428
477.85        70.16461
478.29        71.03983
478.74        70.92157
479.18        70.99503
479.62        70.58997
480.06        70.49709
480.50        70.72153
480.95        70.32598
481.39        70.97529
481.83        69.97093
482.27        70.39687
482.72        70.32835
483.16        70.19962
483.60        70.24255
484.04        70.30666
484.48        70.26898
484.93        70.43664
485.37         70.6951
485.81        70.81035
486.25        71.72751
486.69        71.29031
487.14        69.16303
487.58        68.61456
488.02        71.14878
488.46        69.98926
488.90        69.75723
489.34        70.16619
489.79        69.64579
490.23        70.00168
490.67        69.69488
491.11        69.32069
491.55        69.46974
491.99        70.02776
492.43        70.22758
492.88        69.98901
493.32        69.75593
493.76        69.61017
494.20        69.53661
494.64        69.54852
495.08        69.60484
495.52        69.70301
495.96        69.77477
496.41        69.75769
496.85        69.98884
497.29        69.96068
497.73        69.52528
498.17        68.77825
498.61        68.51117
499.05        68.78197
499.49        69.22058
499.93        69.62223
500.37        69.58743
500.82        69.20441
501.26        69.14893
501.70         69.4486
502.14        69.63781
502.58        69.63897
503.02        69.57915
503.46        69.45608
503.90        69.23233
504.34        68.99307
504.78        68.90514
505.22        68.99998
505.66        69.18133
506.10        69.37091
506.54        69.55228
506.98        69.60789
507.42        69.38204
507.86        68.78757
508.30        68.53025
508.74        68.60416
509.18        68.75589
509.62        68.91824
510.06        69.08373
510.50        69.21478
510.94         69.3112
511.38        69.36565
511.82        69.36468
512.26        69.30766
512.70        69.19136
513.14        69.04105
513.58        68.90256
514.02        68.79343
514.46        68.71459
514.90        68.64767
515.34        68.57056
515.78        68.45893
516.22        68.34608
516.66        68.26538
517.10        68.27615
517.54        68.38308
517.98        68.56019
518.42        68.74962
518.86        68.85674
519.30        68.85848
519.74        68.78458
520.18        68.67837
520.62        68.61263
521.06         68.6056
521.50        68.62463
521.93        68.66229
522.37        68.69661
522.81        68.72037
523.25        68.75032
523.69        68.74741
524.13        68.64513
524.57        68.44855
525.01        68.18678
525.45        67.95249
525.89        67.89226
526.32        68.02914
526.76         68.3083
527.20        68.63469
527.64        68.85533
528.08        68.92156
528.52        68.88128
528.96        68.76611
529.40        68.62909
529.83        68.49094
530.27        68.35165
530.71        68.23939
531.15         68.2174
531.59        68.29361
532.03        68.45371
532.46         68.6292
532.90         68.7251
533.34         68.7181
533.78        68.58405
534.22        68.38731
534.66        68.34813
535.09        68.42445
535.53         68.3378
535.97         68.1069
536.41        68.00937
536.85        68.05466
537.28        68.08938
537.72         68.0965
538.16         68.1097
538.60        68.11965
539.04        68.11633
539.47        68.09291
539.91        68.07856
540.35        68.05977
540.79        68.05642
541.22        68.07007
541.66         68.0072
542.10         68.0394
542.54        68.02789
542.97        68.01102
543.41        68.00253
543.85        67.99144
544.29        67.97684
544.72        67.95181
545.16        67.94317
545.60        67.94151
546.04        67.93874
546.47        67.92783
546.91        67.92332
547.35         67.9343
547.79        67.89921
548.22        67.78796
548.66        67.79836
549.10         67.8829
549.53        67.49216
549.97        67.29421
550.41        67.17799
550.84        67.34481
551.28        67.63892
551.72        67.95865
552.15        68.10546
552.59        68.06635
553.03        68.07536
553.46        67.97933
553.90        68.01149
554.34        68.13587
554.77        68.19728
555.21        68.10667
555.65        68.47959
556.08        68.05044
556.52        67.76104
556.96        67.37154
557.39        67.09066
557.83        66.94446
558.27        67.34992
558.70        67.18318
559.14        67.49894
559.57        67.49735
560.01        67.69457
560.45        67.84358
560.88        67.83948
561.32        67.74627
561.75        67.30524
562.19        66.77874
562.63        67.08632
563.06         67.9825
563.50        67.92947
563.93        67.04299
564.37        66.80434
564.80         67.2167
565.24        67.49155
565.68        67.52493
566.11        67.52611
566.55        67.50432
566.98        67.36122
567.42          67.214
567.85        67.22363
568.29        67.42091
568.72        67.61798
569.16        67.81349
569.60        67.91721
570.03        67.86046
570.47        67.69189
570.90        68.02426
571.34        67.13637
571.77        67.51863
572.21        67.45302
572.64         67.6429
573.08        67.31871
573.51        67.59194
573.95        67.81246
574.38        67.82563
574.82        67.91292
