SpectraSmart Spectrum 2.9.0.0
--------- Device Information -----------
Spectrum Name :  反射率_0
Saving Time :  2024/05/01 15:54:50
Spectro-Module Model Name : SE2030-DUVN
Spectro-Module Serial Number : OS361AC55029948
Wavelength Start : 200
Wavelength End : 1025
Wavelength Unit : Wavelength(nm)
Spectrum Unit : Reflectance(%)
-----------Spectrum Setting ------------
Integration Time : 20ms
Average : 10
Boxcar : 0
Background removal :  enabled
linearity correction :  enabled
SC :  disabled
Intensity correction :  disabled
DWT denoise :  enabled
savitzky-golay :  disabled
FFT :  disabled
Running average :  disabled
Kalman :  disabled
High pass :  disabled
---------------BEGIN--------------------
Wavelength(nm)             Reflectance(%)
200.29               0
200.75        41.14129
201.21         288.366
201.67       -140.0214
202.13        -43.8382
202.58       -4.848307
203.04        21.17015
203.50         38.3556
203.96        46.79719
204.42        48.75485
204.88        43.11562
205.34       -142.3668
205.80        75.47809
206.26           53.91
206.72        26.02856
207.18       -101.2208
207.64        260.2955
208.10        132.9235
208.55        101.8065
209.01        86.74942
209.47        80.23176
209.93        78.29697
210.39        77.25677
210.85        77.59752
211.31        81.19855
211.77        96.68858
212.23       -46.85735
212.69        46.19887
213.14        73.00576
213.60        148.2223
214.06       -647.7189
214.52       -92.94802
214.98       -52.43493
215.44        -35.9144
215.90       -14.79769
216.36        221.2679
216.81       -131.9273
217.27       -138.9572
217.73        98.16219
218.19       -32.05952
218.65       -53.17788
219.11       -77.53926
219.57        -140.445
220.02       -359.6682
220.48       -157.4201
220.94       -42.56422
221.40       -15.15281
221.86       -4.891687
222.32        1.488114
222.77         8.04155
223.23        16.31335
223.69        26.33064
224.15        31.64949
224.61        29.22909
225.06        23.88055
225.52        19.71377
225.98        18.06997
226.44        18.53981
226.90        20.49326
227.36        23.92597
227.81        27.31778
228.27        28.87983
228.73        29.09954
229.19        28.65936
229.65        27.97111
230.10        27.05781
230.56        25.90903
231.02        24.34398
231.48        22.64684
231.93        21.39627
232.39        20.73572
232.85        21.05523
233.31        22.72181
233.77        25.34225
234.22        28.54084
234.68        31.46235
235.14        33.32265
235.60        34.06823
236.05        33.82277
236.51        32.85954
236.97        32.40338
237.43        33.30723
237.88        35.35008
238.34         37.1339
238.80         37.1417
239.26         34.7689
239.71        29.59611
240.17        21.39487
240.63        14.16895
241.08        13.79033
241.54        20.30869
242.00        29.33113
242.46        37.94313
242.91        47.80445
243.37        61.43453
243.83        83.12601
244.28        105.5893
244.74        110.6244
245.20        104.1414
245.66        95.66808
246.11        88.41473
246.57         81.1329
247.03        70.37641
247.48        52.85408
247.94        30.58628
248.40        13.21465
248.85        5.189324
249.31        8.885223
249.77         19.3543
250.22        30.84616
250.68        41.26849
251.14        49.09825
251.59        54.29199
252.05        58.19645
252.51         61.9255
252.96        67.24582
253.42        77.63857
253.88        82.55557
254.33        76.28335
254.79        69.22182
255.25        62.58546
255.70        56.50323
256.16        51.96085
256.62        49.31077
257.07         48.9982
257.53        50.38381
257.99        52.10307
258.44        53.35982
258.90         53.9302
259.35        53.59606
259.81        52.92068
260.27        51.87259
260.72        50.50616
261.18        49.22085
261.63        47.82477
262.09        46.65245
262.55        45.73721
263.00        44.94935
263.46         44.3194
263.91         43.6176
264.37        42.80346
264.83        41.82925
265.28        40.76986
265.74        39.70644
266.19        38.52481
266.65         37.3456
267.11        36.14091
267.56        35.10538
268.02        34.63292
268.47        34.71694
268.93        35.17591
269.38        35.69299
269.84        35.69452
270.30        35.05546
270.75        33.94038
271.21        32.58217
271.66        31.22934
272.12        30.05458
272.57        28.95479
273.03        28.02932
273.48        27.38318
273.94        27.02658
274.39        26.90405
274.85        26.87556
275.31        26.68093
275.76        26.25797
276.22        25.70957
276.67        25.08867
277.13        24.55986
277.58        24.10873
278.04        23.71346
278.49        23.31879
278.95         22.9496
279.40         22.5612
279.86        22.19221
280.31        21.79749
280.77         21.3745
281.22        20.89826
281.68        20.43399
282.13        19.95997
282.59        19.50679
283.04        19.07229
283.50        18.68944
283.95        18.40843
284.41        18.34458
284.86        18.48732
285.32        18.78539
285.77        19.14081
286.22        19.44171
286.68        19.66213
287.13        19.81596
287.59        19.91453
288.04        19.93943
288.50        19.92544
288.95         19.8448
289.41        19.78761
289.86        19.82605
290.32        19.99265
290.77        20.26866
291.22        20.58538
291.68        20.82341
292.13        20.97174
292.59        21.10961
293.04        21.31934
293.50        21.77365
293.95        22.49198
294.40        23.42193
294.86        24.49366
295.31        25.60697
295.77        26.70705
296.22        27.80662
296.68        28.88856
297.13        29.91968
297.58        30.92855
298.04        31.95583
298.49        33.03927
298.95        34.27286
299.40         35.6472
299.85        37.11594
300.31        38.69123
300.76        40.39151
301.21        42.20961
301.67        44.14494
302.12        46.02259
302.58        47.58727
303.03        48.76088
303.48        49.64749
303.94        50.51595
304.39        51.68797
304.84         53.2771
305.30        55.16871
305.75         57.1619
306.20         58.9591
306.66        60.46844
307.11        61.73705
307.57        62.86715
308.02        63.92373
308.47        64.97247
308.93         65.9849
309.38        66.93093
309.83        67.84997
310.29        68.75967
310.74        69.66017
311.19        70.53687
311.65        71.33648
312.10         72.0369
312.55        72.65107
313.00        73.26154
313.46        74.00245
313.91         74.8779
314.36        75.83857
314.82        76.72103
315.27        77.27632
315.72        77.44098
316.18        77.32271
316.63        77.07066
317.08        76.96336
317.53        77.08003
317.99        77.35136
318.44        77.69442
318.89        77.95489
319.35        78.08789
319.80        78.16327
320.25         78.2291
320.70        78.35626
321.16        78.55585
321.61        78.80347
322.06        79.08555
322.51        79.40321
322.97        79.72218
323.42        80.06593
323.87        80.36579
324.32        80.52916
324.78        80.53274
325.23        80.43462
325.68        80.29063
326.13         80.2131
326.59        80.22667
327.04        80.34502
327.49        80.54604
327.94        80.80721
328.39        81.10704
328.85        81.41669
329.30        81.76441
329.75        82.07453
330.20        82.32932
330.66        82.51723
331.11        82.67937
331.56        82.79276
332.01        82.87727
332.46        82.94219
332.92        83.04151
333.37        83.35156
333.82        83.87915
334.27         84.5993
334.72          85.399
335.17         86.0698
335.63        86.51464
336.08        86.80841
336.53        87.02322
336.98          87.338
337.43        87.80845
337.88        88.39381
338.34        88.96773
338.79         89.3908
339.24        89.59458
339.69        89.62533
340.14        89.65378
340.59        89.93997
341.05        90.53091
341.50         91.3779
341.95        92.24063
342.40        92.73202
342.85        92.78258
343.30        92.52151
343.75        92.27225
344.20        92.53831
344.66        93.41389
345.11        94.72069
345.56        96.13127
346.01        97.09389
346.46        97.45443
346.91        97.40059
347.36        97.16698
347.81        97.11256
348.26        97.35357
348.72        97.78186
349.17        98.30422
349.62        98.84289
350.07        99.32788
350.52        99.75916
350.97        100.1008
351.42        100.2745
351.87         100.273
352.32        100.1544
352.77        99.86954
353.22        99.35923
353.67        98.66708
354.13        97.84898
354.58        97.15157
355.03        97.04243
355.48        97.57588
355.93        98.63238
356.38        99.74302
356.83          100.11
357.28        99.56136
357.73        98.35142
358.18        97.02284
358.63        96.39268
359.08        96.61969
359.53        97.42279
359.98        98.37031
360.43        98.74401
360.88        98.33141
361.33        97.38655
361.78        96.20325
362.23        95.18681
362.68        94.46465
363.13        93.91718
363.58        93.44307
364.03        92.90823
364.48        92.27163
364.93         91.5819
365.38         90.9426
365.83        90.48011
366.28        90.19978
366.73        90.05775
367.18        89.84308
367.63         89.2361
368.08        88.20782
368.53        86.88364
368.98        85.58787
369.43        84.79084
369.88        84.57166
370.33        84.78533
370.78        85.12889
371.23        85.06805
371.68        84.45704
372.13        83.48317
372.58        82.40407
373.03        81.60018
373.48        81.16221
373.93         80.9402
374.38        80.82541
374.83        80.65531
375.28        80.36157
375.72        80.00287
376.17        79.57198
376.62        78.99508
377.07        78.28677
377.52        77.46358
377.97        76.65897
378.42        76.09365
378.87        75.80735
379.32         75.7361
379.77        75.73322
380.22        75.56177
380.67        75.16738
381.11        74.63041
381.56        74.04906
382.01        73.60842
382.46        73.36111
382.91        73.23232
383.36        73.16174
383.81        73.06157
384.26        72.89263
384.71        72.68664
385.15        72.41203
385.60        72.05985
386.05        71.63049
386.50        71.13841
386.95        70.65154
387.40        70.28265
387.85        70.05264
388.29         69.8832
388.74        69.79453
389.19        69.64483
389.64        69.40375
390.09        69.09495
390.54        68.74868
390.98        68.40268
391.43        68.12316
391.88        67.88287
392.33        67.66618
392.78        67.47899
393.23        67.32058
393.67        67.08855
394.12        66.85863
394.57         66.8129
395.02        66.85135
395.47        66.50522
395.91        65.89938
396.36        65.62908
396.81        65.74562
397.26          65.965
397.71         66.1158
398.15        66.05713
398.60        65.82657
399.05        65.32534
399.50         64.7837
399.95        64.75279
400.39        65.18209
400.84        65.39919
401.29        65.26698
401.74        65.06507
402.18        64.77261
402.63        64.14632
403.08        63.40284
403.53        62.99474
403.97        62.97662
404.42        63.21122
404.87        63.54005
405.32        63.68999
405.76        63.57874
406.21        63.41526
406.66        63.23031
407.11        62.87292
407.55        62.51247
408.00        62.52234
408.45        62.85181
408.90        63.15557
409.34        63.23636
409.79        62.86278
410.24        62.20909
410.68        61.88985
411.13        61.97239
411.58        62.08883
412.03        62.17397
412.47        62.29763
412.92        62.40302
413.37        62.48053
413.81        62.51913
414.26        62.55599
414.71        62.58223
415.15        62.60522
415.60        62.60714
416.05        62.61356
416.49        62.63152
416.94        62.64879
417.39        62.67477
417.83        62.70907
418.28        62.75521
418.73        62.82416
419.17        62.88593
419.62        62.89421
420.07        62.84236
420.51        62.73252
420.96        62.67352
421.41        62.72588
421.85        62.87842
422.30        63.25032
422.74          63.694
423.19        63.82209
423.64        63.69546
424.08        63.90905
424.53        64.41837
424.98        64.67707
425.42        64.62962
425.87        64.72277
426.31        64.93296
426.76         64.6386
427.21        64.08105
427.65        64.37077
428.10        65.27255
428.54        65.63875
428.99        65.45882
429.44        64.91641
429.88        64.34735
430.33        65.08402
430.77        66.60195
431.22        66.67677
431.66        65.49091
432.11        65.08217
432.56        65.56416
433.00        66.14964
433.45        66.66394
433.89         66.3702
434.34        65.77294
434.78        67.07444
435.23         67.0976
435.67        67.39019
436.12        67.10345
436.57        67.40721
437.01        68.19109
437.46        68.88531
437.90        68.59473
438.35        68.64626
438.79        68.79652
439.24         68.6213
439.68        68.22723
440.13        68.22517
440.57        68.68167
441.02        69.00085
441.46         69.0801
441.91         69.7478
442.35        70.54842
442.80        70.05076
443.24        70.14125
443.69        70.02007
444.13         70.2515
444.58        70.32665
445.02        70.23006
445.47        70.33867
445.91        70.66856
446.36        70.88016
446.80        70.89159
447.24        71.85315
447.69        71.79556
448.13        72.16108
448.58        72.37175
449.02        72.45853
449.47        72.47955
449.91        72.52712
450.36        72.65813
450.80         72.8115
451.25        72.93667
451.69        72.90963
452.13        72.72012
452.58        72.41246
453.02        72.08428
453.47        71.92052
453.91        71.94661
454.36        72.14791
454.80        72.38576
455.24        72.38204
455.69        72.09301
456.13        71.70369
456.58        71.48801
457.02         71.0705
457.46        71.48943
457.91        72.17014
458.35        72.61414
458.79         72.6963
459.24        72.22267
459.68        71.49717
460.13        70.90257
460.57         69.7995
461.01        70.31531
461.46        70.11932
461.90        71.08756
462.34        70.73055
462.79        70.07088
463.23        70.19151
463.68         71.0534
464.12        71.27423
464.56        70.80404
465.01        70.38347
465.45        70.09177
465.89        70.18584
466.34        70.53143
466.78        70.42992
467.22        69.92335
467.67        69.69619
468.11        69.71922
468.55        69.85117
468.99        69.98045
469.44        70.02163
469.88        69.96082
470.32        69.87572
470.77        69.81348
471.21        69.81096
471.65        69.85493
472.10        69.97879
472.54         70.1256
472.98        70.10413
473.42        69.87175
473.87        69.99479
474.31        69.66218
474.75        69.44413
475.20        69.19733
475.64        69.18279
476.08        69.33895
476.52        69.37015
476.97        69.25795
477.41        69.16125
477.85        68.83778
478.29        69.12642
478.74        69.14549
479.18        69.09347
479.62        68.63706
480.06        68.59688
480.50        68.97517
480.95         68.3018
481.39        68.89262
481.83        68.65791
482.27        68.40574
482.72        68.83926
483.16        68.53366
483.60        68.75055
484.04        68.97768
484.48        69.04261
484.93        69.19128
485.37        69.59686
485.81        69.46046
486.25        70.15737
486.69        69.70431
487.14        67.50269
487.58        66.78261
488.02        68.89999
488.46          67.891
488.90        68.18185
489.34        68.92979
489.79        68.93014
490.23        68.64321
490.67        68.39574
491.11        68.39507
491.55        68.60371
491.99        68.91124
492.43         68.9889
492.88        68.79814
493.32        68.58759
493.76        68.43755
494.20        68.38264
494.64        68.43526
495.08        68.55259
495.52        68.73446
495.96        68.84149
496.41        68.79727
496.85        68.94784
497.29        69.24844
497.73        68.26357
498.17        68.03371
498.61        67.70941
499.05        67.91466
499.49        68.23701
499.93        68.51653
500.37        68.63863
500.82        68.64301
501.26         68.5099
501.70        68.56056
502.14         69.1132
502.58        68.68349
503.02        68.61795
503.46        68.46997
503.90        68.24133
504.34        68.00268
504.78        67.92521
505.22        68.04324
505.66        68.28882
506.10        68.56819
506.54        68.71746
506.98        68.63017
507.42        68.52557
507.86        67.92236
508.30        67.72333
508.74        67.80338
509.18        67.99017
509.62        68.20993
510.06        68.41288
510.50        68.56169
510.94        68.66915
511.38        68.72679
511.82        68.71873
512.26        68.64739
512.70         68.5067
513.14        68.34396
513.58        68.24042
514.02        68.21498
514.46        68.25751
514.90         68.3091
515.34        68.26673
515.78        68.11577
516.22        67.89703
516.66        67.69198
517.10        67.62454
517.54        67.71952
517.98        67.93133
518.42        68.18703
518.86        68.36727
519.30        68.43378
519.74        68.41982
520.18        68.35973
520.62        68.31158
521.06        68.29202
521.50        68.27267
521.93        68.25213
522.37        68.22166
522.81        68.18359
523.25        68.15543
523.69        68.11293
524.13        68.01037
524.57        67.85234
525.01         67.6585
525.45        67.49758
525.89         67.4775
526.32        67.61207
526.76         67.8589
527.20        68.13549
527.64        68.31127
528.08        68.34785
528.52        68.28716
528.96        68.16926
529.40        68.05883
529.83        67.97707
530.27         67.9236
530.71        67.90417
531.15        67.94604
531.59         68.0471
532.03        68.19395
532.46        68.34585
532.90        68.45631
533.34        68.50618
533.78        68.45296
534.22        68.31344
534.66        68.23507
535.09        68.17009
535.53        67.87804
535.97        67.43505
536.41        67.20316
536.85        67.21604
537.28         67.2925
537.72        67.39546
538.16        67.52444
538.60        67.64668
539.04        67.75561
539.47        67.81709
539.91        67.81811
540.35        67.74429
540.79        67.63241
541.22        67.51995
541.66        67.37642
542.10        67.39135
542.54         67.4088
542.97        67.46236
543.41        67.55458
543.85        67.66153
544.29        67.78408
544.72        67.87912
545.16        67.91667
545.60        67.87793
546.04        67.76969
546.47        67.63613
546.91        67.56458
547.35        67.58237
547.79        67.64868
548.22        67.68367
548.66        67.70727
549.10          67.706
549.53        67.38137
549.97        67.37393
550.41        67.33636
550.84        67.45853
551.28        67.68961
551.72        67.95731
552.15        68.10808
552.59        68.12894
553.03        68.09219
553.46        67.99978
553.90        67.95746
554.34        67.98485
554.77        67.89737
555.21        67.66197
555.65        68.04615
556.08        67.73951
556.52        67.67428
556.96        67.49582
557.39        67.42911
557.83        67.50309
558.27        67.52589
558.70        67.49126
559.14        67.75872
559.57        67.70989
560.01        67.91161
560.45        68.07082
560.88        67.94955
561.32        67.66678
561.75        67.34383
562.19        67.14317
562.63        67.42017
563.06        67.97603
563.50        67.84436
563.93        67.14142
564.37        66.94124
564.80        67.24891
565.24        67.51047
565.68        67.60472
566.11        67.60713
566.55        67.54313
566.98        67.34953
567.42         67.1731
567.85        67.30537
568.29        67.69781
568.72        67.86872
569.16        67.87412
569.60        67.88842
570.03        67.84095
570.47        67.86952
570.90        68.20791
571.34        67.19292
571.77        67.76488
572.21        67.65427
572.64        67.71233
573.08        67.62175
573.51        67.76815
573.95        68.01536
574.38        67.88408
574.82        68.03045
