SpectraSmart Spectrum 2.9.0.0
--------- Device Information -----------
Spectrum Name :  反射率_0
Saving Time :  2024/05/01 16:12:14
Spectro-Module Model Name : SE2030-DUVN
Spectro-Module Serial Number : OS361AC55029948
Wavelength Start : 200
Wavelength End : 1025
Wavelength Unit : Wavelength(nm)
Spectrum Unit : Reflectance(%)
-----------Spectrum Setting ------------
Integration Time : 20ms
Average : 10
Boxcar : 0
Background removal :  enabled
linearity correction :  enabled
SC :  disabled
Intensity correction :  disabled
DWT denoise :  enabled
savitzky-golay :  disabled
FFT :  disabled
Running average :  disabled
Kalman :  disabled
High pass :  disabled
---------------BEGIN--------------------
Wavelength(nm)             Reflectance(%)
200.29               0
200.75         30.6959
201.21        336.4998
201.67       -174.3684
202.13       -51.97575
202.58       0.5141344
203.04        37.05584
203.50         61.7786
203.96        74.38538
204.42        78.52171
204.88         75.0899
205.34       -53.15176
205.80        84.13634
206.26         51.5493
206.72       -7.584331
207.18       -305.0248
207.64        559.4719
208.10        260.3678
208.55         188.966
209.01        153.7336
209.47        132.1377
209.93        117.0657
210.39        103.0357
210.85        92.08358
211.31        89.26677
211.77        108.2212
212.23       -114.0015
212.69          16.977
213.14         32.0953
213.60         52.9253
214.06       -128.3186
214.52        4.062819
214.98        22.63825
215.44        46.67295
215.90          114.75
216.36        1122.181
216.81       -415.7622
217.27       -477.8629
217.73        820.7975
218.19        128.1047
218.65        66.27695
219.11        55.14431
219.57        77.06309
220.02        214.1402
220.48        138.9023
220.94        63.95372
221.40        44.40231
221.86        39.20568
222.32        41.12747
222.77        48.15022
223.23        60.57465
223.69        76.33949
224.15        81.64012
224.61        72.46163
225.06        59.01344
225.52        49.74868
225.98        47.02692
226.44        49.68059
226.90          56.865
227.36        67.03384
227.81        72.35967
228.27         69.4929
228.73        63.36007
229.19        58.32697
229.65        56.79525
230.10        58.44098
230.56         62.5595
231.02        68.16654
231.48        71.94327
231.93        72.01826
232.39        70.30112
232.85        68.24091
233.31        67.17824
233.77        67.27462
234.22        67.92731
234.68        69.15958
235.14        71.22225
235.60        74.39363
236.05        79.51355
236.51        86.86536
236.97        95.01702
237.43        101.3232
237.88          104.32
238.34        104.4329
238.80        105.3956
239.26        108.9559
239.71        116.0825
240.17        125.9342
240.63         132.271
241.08        128.5936
241.54        117.4934
242.00         108.288
242.46        108.6306
242.91        120.8559
243.37        148.1122
243.83        191.9135
244.28        214.5176
244.74        188.1414
245.20        148.6653
245.66        119.7237
246.11        104.7457
246.57        98.48212
247.03        96.45906
247.48        95.68677
247.94        88.27146
248.40        71.13638
248.85        51.29225
249.31         40.2648
249.77        44.03186
250.22        56.59259
250.68        71.22639
251.14        83.78615
251.59        93.64066
252.05        103.8109
252.51        120.2244
252.96        160.1734
253.42        247.6355
253.88        303.1835
254.33        266.7172
254.79        222.8092
255.25        192.1252
255.70        168.8912
256.16        152.1174
256.62         139.328
257.07        129.8039
257.53        124.3245
257.99         121.163
258.44        119.9056
258.90        121.4524
259.35        124.4582
259.81        128.6753
260.27        132.5618
260.72        134.1437
261.18        133.7468
261.63        131.5934
262.09        129.0481
262.55         126.647
263.00        124.3235
263.46        122.2659
263.91        119.9845
264.37        117.6914
264.83        115.2683
265.28        112.7922
265.74        110.5616
266.19        108.3753
266.65        106.4215
267.11        104.5426
267.56         102.848
268.02        101.6861
268.47         100.982
268.93        100.6065
269.38        100.1612
269.84        98.98808
270.30        96.99519
270.75        94.39131
271.21        91.65993
271.66        89.34306
272.12        87.65827
272.57        86.31682
273.03        85.20311
273.48        83.99766
273.94        82.69746
274.39        81.36863
274.85        80.04861
275.31        78.58887
275.76        76.97095
276.22        75.32166
276.67        73.75087
277.13        72.68455
277.58        72.00341
278.04        71.64931
278.49        71.23193
278.95        70.38913
279.40        68.98886
279.86         67.3181
280.31        65.56248
280.77        64.19767
281.22        63.19093
281.68        62.50042
282.13        61.88525
282.59        61.20628
283.04        60.35534
283.50        59.51039
283.95        58.69122
284.41        58.04459
284.86        57.57616
285.32        57.27053
285.77         57.1216
286.22        57.24427
286.68        57.60412
287.13        58.10678
287.59        58.56949
288.04        58.63164
288.50        58.27825
288.95        57.57761
289.41        56.80785
289.86        56.20626
290.32        55.91704
290.77        55.84774
291.22        55.95033
291.68        56.11496
292.13        56.30568
292.59         56.6225
293.04        57.11234
293.50        57.90885
293.95        58.99698
294.40        60.31875
294.86        61.77718
295.31        63.23291
295.77        64.62561
296.22        65.94063
296.68          67.208
297.13        68.43644
297.58        69.67706
298.04        70.96773
298.49        72.27931
298.95        73.62355
299.40        74.97255
299.85        76.33051
300.31        77.82369
300.76        79.58981
301.21        81.66064
301.67        83.98391
302.12         86.2799
302.58        88.15919
303.03        89.47699
303.48        90.39087
303.94        91.24775
304.39         92.4043
304.84         94.0248
305.30        95.97649
305.75         98.0311
306.20        99.88791
306.66        101.4659
307.11        102.7984
307.57        104.0159
308.02        105.1524
308.47        106.2874
308.93        107.3951
309.38        108.4298
309.83        109.4441
310.29        110.4652
310.74        111.4841
311.19        112.4767
311.65        113.3694
312.10        114.1235
312.55        114.7515
313.00        115.3843
313.46        116.2332
313.91        117.3047
314.36        118.5263
314.82        119.6265
315.27        120.1869
315.72        120.1185
316.18        119.6141
316.63        118.9491
317.08        118.6276
317.53         118.778
317.99        119.2538
318.44        119.8885
318.89        120.3677
319.35        120.5909
319.80        120.6867
320.25        120.7189
320.70        120.7879
321.16        120.9207
321.61        121.0802
322.06        121.2978
322.51        121.6635
322.97        122.1429
323.42        122.7498
323.87        123.3176
324.32        123.5952
324.78        123.5171
325.23        123.2018
325.68        122.7793
326.13        122.4937
326.59        122.4077
327.04        122.5194
327.49        122.7786
327.94        123.1247
328.39        123.5126
328.85         123.904
329.30        124.3545
329.75        124.7593
330.20        125.0939
330.66         125.337
331.11        125.5263
331.56        125.5862
332.01        125.5411
332.46         125.417
332.92          125.35
333.37        125.6917
333.82        126.4751
334.27        127.6442
334.72        128.9585
335.17        129.9801
335.63        130.5289
336.08        130.7427
336.53        130.8078
336.98        131.1238
337.43        131.7975
337.88        132.7174
338.34        133.6057
338.79        134.1107
339.24        134.0997
339.69        133.7103
340.14        133.2635
340.59        133.2502
341.05        133.7757
341.50        134.7135
341.95        135.7313
342.40        136.2958
342.85         136.285
343.30        135.8816
343.75        135.4223
344.20        135.4223
344.66        135.9939
345.11        136.9582
345.56         138.043
346.01        138.7941
346.46        139.0786
346.91          139.06
347.36        138.9131
347.81        138.8971
348.26        139.0932
348.72          139.41
349.17        139.7708
349.62        140.1411
350.07        140.4594
350.52        140.7059
350.97        140.8206
351.42        140.6937
351.87        140.3199
352.32        139.7789
352.77        139.0591
353.22        138.1528
353.67        137.1091
354.13        135.9698
354.58        134.9333
355.03         134.423
355.48        134.4816
355.93         135.017
356.38        135.5659
356.83        135.3526
357.28        134.2322
357.73        132.4558
358.18        130.6261
358.63        129.6333
359.08        129.6303
359.53        130.3184
359.98        131.1433
360.43        131.1911
360.88        130.2195
361.33        128.5412
361.78         126.626
362.23        125.1356
362.68        124.2336
363.13        123.7161
363.58        123.2889
364.03        122.5122
364.48        121.2751
364.93        119.7239
365.38        118.1594
365.83        117.0033
366.28        116.3327
366.73        116.0233
367.18        115.6992
367.63        114.7773
368.08        113.1779
368.53        111.1279
368.98        109.1309
369.43        107.9084
369.88        107.5854
370.33        107.9315
370.78        108.4755
371.23        108.3996
371.68        107.4771
372.13        105.9822
372.58        104.3379
373.03        103.1701
373.48        102.6203
373.93        102.4549
374.38        102.4251
374.83        102.1461
375.28        101.4971
375.72        100.6168
376.17        99.63575
376.62        98.66547
377.07        97.76604
377.52        96.89182
377.97         96.0857
378.42        95.43165
378.87        94.93544
379.32        94.58076
379.77        94.28642
380.22        93.91006
380.67        93.41615
381.11        92.84776
381.56        92.24702
382.01        91.71684
382.46        91.29292
382.91        90.93689
383.36        90.63436
383.81         90.3637
384.26        90.10138
384.71        89.85182
385.15        89.56091
385.60        89.19378
386.05        88.73515
386.50        88.20903
386.95        87.66781
387.40         87.2054
387.85         86.8395
388.29        86.47781
388.74        86.19804
389.19        85.90963
389.64        85.59606
390.09        85.27258
390.54        84.89925
390.98        84.44487
391.43        83.98708
391.88         83.3934
392.33        82.78342
392.78        82.64648
393.23        82.84284
393.67        82.55287
394.12        81.90566
394.57        81.69108
395.02        81.80507
395.47         81.3613
395.91        80.52224
396.36        80.17739
396.81        80.37785
397.26        80.72093
397.71        80.97573
398.15        80.87308
398.60        80.44274
399.05        79.78453
399.50        79.13199
399.95        78.69701
400.39          78.604
400.84        78.93642
401.29        79.43859
401.74        79.51208
402.18         79.0024
402.63         77.9836
403.08        76.83005
403.53        76.17188
403.97        76.11554
404.42        76.41814
404.87        76.81592
405.32        76.94411
405.76        76.68785
406.21        76.23304
406.66        75.72574
407.11        75.29999
407.55        75.10291
408.00        75.23613
408.45        75.56263
408.90        75.70375
409.34        75.50716
409.79        74.95036
410.24        74.23073
410.68        73.80815
411.13        73.75983
411.58        73.83855
412.03        73.96225
412.47        74.09401
412.92         74.1546
413.37        74.17294
413.81        74.13721
414.26        74.08665
414.71        74.01205
415.15        73.91721
415.60        73.79247
416.05          73.692
416.49        73.63176
416.94        73.59332
417.39        73.57269
417.83        73.54299
418.28        73.50061
418.73        73.46347
419.17        73.41241
419.62        73.32054
420.07        73.18085
420.51        72.98639
420.96        72.84251
421.41        72.77053
421.85        72.74834
422.30        72.99731
422.74        73.36629
423.19        73.27444
423.64        72.83971
424.08        73.19484
424.53        73.88485
424.98        74.22874
425.42        74.01601
425.87        73.96749
426.31        74.09789
426.76        73.61465
427.21        72.82545
427.65        73.16119
428.10        74.26465
428.54        74.48183
428.99        73.85728
429.44        72.93098
429.88        72.14202
430.33        72.92759
430.77        74.61591
431.22         74.6019
431.66         73.0458
432.11        72.16714
432.56        72.23142
433.00        72.76966
433.45        73.55141
433.89        73.62984
434.34        72.61927
434.78        74.14586
435.23         73.7775
435.67        73.90958
436.12        73.45138
436.57        73.76241
437.01        74.67966
437.46        75.15898
437.90        74.92708
438.35         74.4639
438.79        74.62579
439.24        74.30033
439.68         73.8733
440.13         73.9355
440.57        74.46722
441.02        74.80544
441.46         74.8306
441.91         75.1749
442.35        75.63008
442.80        75.24474
443.24        74.84624
443.69         74.6403
444.13        74.84415
444.58        74.87086
445.02        74.69583
445.47        74.73766
445.91         75.0062
446.36        75.21729
446.80        75.30738
447.24        75.91302
447.69        75.96252
448.13        76.19791
448.58        76.31104
449.02        76.31231
449.47         76.2466
449.91        76.16766
450.36        76.12453
450.80        76.07285
451.25        76.01565
451.69        75.91035
452.13        75.75864
452.58        75.58048
453.02        75.38681
453.47        75.23032
453.91        75.11119
454.36         75.0458
454.80        74.98906
455.24         74.8597
455.69        74.65157
456.13        74.38634
456.58        74.23299
457.02        73.99337
457.46        74.32173
457.91        74.65598
458.35        74.97465
458.79         74.9034
459.24        74.42445
459.68        73.75473
460.13        73.20948
460.57        72.34679
461.01        72.42793
461.46        72.58321
461.90        73.00336
462.34        72.81277
462.79        72.49899
463.23        72.58991
463.68        73.08323
464.12        73.17998
464.56        72.86984
465.01        72.50484
465.45        72.15127
465.89        72.30613
466.34        72.78105
466.78         72.5565
467.22        71.71555
467.67        71.43164
468.11        71.49294
468.55        71.53606
468.99        71.42632
469.44        71.37141
469.88        71.36677
470.32        71.35339
470.77         71.3278
471.21         71.2996
471.65        71.24677
472.10        71.18024
472.54        71.08934
472.98        70.94303
473.42        70.73335
473.87        70.63055
474.31        70.57967
474.75        70.21185
475.20        69.69384
475.64        69.84827
476.08         70.5186
476.52        70.66459
476.97        70.18546
477.41        70.40582
477.85        69.28082
478.29        70.06238
478.74        70.25871
479.18        70.27243
479.62        69.64699
480.06        69.43311
480.50        69.66821
480.95         69.2317
481.39        69.51395
481.83        68.91245
482.27        69.53049
482.72        69.47837
483.16        69.05654
483.60        69.05946
484.04        69.36506
484.48        69.45149
484.93        69.64754
485.37        70.09665
485.81        69.87306
486.25        71.11036
486.69        71.53068
487.14        68.44218
487.58         67.3288
488.02        69.57393
488.46        68.70407
488.90        68.25497
489.34        69.50052
489.79        68.58492
490.23        68.73437
490.67         68.3435
491.11        68.24275
491.55        68.43069
491.99        68.77606
492.43        68.88472
492.88         68.6842
493.32        68.46775
493.76        68.30708
494.20        68.22301
494.64        68.23537
495.08        68.29386
495.52        68.38239
495.96        68.48934
496.41        68.55199
496.85        68.63794
497.29        68.46241
497.73         68.1797
498.17        67.80773
498.61        67.44832
499.05        67.26087
499.49        67.46246
499.93        67.87309
500.37        68.09858
500.82        68.21123
501.26         67.6656
501.70        68.09063
502.14        68.52949
502.58         68.1097
503.02        67.98988
503.46        67.80259
503.90        67.52406
504.34        67.23824
504.78        67.16485
505.22        67.33365
505.66        67.68112
506.10        68.07546
506.54        68.23901
506.98         68.0468
507.42        67.91602
507.86        67.13924
508.30        66.84763
508.74        66.85815
509.18         67.0094
509.62        67.22251
510.06        67.43794
510.50        67.61317
510.94        67.75494
511.38        67.85277
511.82        67.89001
512.26         67.8718
512.70        67.76631
513.14        67.58543
513.58         67.4463
514.02        67.38676
514.46        67.05284
514.90        67.06757
515.34        66.93512
515.78        66.84396
516.22        66.78634
516.66        66.77177
517.10        66.79693
517.54        66.85072
517.98        66.93193
518.42        67.02296
518.86        67.09585
519.30        67.14227
519.74        67.17109
520.18        67.18632
520.62          67.189
521.06        67.18478
521.50        67.18562
521.93        67.19884
522.37         67.1904
522.81        67.15925
523.25        67.15623
523.69        67.15403
524.13        66.95979
524.57         66.8014
525.01        66.53053
525.45        66.29469
525.89        66.21461
526.32        66.31136
526.76        66.53493
527.20         66.7996
527.64        66.97412
528.08        67.01664
528.52         66.9706
528.96        66.86525
529.40        66.74854
529.83        66.63933
530.27        66.53955
530.71        66.47394
531.15        66.50014
531.59        66.62253
532.03        66.82172
532.46        67.03286
532.90        67.16852
533.34        67.20314
533.78        67.10938
534.22         66.9348
534.66        66.87246
535.09        66.88081
535.53        66.69946
535.97        66.37291
536.41        66.21078
536.85        66.23421
537.28        66.28656
537.72         66.3344
538.16        66.38184
538.60        66.40953
539.04        66.41138
539.47        66.39355
539.91        66.40491
540.35        66.43349
540.79        66.48958
541.22        66.54784
541.66        66.47718
542.10        66.43974
542.54          66.314
542.97        66.17686
543.41        66.10213
543.85        66.09299
544.29        66.13371
544.72        66.17955
545.16        66.19582
545.60        66.16301
546.04        66.09486
546.47        66.02341
546.91        66.03035
547.35         66.1366
547.79        66.23645
548.22        66.26532
548.66        66.40343
549.10        66.57174
549.53        66.16578
549.97        65.86796
550.41        65.68733
550.84        65.83817
551.28        66.09956
551.72         66.3619
552.15        66.46147
552.59        66.39534
553.03        66.30576
553.46        66.21211
553.90        66.19705
554.34        66.28113
554.77        66.26614
555.21        66.10949
555.65        66.59673
556.08        66.39053
556.52        66.27426
556.96        65.92747
557.39        65.67348
557.83        65.59798
558.27        65.61085
558.70        65.67269
559.14         65.9356
559.57         65.8053
560.01         65.9961
560.45        66.21575
560.88        66.17167
561.32        65.95351
561.75        65.57903
562.19        65.27583
562.63        65.61548
563.06        66.35257
563.50        66.31935
563.93        65.67267
564.37        65.12767
564.80        65.85882
565.24        65.98668
565.68        65.81419
566.11        65.74321
566.55        65.80502
566.98         65.7496
567.42        65.64788
567.85         65.7095
568.29         65.9294
568.72        66.05437
569.16        66.11605
569.60         66.1636
570.03        66.14183
570.47        66.14715
570.90        66.28198
571.34        65.86423
571.77        66.04942
572.21        66.15036
572.64        66.50587
573.08        66.07629
573.51        66.22678
573.95        66.65963
574.38        66.07928
574.82        66.52254
