SpectraSmart Spectrum 2.9.0.0
--------- Device Information -----------
Spectrum Name :  反射率_0
Saving Time :  2024/05/01 16:32:57
Spectro-Module Model Name : SE2030-DUVN
Spectro-Module Serial Number : OS361AC55029948
Wavelength Start : 200
Wavelength End : 1025
Wavelength Unit : Wavelength(nm)
Spectrum Unit : Reflectance(%)
-----------Spectrum Setting ------------
Integration Time : 20ms
Average : 10
Boxcar : 0
Background removal :  enabled
linearity correction :  enabled
SC :  disabled
Intensity correction :  disabled
DWT denoise :  enabled
savitzky-golay :  disabled
FFT :  disabled
Running average :  disabled
Kalman :  disabled
High pass :  disabled
---------------BEGIN--------------------
Wavelength(nm)             Reflectance(%)
200.29               0
200.75       -28.91171
201.21        62.19663
201.67       -65.90796
202.13         -16.382
202.58        13.12565
203.04        35.80486
203.50        51.27886
203.96        57.82232
204.42        56.28984
204.88        40.42166
205.34       -380.9569
205.80        116.3342
206.26        74.14659
206.72        25.06502
207.18       -182.5445
207.64        377.2678
208.10        166.9501
208.55          109.56
209.01        79.00591
209.47        63.73672
209.93        57.64539
210.39        54.55989
210.85          53.882
211.31        56.74118
211.77         70.6613
212.23       -59.44577
212.69        21.38173
213.14        36.70693
213.60        72.24495
214.06       -287.9979
214.52       -36.83932
214.98       -19.81099
215.44       -15.45118
215.90       -16.36485
216.36       -54.97098
216.81       -8.552738
217.27        -42.8884
217.73        145.3061
218.19        35.67114
218.65         20.2366
219.11         6.38212
219.57       -27.64579
220.02       -174.4332
220.48       -101.7641
220.94       -24.31986
221.40       -2.769587
221.86        6.450005
222.32        12.89865
222.77        20.06862
223.23         30.3529
223.69        42.90239
224.15        47.83225
224.61        41.93966
225.06        32.28265
225.52         25.6982
225.98        24.77867
226.44        28.73725
226.90        37.06877
227.36        47.73657
227.81        51.62329
228.27        45.79874
228.73        36.56794
229.19        28.94384
229.65        25.11787
230.10        24.36317
230.56        25.85042
231.02         28.8474
231.48        31.25804
231.93        31.84985
232.39        31.50704
232.85        31.32702
233.31        32.42255
233.77        34.66438
234.22        37.46042
234.68        40.06963
235.14        41.87468
235.60        42.91722
236.05        43.54052
236.51        44.35747
236.97        46.91438
237.43        51.74529
237.88        57.82488
238.34        63.13985
238.80        66.80821
239.26        69.06472
239.71        70.44686
240.17        69.95955
240.63        66.23414
241.08        60.06337
241.54         53.9603
242.00         51.5219
242.46        55.15731
242.91        66.57125
243.37        89.39936
243.83        128.2413
244.28        159.3729
244.74        153.6719
245.20        131.5976
245.66        112.3628
246.11        101.2339
246.57        95.25758
247.03         90.0765
247.48        82.69495
247.94        69.42723
248.40        52.48631
248.85        38.46769
249.31        33.83759
249.77        38.67977
250.22        48.07422
250.68        58.04961
251.14         66.7372
251.59        74.63206
252.05        84.24076
252.51        101.0335
252.96        138.5828
253.42        202.9191
253.88        218.6797
254.33        172.7004
254.79        137.2575
255.25         119.167
255.70         109.021
256.16         103.271
256.62        99.36539
257.07          96.014
257.53        93.89664
257.99        92.50849
258.44        91.57806
258.90        91.66982
259.35        92.01524
259.81        92.66264
260.27        93.04095
260.72        92.55396
261.18        91.54517
261.63         89.8739
262.09        88.05694
262.55         85.9884
263.00        83.62744
263.46        81.30891
263.91        78.94258
264.37        76.93303
264.83        75.21025
265.28        73.67651
265.74        72.36596
266.19        70.94138
266.65        69.49755
267.11        68.00304
267.56        66.61256
268.02         65.6946
268.47        65.22253
268.93         65.0312
269.38         64.8168
269.84        64.05916
270.30        62.67757
270.75        60.85106
271.21          58.882
271.66        57.07338
272.12        55.60077
272.57        54.29538
273.03        53.20361
273.48        52.31124
273.94        51.61624
274.39        51.06723
274.85        50.53901
275.31        49.73385
275.76        48.60771
276.22        47.33496
276.67        46.02574
277.13        44.99795
277.58        44.21274
278.04        43.61354
278.49        43.06274
278.95        42.50945
279.40         41.8633
279.86        41.22734
280.31        40.51893
280.77        39.74977
281.22        38.87691
281.68        37.99178
282.13        37.12228
282.59        36.42767
283.04        35.89361
283.50        35.54586
283.95         35.3098
284.41        35.13813
284.86        34.99333
285.32        34.90871
285.77        34.91642
286.22        35.12844
286.68          35.536
287.13        36.04756
287.59        36.53432
288.04        36.74269
288.50        36.65401
288.95        36.31716
289.41        35.91137
289.86        35.58695
290.32         35.4453
290.77        35.44464
291.22        35.57221
291.68         35.7845
292.13        36.07471
292.59        36.51412
293.04         37.1296
293.50        38.00838
293.95        39.13269
294.40        40.46076
294.86        41.92694
295.31        43.44228
295.77        44.95172
296.22        46.43467
296.68        47.87895
297.13        49.25081
297.58        50.58923
298.04        51.94967
298.49        53.34749
298.95        54.84924
299.40        56.44087
299.85        58.09415
300.31         59.8924
300.76        61.93545
301.21        64.24037
301.67        66.78178
302.12        69.29421
302.58        71.38857
303.03        72.94039
303.48        74.10417
303.94        75.25235
304.39        76.81646
304.84        78.95834
305.30        81.52422
305.75        84.24001
306.20        86.71018
306.66        88.81692
307.11        90.61897
307.57        92.27088
308.02        93.87186
308.47        95.51244
308.93        97.14393
309.38        98.69826
309.83         100.187
310.29        101.6228
310.74        103.0083
311.19        104.3441
311.65        105.5937
312.10        106.7282
312.55        107.7509
313.00        108.7512
313.46        109.8778
313.91        111.1309
314.36        112.4605
314.82        113.6613
315.27        114.4178
315.72        114.6585
316.18        114.5371
316.63        114.2574
317.08        114.2139
317.53         114.516
317.99         115.059
318.44         115.732
318.89        116.3112
319.35        116.7209
319.80         117.054
320.25         117.344
320.70        117.6495
321.16        117.9774
321.61        118.2928
322.06        118.6059
322.51        119.0331
322.97        119.5567
323.42        120.0803
323.87        120.4169
324.32        120.9232
324.78        120.5435
325.23        120.2057
325.68        119.7789
326.13        119.5891
326.59        119.6978
327.04        120.1002
327.49        120.6784
327.94        121.2227
328.39        121.6574
328.85        121.9805
329.30        122.3367
329.75        122.7861
330.20        123.3464
330.66        123.9377
331.11        124.5167
331.56        124.8766
332.01        124.9912
332.46        124.9213
332.92        124.8188
333.37        125.0634
333.82        125.7091
334.27        126.6902
334.72        127.8003
335.17        128.6634
335.63        129.1276
336.08        129.3419
336.53        129.4635
336.98        129.8282
337.43        130.5273
337.88        131.4571
338.34        132.3897
338.79        133.0574
339.24        133.3306
339.69        133.3014
340.14        133.1909
340.59        133.3393
341.05        133.8239
341.50        134.5767
341.95         135.359
342.40        135.7885
342.85        135.7956
343.30        135.5223
343.75        135.2744
344.20        135.5195
344.66        136.3379
345.11        137.5504
345.56        138.8617
346.01        139.7734
346.46        140.1417
346.91        140.1485
347.36         139.962
347.81        139.8376
348.26        139.8789
348.72        140.0054
349.17        140.2308
349.62        140.6635
350.07        141.2525
350.52         141.918
350.97          142.47
351.42        142.5802
351.87        142.1932
352.32        141.4791
352.77        140.4964
353.22        139.3496
353.67        138.1429
354.13        136.8798
354.58        135.8357
355.03        135.5558
355.48        136.0775
355.93        137.2724
356.38        138.4858
356.83        138.6103
357.28        137.4276
357.73        135.2911
358.18        133.0144
358.63        131.8138
359.08        131.9198
359.53        132.9335
359.98        134.1787
360.43         134.526
360.88        133.6614
361.33        131.9798
361.78         130.002
362.23        128.4598
362.68        127.5452
363.13        127.0162
363.58        126.6012
364.03        125.9059
364.48        124.8192
364.93        123.4842
365.38        122.1297
365.83        121.0607
366.28        120.3342
366.73         119.854
367.18        119.3394
367.63        118.3678
368.08        116.8933
368.53        115.0915
368.98         113.356
369.43        112.2431
369.88        111.8416
370.33        111.9694
370.78        112.2559
371.23        112.0602
371.68        111.2097
372.13         109.927
372.58        108.5326
373.03        107.4988
373.48        106.9321
373.93        106.6462
374.38        106.4834
374.83        106.2058
375.28        105.7233
375.72        105.1161
376.17        104.4139
376.62        103.5792
377.07        102.6389
377.52        101.5958
377.97        100.5788
378.42        99.80278
378.87        99.30817
379.32        99.04172
379.77        98.85154
380.22        98.48937
380.67        97.89697
381.11        97.15079
381.56        96.37023
382.01        95.78045
382.46        95.44308
382.91        95.28019
383.36        95.17913
383.81        94.96965
384.26        94.60106
384.71        94.12709
385.15        93.59975
385.60        93.15234
386.05        92.80063
386.50        92.50481
386.95        92.21499
387.40        91.86848
387.85        91.44989
388.29        90.92775
388.74        90.44975
389.19         90.0111
389.64        89.61513
390.09        89.24484
390.54        88.85432
390.98         88.3698
391.43         87.8604
391.88         87.3092
392.33        86.79637
392.78        86.53946
393.23        86.50817
393.67        86.34725
394.12        86.10278
394.57        86.07536
395.02        86.11981
395.47        85.57317
395.91        84.63542
396.36          84.183
396.81        84.29296
397.26        84.55764
397.71        84.74655
398.15        84.63087
398.60        84.24632
399.05         83.5891
399.50        82.90905
399.95        82.62975
400.39        82.78027
400.84        83.00532
401.29        83.11919
401.74        82.99729
402.18        82.57484
402.63        81.81252
403.08        80.97249
403.53         80.4706
403.97        80.37543
404.42        80.57304
404.87        80.84927
405.32        80.87421
405.76        80.56426
406.21        80.07491
406.66        79.55305
407.11        79.20853
407.55        79.16065
408.00        79.32455
408.45        79.57688
408.90         79.8057
409.34        79.80161
409.79         79.1818
410.24        78.19632
410.68        77.64972
411.13        77.63988
411.58        77.75054
412.03        77.86589
412.47        77.96539
412.92        77.96142
413.37        77.88754
413.81         77.7684
414.26        77.69737
414.71        77.66999
415.15        77.66946
415.60        77.64783
416.05        77.59508
416.49        77.50956
416.94        77.39685
417.39        77.26889
417.83        77.12731
418.28        76.97948
418.73         76.8252
419.17        76.67599
419.62        76.55584
420.07         76.4663
420.51        76.39165
420.96        76.35372
421.41        76.28428
421.85        76.15436
422.30        76.08792
422.74        76.06636
423.19        76.02096
423.64         75.9961
424.08        76.28214
424.53        76.74532
424.98        76.96016
425.42        76.84721
425.87        76.67179
426.31        76.52354
426.76        76.14368
427.21        75.71502
427.65        76.01552
428.10         76.7284
428.54        76.69003
428.99        76.06552
429.44        75.33582
429.88        74.74162
430.33        75.49225
430.77        77.06268
431.22        76.21846
431.66        75.03481
432.11         74.5098
432.56        75.24255
433.00        75.80888
433.45        75.98196
433.89        75.67162
434.34        74.92821
434.78        76.17591
435.23        75.86314
435.67        75.91135
436.12        75.49824
436.57        75.94788
437.01        77.00905
437.46        77.87838
437.90        77.15769
438.35        76.81598
438.79        76.57452
439.24        76.10688
439.68        75.54987
440.13        75.58388
440.57        76.17541
441.02        76.48608
441.46        76.36784
441.91        77.10414
442.35        77.08492
442.80        77.12428
443.24        76.81983
443.69        76.54792
444.13        76.38284
444.58        76.29205
445.02          76.294
445.47        76.47781
445.91        76.80162
446.36         77.1461
446.80        77.45668
447.24        77.76629
447.69        78.01772
448.13        78.10223
448.58         78.0264
449.02        77.79035
449.47        77.51276
449.91        77.33915
450.36        77.32962
450.80        77.42529
451.25        77.55378
451.69         77.5495
452.13        77.38245
452.58        77.10477
453.02        76.79533
453.47        76.59447
453.91        76.49187
454.36          76.579
454.80         76.7647
455.24         76.5725
455.69        75.91842
456.13        76.22657
456.58        75.33582
457.02        75.30431
457.46        75.47205
457.91        76.09504
458.35        76.44727
458.79        76.45058
459.24        75.95664
459.68        75.22647
460.13        74.59491
460.57        73.62151
461.01        74.00277
461.46        74.01591
461.90        74.14275
462.34        74.83334
462.79        73.88243
463.23        73.96566
463.68        74.26939
464.12        74.37072
464.56        74.30252
465.01        73.44298
465.45        73.53432
465.89        73.59841
466.34        73.94837
466.78        73.62244
467.22        72.76068
467.67        72.50278
468.11        72.61978
468.55        72.94131
468.99        72.98969
469.44        73.06975
469.88        73.07197
470.32        72.97849
470.77        72.84284
471.21        72.77652
471.65        72.78942
472.10        72.85578
472.54        72.91502
472.98        72.87923
473.42        72.72258
473.87        72.58215
474.31        72.43787
474.75        72.10578
475.20        71.72861
475.64        71.78298
476.08        72.15254
476.52        72.22385
476.97         71.9456
477.41        71.68063
477.85        71.24127
478.29        71.40992
478.74        72.07256
479.18        72.14099
479.62        71.63653
480.06        71.40906
480.50        71.39326
480.95        71.08982
481.39        71.62965
481.83        70.19687
482.27        70.77391
482.72        71.31899
483.16        70.93562
483.60        70.99973
484.04        71.52711
484.48        71.39391
484.93        70.98041
485.37        72.22385
485.81        71.47057
486.25        72.36182
486.69        72.22648
487.14        69.71157
487.58        69.15126
488.02        71.11968
488.46        70.15704
488.90        70.06109
489.34        70.92033
489.79        70.35081
490.23        70.87451
490.67        70.64043
491.11         70.4037
491.55        70.39831
491.99        70.59279
492.43         70.6195
492.88        70.44592
493.32        70.35252
493.76        70.34152
494.20        70.34292
494.64        70.35111
495.08        70.30315
495.52         70.2632
495.96        70.38286
496.41        70.54964
496.85        70.76264
497.29        70.78597
497.73         70.2197
498.17        69.57581
498.61         69.8135
499.05        69.11119
499.49        69.46611
499.93        70.05585
500.37         70.2641
500.82        70.10354
501.26        69.81052
501.70         70.2213
502.14        70.33241
502.58         70.1143
503.02        69.98375
503.46        69.88705
503.90        69.74961
504.34        69.63235
504.78        69.65736
505.22        69.81586
505.66         70.1394
506.10        70.51966
506.54        70.55476
506.98        70.15865
507.42         70.2575
507.86        69.53251
508.30        69.35521
508.74        69.35058
509.18         69.4853
509.62        69.68955
510.06        69.87719
510.50         70.0162
510.94         70.1199
511.38         70.1662
511.82        70.11581
512.26        69.97044
512.70        69.73357
513.14        69.46839
513.58        69.29031
514.02         69.2288
514.46        69.23383
514.90        69.30189
515.34        69.29962
515.78        69.21996
516.22        69.09588
516.66        68.97277
517.10        68.91754
517.54         68.9459
517.98        69.03097
518.42        69.14284
518.86        69.23486
519.30        69.29126
519.74        69.32691
520.18        69.34879
520.62        69.36958
521.06        69.39014
521.50         69.3949
521.93        69.39793
522.37         69.3964
522.81        69.39233
523.25         69.4274
523.69        69.46832
524.13        69.28932
524.57        69.16331
525.01        68.90089
525.45        68.67393
525.89        68.61833
526.32        68.75616
526.76        69.03204
527.20        69.33636
527.64        69.50127
528.08        69.48065
528.52         69.3327
528.96         69.1207
529.40        68.94495
529.83        68.83488
530.27        68.77551
530.71        68.76431
531.15        68.81516
531.59        68.92104
532.03        69.07948
532.46         69.2383
532.90        69.33073
533.34        69.34099
533.78         69.2331
534.22        69.06007
534.66        69.02848
535.09         69.0922
535.53        68.97723
535.97        68.71328
536.41         68.5946
536.85        68.63581
537.28        68.68052
537.72        68.70084
538.16        68.71493
538.60        68.70869
539.04        68.67197
539.47        68.61707
539.91         68.6025
540.35        68.61758
540.79        68.67642
541.22         68.7435
541.66        68.66343
542.10        68.60607
542.54        68.46008
542.97        68.32158
543.41        68.29226
543.85        68.37451
544.29        68.52877
544.72        68.70281
545.16        68.84416
545.60        68.91261
546.04        68.95315
546.47         68.9511
546.91        68.81812
547.35        68.61234
547.79        68.50154
548.22        68.44658
548.66        68.38741
549.10        68.32597
549.53        68.03065
549.97        68.12978
550.41        68.18906
550.84        68.38033
551.28         68.6897
551.72        69.02515
552.15        69.16908
552.59        69.12153
553.03         69.0265
553.46        68.90821
553.90        68.84728
554.34        68.86552
554.77        68.82518
555.21        68.65855
555.65         69.0075
556.08        68.56351
556.52           68.44
556.96        68.26495
557.39        68.12907
557.83        68.06538
558.27        67.95693
558.70        67.83172
559.14        68.08347
559.57        68.10245
560.01        68.41186
560.45        68.67084
560.88        68.66673
561.32        68.46043
561.75        67.96523
562.19        67.45244
562.63        67.67641
563.06        68.43972
563.50        68.45869
563.93        67.78708
564.37        67.61847
564.80        67.94093
565.24        68.10348
565.68        68.06049
566.11        68.06606
566.55        68.15217
566.98        68.16427
567.42        68.15267
567.85        68.27697
568.29        68.56461
568.72        68.46551
569.16        68.69768
569.60        68.67566
570.03        68.54227
570.47        68.38119
570.90        68.81829
571.34        67.76788
571.77        68.24709
572.21        68.16952
572.64        68.45677
573.08          68.061
573.51         68.1515
573.95        68.98962
574.38        68.42102
574.82        68.31303
