SpectraSmart Spectrum 2.9.0.0
--------- Device Information -----------
Spectrum Name :  反射率_0
Saving Time :  2024/05/01 16:16:25
Spectro-Module Model Name : SE2030-DUVN
Spectro-Module Serial Number : OS361AC55029948
Wavelength Start : 200
Wavelength End : 1025
Wavelength Unit : Wavelength(nm)
Spectrum Unit : Reflectance(%)
-----------Spectrum Setting ------------
Integration Time : 20ms
Average : 10
Boxcar : 0
Background removal :  enabled
linearity correction :  enabled
SC :  disabled
Intensity correction :  disabled
DWT denoise :  enabled
savitzky-golay :  disabled
FFT :  disabled
Running average :  disabled
Kalman :  disabled
High pass :  disabled
---------------BEGIN--------------------
Wavelength(nm)             Reflectance(%)
200.29               0
200.75       -2.904464
201.21        275.1284
201.67       -181.7549
202.13       -69.58449
202.58       -20.30755
203.04        13.67689
203.50        37.20229
203.96         51.1353
204.42        60.46196
204.88        75.40577
205.34        403.4302
205.80       -5.913998
206.26        -4.29286
206.72       -34.63258
207.18       -228.3887
207.64        370.9993
208.10        177.1694
208.55        138.6946
209.01        121.7544
209.47        108.7111
209.93        95.94462
210.39        81.25665
210.85        69.20438
211.31         69.5588
211.77        108.8223
212.23       -280.1225
212.69        -48.4283
213.14       -26.95031
213.60       -14.03319
214.06       -62.84289
214.52       -22.08737
214.98       -13.97126
215.44       -2.093524
215.90        29.96091
216.36        525.0909
216.81       -257.5028
217.27       -359.8132
217.73        770.9418
218.19         149.515
218.65        80.81561
219.11        40.45252
219.57       -45.41447
220.02       -409.0942
220.48       -243.6774
220.94       -53.11454
221.40        1.412911
221.86        21.83635
222.32        29.32718
222.77        31.45112
223.23         30.7937
223.69        27.90398
224.15        25.24751
224.61        24.77541
225.06        25.02428
225.52        25.51537
225.98        25.81183
226.44         25.9133
226.90        26.01501
227.36         26.2605
227.81        26.67898
228.27         27.0687
228.73        27.30768
229.19        27.24912
229.65         26.7408
230.10        25.77163
230.56        24.52407
231.02        23.25338
231.48        22.92711
231.93        23.88851
232.39        25.57894
232.85        27.58155
233.31        29.67711
233.77        31.73719
234.22        33.77495
234.68        35.57803
235.14        37.11557
235.60        38.53004
236.05        40.02988
236.51        41.80587
236.97        43.83609
237.43        45.62802
237.88        46.78499
238.34        46.91947
238.80        46.44608
239.26        45.49752
239.71        44.01401
240.17        41.67596
240.63        38.98705
241.08        37.74332
241.54        38.97314
242.00        42.64842
242.46        49.46703
242.91        61.59729
243.37        82.11066
243.83        115.5378
244.28        143.9796
244.74        141.9766
245.20        125.2472
245.66        109.4956
246.11        98.95659
246.57        91.05423
247.03        81.23267
247.48        66.12901
247.94        45.93707
248.40        28.26591
248.85        18.86731
249.31        20.25735
249.77        27.72508
250.22        36.49882
250.68        44.65598
251.14         51.4358
251.59        57.63624
252.05        65.30987
252.51        78.56314
252.96        107.0723
253.42        153.2505
253.88         159.542
254.33        122.7104
254.79        96.87979
255.25        85.20543
255.70        79.82656
256.16        77.64809
256.62        76.38708
257.07        74.74622
257.53        73.40572
257.99        72.24513
258.44        71.36108
258.90        71.42212
259.35        71.78157
259.81        72.37971
260.27        72.53417
260.72         71.4922
261.18        69.65633
261.63        67.19803
262.09        64.78436
262.55        62.60502
263.00        60.61467
263.46        58.88855
263.91        57.26283
264.37        55.90331
264.83        54.71624
265.28        53.66242
265.74        52.72464
266.19        51.59367
266.65        50.34755
267.11        48.97334
267.56        47.66505
268.02        46.83354
268.47        46.48862
268.93        46.47189
269.38        46.47868
269.84        45.96976
270.30        44.85572
270.75        43.30532
271.21        41.64408
271.66        40.23542
272.12        39.23609
272.57        38.46193
273.03        37.83504
273.48        37.17799
273.94        36.46898
274.39        35.76149
274.85        35.07316
275.31        34.34491
275.76        33.57777
276.22        32.83047
276.67        32.13335
277.13        31.64521
277.58        31.31286
278.04        31.11374
278.49         30.9278
278.95        30.69502
279.40        30.33389
279.86        29.90461
280.31        29.37631
280.77        28.80459
281.22        28.16747
281.68        27.53241
282.13        26.87255
282.59        26.22911
283.04        25.60315
283.50        25.05942
283.95        24.64352
284.41        24.47248
284.86        24.53703
285.32        24.78372
285.77        25.14806
286.22        25.58251
286.68        26.05273
287.13        26.53901
287.59        26.94722
288.04        27.08705
288.50        26.96464
288.95        26.60451
289.41         26.2293
289.86        26.08191
290.32        26.24225
290.77        26.64454
291.22        27.13673
291.68        27.46561
292.13        27.59516
292.59        27.65957
293.04        27.84228
293.50        28.47069
293.95        29.59228
294.40        31.10349
294.86        32.81403
295.31        34.43357
295.77        35.86192
296.22        37.15615
296.68        38.42023
297.13        39.80388
297.58        41.37083
298.04        43.09263
298.49        44.87823
298.95        46.62576
299.40        48.28087
299.85        49.88197
300.31        51.56168
300.76        53.49994
301.21        55.74779
301.67        58.25985
302.12        60.80885
302.58        63.05705
303.03         64.8779
303.48        66.39944
303.94        67.91419
304.39        69.75445
304.84        72.05779
305.30        74.69597
305.75        77.44559
306.20        79.99002
306.66        82.22428
307.11        84.17825
307.57         85.9718
308.02        87.66334
308.47        89.33669
308.93        90.97601
309.38         92.5267
309.83        94.01028
310.29        95.45109
310.74         96.8475
311.19        98.23813
311.65        99.64853
312.10        101.0484
312.55        102.4104
313.00        103.7397
313.46        105.0538
313.91        106.3241
314.36        107.5403
314.82        108.5675
315.27         109.211
315.72        109.4371
316.18        109.3607
316.63        109.1589
317.08        109.1781
317.53        109.5137
317.99         110.089
318.44        110.7822
318.89         111.349
319.35        111.7134
319.80        111.9602
320.25        112.1702
320.70        112.4809
321.16        112.9068
321.61        113.3942
322.06        113.8797
322.51         114.293
322.97        114.5763
323.42        114.8007
323.87        114.9237
324.32        114.9007
324.78        114.7414
325.23        114.5189
325.68        114.3132
326.13        114.2764
326.59        114.4303
327.04        114.7887
327.49        115.2976
327.94        115.8846
328.39        116.4967
328.85        117.0858
329.30        117.6775
329.75        118.1452
330.20        118.4648
330.66        118.6238
331.11        118.7207
331.56        118.7884
332.01        118.8741
332.46        118.9779
332.92        119.1492
333.37         119.583
333.82        120.2719
334.27        121.2002
334.72        122.2137
335.17        123.0287
335.63        123.5227
336.08        123.7979
336.53        123.9749
336.98        124.3417
337.43        124.9712
337.88        125.7774
338.34         126.558
338.79        127.0745
339.24        127.2204
339.69        127.0983
340.14        126.9051
340.59        126.9426
341.05         127.282
341.50        127.8505
341.95        128.4911
342.40        128.9504
342.85        129.1653
343.30        129.2336
343.75        129.2846
344.20        129.5112
344.66        129.9557
345.11        130.5367
345.56        131.1841
346.01        131.7757
346.46        132.2563
346.91        132.6705
347.36        133.0012
347.81        133.2211
348.26        133.3456
348.72        133.3825
349.17        133.3936
349.62        133.5583
350.07        133.8757
350.52        134.2528
350.97        134.5445
351.42        134.5073
351.87        134.1001
352.32        133.4635
352.77        132.6359
353.22        131.6764
353.67        130.6581
354.13         129.594
354.58        128.6797
355.03        128.3357
355.48         128.595
355.93        129.3633
356.38        130.1518
356.83        130.1356
357.28        129.1532
357.73        127.4631
358.18        125.6831
358.63        124.7364
359.08        124.7848
359.53        125.5137
359.98        126.3775
360.43        126.4715
360.88        125.5561
361.33        123.9607
361.78        122.1145
362.23         120.616
362.68        119.6276
363.13         118.958
363.58        118.4146
364.03        117.7233
364.48         116.792
364.93        115.7062
365.38         114.605
365.83        113.6609
366.28        112.9044
366.73        112.2966
367.18        111.6147
367.63        110.5298
368.08        109.0344
368.53        107.2718
368.98        105.6454
369.43        104.7327
369.88        104.6073
370.33        105.0717
370.78        105.6789
371.23         105.646
371.68        104.7577
372.13        103.2765
372.58        101.5854
373.03        100.2585
373.48        99.44219
373.93        98.93073
374.38        98.58857
374.83        98.20816
375.28        97.70477
375.72          97.167
376.17        96.56968
376.62        95.78762
377.07         94.8285
377.52        93.70875
377.97        92.61815
378.42        91.87407
378.87        91.52817
379.32        91.48454
379.77           91.51
380.22        91.23432
380.67        90.57891
381.11        89.66885
381.56        88.69643
382.01        88.00446
382.46        87.68956
382.91         87.6318
383.36        87.68648
383.81        87.63432
384.26        87.40064
384.71        87.05335
385.15        86.62016
385.60        86.19316
386.05        85.78519
386.50        85.36249
386.95        84.92663
387.40         84.4961
387.85        84.07716
388.29        83.63261
388.74        83.24491
389.19         82.8252
389.64        82.36338
390.09        81.86585
390.54        81.37096
390.98        80.92807
391.43        80.60806
391.88        80.37163
392.33        80.17068
392.78        79.96738
393.23        79.75108
393.67        79.41291
394.12        79.05616
394.57        78.91588
395.02        78.88718
395.47        78.42226
395.91        77.66808
396.36        77.32614
396.81        77.44135
397.26        77.66563
397.71        77.82416
398.15        77.72697
398.60        77.40663
399.05        76.93342
399.50        76.46555
399.95        76.09813
400.39          75.938
400.84        76.14978
401.29        76.54573
401.74        76.52995
402.18        76.01807
402.63        75.27273
403.08        74.52452
403.53        74.00027
403.97        73.76309
404.42        73.74979
404.87        73.84706
405.32        73.85404
405.76        73.69855
406.21        73.55999
406.66        73.44067
407.11        73.10903
407.55        72.72089
408.00        72.77164
408.45        73.16103
408.90        73.26715
409.34        72.96368
409.79        72.40808
410.24         71.8006
410.68        71.50491
411.13        71.58823
411.58        71.84353
412.03        72.14626
412.47        72.36689
412.92        72.40863
413.37        72.32534
413.81        72.16291
414.26        72.05225
414.71        72.00658
415.15        72.00007
415.60        71.99578
416.05        71.99803
416.49        72.00112
416.94        72.00344
417.39        71.99899
417.83        71.95589
418.28        71.87764
418.73        71.78619
419.17         71.6846
419.62         71.5839
420.07        71.48612
420.51        71.36977
420.96        71.32486
421.41        71.35825
421.85        71.43599
422.30        71.74691
422.74         72.1305
423.19        72.06007
423.64        71.66523
424.08        71.84919
424.53        72.50964
424.98        72.76802
425.42        72.55457
425.87        72.41479
426.31        72.43224
426.76        72.28756
427.21        72.11763
427.65        72.47385
428.10        73.10211
428.54        73.28269
428.99        73.04667
429.44        72.39481
429.88        71.66501
430.33        72.23436
430.77        73.54843
431.22        73.44777
431.66        72.13255
432.11        71.37464
432.56        71.36468
433.00        72.08824
433.45        73.37675
433.89        72.78239
434.34        72.10974
434.78        73.59754
435.23        73.04507
435.67        73.04967
436.12        72.46372
436.57        72.92768
437.01        74.20989
437.46        74.71024
437.90        74.34292
438.35        74.06035
438.79        73.95222
439.24         73.6155
439.68         73.1958
440.13        73.29865
440.57        73.87994
441.02        74.27188
441.46        74.35545
441.91        74.72088
442.35         75.1991
442.80        74.91015
443.24        74.80011
443.69        74.63733
444.13        74.70544
444.58        74.69249
445.02        74.57385
445.47         74.6303
445.91        74.87474
446.36        75.02763
446.80        75.01325
447.24        75.77521
447.69        75.69037
448.13          75.916
448.58         75.9855
449.02        75.94447
449.47        75.85562
449.91        75.79224
450.36         75.8127
450.80        75.87236
451.25        75.93385
451.69        75.88161
452.13        75.70494
452.58        75.45395
453.02         75.2201
453.47        75.08241
453.91        75.02774
454.36        75.22923
454.80        75.62769
455.24        75.08195
455.69        75.04517
456.13        74.64052
456.58        74.52109
457.02        73.77551
457.46        73.69724
457.91        74.41595
458.35        74.99981
458.79        75.16978
459.24         74.5742
459.68        73.89149
460.13        73.47816
460.57        72.38486
461.01        72.70061
461.46        72.84334
461.90        73.21337
462.34        73.23779
462.79        72.83376
463.23        72.95593
463.68        73.43362
464.12         73.4922
464.56         73.0969
465.01        72.71944
465.45         72.4435
465.89        72.45658
466.34        72.56904
466.78        72.93962
467.22        71.92323
467.67        71.83488
468.11        71.92762
468.55        72.00586
468.99        71.92952
469.44        71.88062
469.88        71.87628
470.32        71.84742
470.77        71.80601
471.21        71.78621
471.65        71.77361
472.10        71.77545
472.54         71.7647
472.98        71.69695
473.42        71.56315
473.87        71.49579
474.31        71.45461
474.75        71.20831
475.20        70.88129
475.64        70.99841
476.08        71.44752
476.52        71.56886
476.97        71.29103
477.41        71.31631
477.85         70.6361
478.29        71.15322
478.74        70.81989
479.18        71.14035
479.62        70.77666
480.06        70.73037
480.50        70.74762
480.95        70.25801
481.39        70.61569
481.83        69.79961
482.27        70.56998
482.72        70.54318
483.16         70.4282
483.60        70.48814
484.04        70.64133
484.48        70.75117
484.93        70.60709
485.37        71.14278
485.81        70.70835
486.25         72.2383
486.69        71.36711
487.14        69.22993
487.58         68.6491
488.02        70.47919
488.46         70.2016
488.90        69.43269
489.34        70.19079
489.79        70.24788
490.23        70.19183
490.67        69.95142
491.11        69.60228
491.55        69.69577
491.99         70.1176
492.43        70.24223
492.88         70.0238
493.32        69.85715
493.76        69.80603
494.20        69.80336
494.64        69.84567
495.08        69.95629
495.52        70.15051
495.96        70.15446
496.41        69.88705
496.85        70.11839
497.29        70.50388
497.73        69.18285
498.17        69.46805
498.61        69.13327
499.05        68.85352
499.49        69.05214
499.93        69.50101
500.37        69.69581
500.82        69.57531
501.26        69.59661
501.70        69.75191
502.14        69.73851
502.58        69.57456
503.02        69.45815
503.46        69.41448
503.90        69.37785
504.34        69.37658
504.78        69.46366
505.22        69.61789
505.66        69.84834
506.10        70.09085
506.54        70.13105
506.98        69.85021
507.42        69.90385
507.86         69.0069
508.30        68.81087
508.74         68.9495
509.18        69.24333
509.62        69.56416
510.06        69.79443
510.50        69.88447
510.94        69.85574
511.38         69.7541
511.82        69.65253
512.26        69.57641
512.70        69.49335
513.14        69.39455
513.58        69.30127
514.02        69.21893
514.46         69.1066
514.90        68.94442
515.34        68.97232
515.78        68.74823
516.22        68.64626
516.66        68.55617
517.10        68.52187
517.54        68.54726
517.98        68.62165
518.42        68.74038
518.86        68.88174
519.30        69.03143
519.74         69.1856
520.18        69.31525
520.62        69.38276
521.06        69.37743
521.50         69.2968
521.93        69.18056
522.37        69.08703
522.81        69.03855
523.25        69.03265
523.69        69.01339
524.13        68.88778
524.57        68.65348
525.01        68.35263
525.45        68.09338
525.89        68.04198
526.32        68.22694
526.76        68.58347
527.20        68.99043
527.64        69.27818
528.08        69.39281
528.52         69.3204
528.96        69.12873
529.40        69.08332
529.83        69.13917
530.27        68.93547
530.71        68.55104
531.15         68.4331
531.59        68.60931
532.03        68.84801
532.46        69.05637
532.90        69.19285
533.34         69.2215
533.78        69.10629
534.22        68.89616
534.66        68.78893
535.09        68.74876
535.53        68.51103
535.97        68.14189
536.41        68.00436
536.85        68.12425
537.28        68.28226
537.72        68.41933
538.16        68.59465
538.60        68.72803
539.04        68.61672
539.47        68.32821
539.91         68.1876
540.35        68.21272
540.79        68.28071
541.22        68.34803
541.66        68.30553
542.10        68.31095
542.54        68.23287
542.97        68.15594
543.41        68.16154
543.85        68.24786
544.29        68.38982
544.72        68.51757
545.16        68.56203
545.60        68.49393
546.04        68.33758
546.47        68.15436
546.91        68.05473
547.35        68.07358
547.79        68.16187
548.22        68.22547
548.66        68.26602
549.10        68.26447
549.53        67.92348
549.97        67.90308
550.41        67.87158
550.84        68.02264
551.28        68.31086
551.72        68.63881
552.15        68.78165
552.59        68.73587
553.03        68.65856
553.46        68.56646
553.90        68.51642
554.34        68.52824
554.77        68.46569
555.21        68.29377
555.65        68.62122
556.08        68.36968
556.52        68.23455
556.96        67.95543
557.39        67.78611
557.83        67.78841
558.27        67.83291
558.70        67.87145
559.14        68.15012
559.57        68.07155
560.01        68.22259
560.45        68.34175
560.88        68.47203
561.32        68.57977
561.75        68.06335
562.19        67.25433
562.63        67.47325
563.06        68.49707
563.50        68.56161
563.93        67.73831
564.37        67.54005
564.80         67.9595
565.24        68.21548
565.68        68.22228
566.11        68.17143
566.55        68.17211
566.98        68.01931
567.42        67.87075
567.85        67.95403
568.29        68.24388
568.72        68.47784
569.16        68.68385
569.60        68.69773
570.03        68.41924
570.47        68.71034
570.90        68.69233
571.34        67.78181
571.77        68.32166
572.21        68.16788
572.64         68.0804
573.08        68.35941
573.51        68.16231
573.95        68.83872
574.38        68.35738
574.82        68.43094
