SpectraSmart Spectrum 2.9.0.0
--------- Device Information -----------
Spectrum Name :  反射率_0
Saving Time :  2024/05/01 15:53:40
Spectro-Module Model Name : SE2030-DUVN
Spectro-Module Serial Number : OS361AC55029948
Wavelength Start : 200
Wavelength End : 1025
Wavelength Unit : Wavelength(nm)
Spectrum Unit : Reflectance(%)
-----------Spectrum Setting ------------
Integration Time : 20ms
Average : 10
Boxcar : 0
Background removal :  enabled
linearity correction :  enabled
SC :  disabled
Intensity correction :  disabled
DWT denoise :  enabled
savitzky-golay :  disabled
FFT :  disabled
Running average :  disabled
Kalman :  disabled
High pass :  disabled
---------------BEGIN--------------------
Wavelength(nm)             Reflectance(%)
200.29               0
200.75        56.08019
201.21        354.6396
201.67       -157.0374
202.13       -44.52591
202.58      -0.5137561
203.04        28.87458
203.50        48.99364
203.96        60.96349
204.42        69.43629
204.88        84.09676
205.34        423.8519
205.80       -3.132624
206.26       -4.357323
206.72       -42.50506
207.18       -282.0165
207.64        460.2923
208.10        220.3032
208.55        171.7793
209.01        148.0168
209.47        125.1009
209.93         99.2855
210.39        68.81149
210.85        38.43804
211.31        14.17477
211.77       -11.99065
212.23        79.91335
212.69        14.47372
213.14        11.37467
213.60        26.49631
214.06       -149.8834
214.52       -26.17013
214.98        -13.8972
215.44       -2.760566
215.90        22.38185
216.36        374.4224
216.81       -163.0146
217.27       -186.6291
217.73        286.5794
218.19        29.28379
218.65       -4.498182
219.11       -34.24046
219.57       -107.2154
220.02       -385.0929
220.48       -185.8141
220.94       -40.05853
221.40       -2.603608
221.86        11.44698
222.32        18.75258
222.77        24.65919
223.23        31.26323
223.69        38.23505
224.15        40.21943
224.61        35.94067
225.06        29.73103
225.52        25.19834
225.98         23.1212
226.44        22.83767
226.90         23.7678
227.36        25.64753
227.81        27.03662
228.27        27.01937
228.73          26.377
229.19        25.58517
229.65        24.78539
230.10        23.89869
230.56        22.91605
231.02        21.91693
231.48        21.50694
231.93        21.94986
232.39        22.95596
232.85        24.31776
233.31        25.95477
233.77          27.712
234.22        29.52676
234.68        31.11394
235.14        32.35125
235.60        33.32087
236.05        34.17873
236.51        35.02266
236.97        35.83017
237.43         36.3577
237.88        36.40215
238.34        35.86913
238.80        35.19064
239.26        34.39387
239.71        33.49007
240.17        32.01248
240.63        29.07331
241.08        25.56309
241.54        23.47695
242.00         23.8622
242.46        27.51432
242.91        35.89243
243.37        51.00375
243.83        78.05863
244.28        107.1282
244.74        114.5242
245.20        107.5017
245.66        98.04304
246.11        90.75056
246.57        84.39532
247.03        74.98737
247.48        58.77804
247.94        35.61351
248.40        13.66947
248.85      -0.4532677
249.31       -2.480909
249.77        4.053087
250.22        13.52097
250.68        23.04989
251.14        30.65076
251.59        35.80367
252.05        39.80083
252.51        44.23767
252.96        51.41973
253.42        65.13208
253.88        71.97478
254.33        65.66772
254.79        59.69403
255.25         56.5168
255.70        54.75993
256.16        53.97382
256.62        54.04826
257.07        54.95008
257.53        56.52234
257.99        58.10904
258.44        59.06233
258.90        59.26408
259.35        58.53182
259.81        57.40042
260.27        56.06736
260.72        54.91592
261.18        54.25777
261.63        53.64653
262.09         53.0796
262.55        52.18904
263.00         50.8959
263.46        49.49392
263.91        47.98997
264.37        46.66572
264.83        45.50373
265.28        44.44035
265.74        43.46472
266.19        42.33416
266.65         41.1265
267.11        39.83919
267.56        38.66809
268.02         38.0036
268.47        37.84457
268.93        38.02267
269.38        38.20943
269.84        37.82261
270.30        36.76847
270.75        35.24263
271.21        33.58063
271.66        32.17181
272.12        31.19158
272.57        30.46337
273.03        29.95319
273.48        29.55879
273.94        29.23683
274.39        28.99475
274.85        28.74947
275.31        28.32312
275.76        27.69141
276.22        26.93834
276.67         26.1467
277.13        25.52908
277.58        25.06404
278.04         24.7151
278.49        24.37131
278.95        23.96965
279.40        23.45189
279.86        22.89427
280.31        22.29262
280.77        21.70433
281.22        21.11839
281.68        20.57882
282.13        20.05657
282.59         19.5732
283.04        19.11821
283.50        18.72722
283.95         18.4341
284.41         18.3286
284.86         18.3971
285.32        18.59439
285.77        18.84352
286.22        19.06232
286.68         19.2286
287.13        19.34786
287.59        19.41171
288.04        19.37141
288.50        19.25819
288.95        19.05774
289.41        18.88137
289.86        18.83224
290.32        18.94165
290.77        19.17362
291.22        19.43797
291.68        19.58475
292.13        19.59566
292.59        19.56243
293.04        19.57161
293.50        19.80039
293.95        20.27811
294.40        20.95514
294.86        21.78235
295.31        22.69435
295.77        23.63727
296.22        24.60555
296.68          25.554
297.13        26.40961
297.58        27.18055
298.04        27.91249
298.49        28.64034
298.95        29.45536
299.40        30.36918
299.85        31.35947
300.31        32.46061
300.76        33.72407
301.21        35.15088
301.67        36.73167
302.12        38.32745
302.58        39.73002
303.03        40.86552
303.48        41.82201
303.94        42.77995
304.39        43.94559
304.84        45.42166
305.30        47.14591
305.75        49.02857
306.20        50.93826
306.66        52.81514
307.11        54.64933
307.57        56.46311
308.02        58.21397
308.47        59.93575
308.93        61.64082
309.38        63.30781
309.83        64.98469
310.29        66.69073
310.74        68.39873
311.19        70.13041
311.65        71.89991
312.10        73.68089
312.55        75.45841
313.00        77.20959
313.46        78.90739
313.91        80.52593
314.36        82.06101
314.82        83.45834
315.27        84.64642
315.72        85.59243
316.18        86.33646
316.63        86.92668
317.08         87.5097
317.53           88.14
317.99        88.79888
318.44        89.46319
318.89        90.06085
319.35        90.57242
319.80          91.044
320.25        91.49239
320.70        91.94496
321.16          92.402
321.61        92.85898
322.06        93.33356
322.51        93.87601
322.97        94.45579
323.42        95.07915
323.87        95.62865
324.32        95.93729
324.78        95.96181
325.23        95.79057
325.68        95.51817
326.13        95.32166
326.59        95.25004
327.04        95.31533
327.49        95.48952
327.94        95.73898
328.39         96.0393
328.85        96.36523
329.30        96.76087
329.75        97.14821
330.20        97.50297
330.66        97.79543
331.11        98.05759
331.56        98.23721
332.01        98.34644
332.46        98.40339
332.92        98.46124
333.37        98.71244
333.82        99.17107
334.27        99.81532
334.72        100.5605
335.17        101.2459
335.63        101.7784
336.08        102.2212
336.53        102.6004
336.98        103.0278
337.43         103.537
337.88        104.1035
338.34        104.6092
338.79        104.9446
339.24        105.0578
339.69        104.9996
340.14        104.9592
340.59         105.227
341.05        105.8493
341.50        106.7553
341.95           107.7
342.40        108.2874
342.85        108.4266
343.30        108.2421
343.75        107.9885
344.20         108.065
344.66        108.5606
345.11        109.3436
345.56         110.212
346.01        110.8186
346.46         111.072
346.91        111.1138
347.36        111.0792
347.81        111.1687
348.26        111.4438
348.72        111.8193
349.17        112.2584
349.62        112.7823
350.07        113.3297
350.52        113.8555
350.97         114.214
351.42        114.1592
351.87        113.6756
352.32        112.9123
352.77        111.9773
353.22        111.0441
353.67        110.2036
354.13        109.4225
354.58         108.857
355.03        108.8405
355.48        109.3757
355.93        110.3969
356.38        111.3811
356.83         111.449
357.28        110.4413
357.73         108.628
358.18        106.7334
358.63        105.8461
359.08        106.1578
359.53        107.3177
359.98        108.6525
360.43        109.0274
360.88        108.1462
361.33        106.4112
361.78        104.3938
362.23        102.9106
362.68        102.1701
363.13        101.9056
363.58        101.8166
364.03        101.4492
364.48        100.6632
364.93        99.61595
365.38        98.50964
365.83        97.61449
366.28        96.99131
366.73         96.5499
367.18        96.07647
367.63        95.25842
368.08        94.06822
368.53        92.64742
368.98        91.30533
369.43        90.47524
369.88        90.21839
370.33        90.37978
370.78        90.65731
371.23        90.53004
371.68        89.85145
372.13        88.80288
372.58        87.61761
373.03        86.63692
373.48        85.95387
373.93        85.44469
374.38        85.05105
374.83        84.69429
375.28        84.32716
375.72        83.97189
376.17         83.5947
376.62        83.07673
377.07        82.40573
377.52        81.60742
377.97        80.77406
378.42        80.06454
378.87        79.52252
379.32        79.11115
379.77        78.76569
380.22        78.37556
380.67        77.91337
381.11        77.42523
381.56        76.94865
382.01        76.56258
382.46        76.28911
382.91        76.08936
383.36        75.93188
383.81        75.77406
384.26        75.58882
384.71        75.38084
385.15        75.11916
385.60        74.80235
386.05        74.42374
386.50        73.99846
386.95        73.55639
387.40         73.1518
387.85        72.80073
388.29        72.44221
388.74        72.16103
389.19        71.90266
389.64        71.65271
390.09        71.41044
390.54        71.14013
390.98        70.78751
391.43        70.40534
391.88        69.96185
392.33        69.52361
392.78        69.29581
393.23        69.23683
393.67        69.02889
394.12        68.73848
394.57        68.62608
395.02        68.56814
395.47        68.29038
395.91        67.43777
396.36        67.12014
396.81        67.24828
397.26        67.51078
397.71         67.7108
398.15        67.67732
398.60        67.44431
399.05        66.93539
399.50        66.37976
399.95        66.29881
400.39        66.65764
400.84        66.83821
401.29        66.71927
401.74        66.55822
402.18        66.32793
402.63        65.78989
403.08        65.13534
403.53         64.7646
403.97        64.72733
404.42        64.91655
404.87        65.14959
405.32        65.14796
405.76        64.84966
406.21        64.37881
406.66        63.88443
407.11        63.62589
407.55        63.69554
408.00        63.90644
408.45         64.1588
408.90        64.48682
409.34        64.68778
409.79        64.28573
410.24        63.49305
410.68        63.09956
411.13        63.19287
411.58        63.36057
412.03        63.51924
412.47        63.69957
412.92        63.83045
413.37        63.92738
413.81        63.97821
414.26        64.01293
414.71        64.02392
415.15        64.01324
415.60        63.98615
416.05        64.00967
416.49        64.09777
416.94        64.23224
417.39        64.37196
417.83        64.43404
418.28        64.41112
418.73        64.34119
419.17        64.27021
419.62        64.27318
420.07        64.36172
420.51        64.48924
420.96         64.6843
421.41        64.87566
421.85        65.02085
422.30        65.31034
422.74         65.6423
423.19        65.64153
423.64         65.4198
424.08        65.68447
424.53         66.3572
424.98        66.70516
425.42        66.64854
425.87        66.75465
426.31        67.02707
426.76         66.7839
427.21        66.27721
427.65        66.73689
428.10        67.85765
428.54        68.18666
428.99        67.75137
429.44        67.11124
429.88        66.61276
430.33         67.2588
430.77        68.58214
431.22        68.79716
431.66        67.96416
432.11        67.53653
432.56        67.67168
433.00        68.08938
433.45         68.5865
433.89        68.69236
434.34        67.52852
434.78        68.91497
435.23        69.25069
435.67        69.65427
436.12        69.26077
436.57        69.67911
437.01        70.80589
437.46        71.28873
437.90         71.0704
438.35        70.92858
438.79        70.89783
439.24        70.59052
439.68          70.142
440.13        70.14934
440.57        70.62296
441.02        70.97285
441.46        71.09398
441.91        71.57281
442.35        72.24114
442.80        71.91324
443.24        72.15877
443.69         71.9825
444.13        71.90027
444.58        71.85898
445.02         71.8716
445.47        71.98389
445.91        72.20495
446.36        72.53761
446.80        72.94186
447.24        73.49884
447.69        74.05757
448.13        74.17045
448.58        73.90849
449.02        73.74087
449.47        73.77121
449.91        73.76167
450.36        73.75906
450.80        73.92047
451.25        74.17793
451.69        74.26727
452.13        74.16738
452.58         73.9762
453.02        73.73416
453.47          73.581
453.91        73.54446
454.36        73.47751
454.80        73.39713
455.24        73.57261
455.69        73.83253
456.13        73.63251
456.58        73.20914
457.02        72.57705
457.46        72.97721
457.91          73.424
458.35        73.96985
458.79        73.94328
459.24        73.30272
459.68        72.54823
460.13        72.07538
460.57        70.97102
461.01        71.34078
461.46        71.64015
461.90        72.25883
462.34        72.18542
462.79        71.90735
463.23         72.0612
463.68         72.6065
464.12        72.67296
464.56        72.25491
465.01        71.67912
465.45        71.15727
465.89        71.46087
466.34        72.22414
466.78        72.41814
467.22        71.22392
467.67        70.58897
468.11        71.25764
468.55        71.49403
468.99        71.45232
469.44        71.41101
469.88        71.37222
470.32        71.22304
470.77        71.03063
471.21        70.95853
471.65        71.01786
472.10        71.18797
472.54        71.35546
472.98         71.3577
473.42        71.16064
473.87        70.87564
474.31        70.56777
474.75        70.29472
475.20         70.1404
475.64        70.32539
476.08         70.7194
476.52        70.80608
476.97          70.504
477.41        70.72256
477.85        69.66047
478.29        70.39932
478.74        70.88179
479.18        70.86629
479.62        70.05145
480.06        69.83651
480.50        70.29999
480.95         69.6748
481.39        70.36108
481.83        69.55214
482.27        69.91175
482.72        69.79351
483.16        69.79987
483.60        69.95034
484.04        70.19145
484.48        70.30414
484.93        70.48809
485.37        71.00409
485.81         70.6374
486.25        71.39442
486.69         71.3961
487.14        69.14989
487.58        68.07871
488.02        70.39312
488.46        69.60854
488.90        69.23878
489.34        70.21813
489.79        69.53497
490.23        69.50734
490.67        69.45139
491.11        69.81442
491.55        70.05222
491.99        70.06467
492.43        70.04117
492.88        69.95143
493.32        69.71635
493.76        69.41451
494.20        69.26067
494.64        69.27715
495.08        69.37151
495.52        69.53019
495.96         69.6927
496.41        69.74689
496.85        70.05855
497.29        69.69098
497.73        69.44831
498.17        69.16058
498.61        68.86349
499.05         68.6784
499.49        68.92905
499.93        69.47948
500.37        69.66737
500.82        69.48408
501.26         69.4923
501.70         69.6936
502.14        69.71555
502.58        69.54439
503.02        69.36108
503.46        69.18832
503.90        68.97398
504.34        68.80153
504.78        68.79903
505.22        68.96247
505.66        69.31522
506.10        69.74157
506.54         69.8335
506.98        69.49576
507.42         69.6122
507.86        68.96378
508.30         68.7281
508.74        68.73247
509.18        68.81669
509.62        68.96955
510.06        69.11329
510.50        69.22526
510.94        69.31307
511.38          69.377
511.82         69.4168
512.26        69.42812
512.70        69.39587
513.14        69.32235
513.58        69.21979
514.02        69.09841
514.46        68.97237
514.90        68.84326
515.34        68.70929
515.78        68.58098
516.22        68.46573
516.66        68.40086
517.10         68.4394
517.54        68.58166
517.98        68.80296
518.42        69.03648
518.86        69.17284
519.30        69.18354
519.74        69.09791
520.18        68.96699
520.62        68.87742
521.06        68.85256
521.50        68.86057
521.93        68.88583
522.37        68.89243
522.81        68.87354
523.25        68.85208
523.69        68.81172
524.13        68.71967
524.57        68.58422
525.01        68.42117
525.45        68.28967
525.89        68.28481
526.32        68.41742
526.76        68.64643
527.20        68.90648
527.64        69.09348
528.08        69.17258
528.52        69.17832
528.96        69.11685
529.40        69.00231
529.83        68.84616
530.27        68.65984
530.71        68.49791
531.15        68.46356
531.59        68.57213
532.03        68.79628
532.46        69.03278
532.90        69.13263
533.34        69.06306
533.78        68.81946
534.22          68.509
534.66        68.41544
535.09        68.50924
535.53        68.49171
535.97        68.34413
536.41        68.28519
536.85        68.31206
537.28        68.29363
537.72        68.24194
538.16        68.23684
538.60        68.27927
539.04        68.33561
539.47         68.3851
539.91        68.43917
540.35        68.47252
540.79        68.51033
541.22        68.53743
541.66        68.43108
542.10        68.36748
542.54        68.22542
542.97        68.07759
543.41        67.98934
543.85        67.96338
544.29        67.98479
544.72        68.03572
545.16        68.11143
545.60        68.18431
546.04        68.28509
546.47        68.38662
546.91        68.36929
547.35        68.27795
547.79         68.2994
548.22          68.366
548.66        68.36111
549.10        68.28204
549.53        67.91681
549.97        67.92534
550.41        67.92631
550.84        68.10619
551.28          68.437
551.72        68.80499
552.15        68.95646
552.59         68.8848
553.03        68.74932
553.46        68.58533
553.90        68.50753
554.34        68.55041
554.77        68.51038
555.21        68.32621
555.65        68.79615
556.08        68.54063
556.52        68.33434
556.96        67.89896
557.39        67.74041
557.83        67.91373
558.27        68.08757
558.70        68.18587
559.14        68.53687
559.57        68.49866
560.01        68.58688
560.45        68.57084
560.88        68.50465
561.32        68.44071
561.75        68.03055
562.19         67.5075
562.63        67.76587
563.06        68.57793
563.50        68.50036
563.93        67.65533
564.37        67.44682
564.80         67.8767
565.24        68.20585
565.68        68.31484
566.11        68.35641
566.55        68.33162
566.98        68.17314
567.42        68.00559
567.85        67.96145
568.29        68.08582
568.72        68.29082
569.16        68.57165
569.60        68.66785
570.03        68.48947
570.47        68.50711
570.90        68.73573
571.34        67.83237
571.77        68.29575
572.21        68.25333
572.64         68.4504
573.08        68.27673
573.51        68.20539
573.95        68.97435
574.38        68.37212
574.82        68.75385
