SpectraSmart Spectrum 2.9.0.0
--------- Device Information -----------
Spectrum Name :  反射率_0
Saving Time :  2024/05/01 16:22:02
Spectro-Module Model Name : SE2030-DUVN
Spectro-Module Serial Number : OS361AC55029948
Wavelength Start : 200
Wavelength End : 1025
Wavelength Unit : Wavelength(nm)
Spectrum Unit : Reflectance(%)
-----------Spectrum Setting ------------
Integration Time : 20ms
Average : 10
Boxcar : 0
Background removal :  enabled
linearity correction :  enabled
SC :  disabled
Intensity correction :  disabled
DWT denoise :  enabled
savitzky-golay :  disabled
FFT :  disabled
Running average :  disabled
Kalman :  disabled
High pass :  disabled
---------------BEGIN--------------------
Wavelength(nm)             Reflectance(%)
200.29               0
200.75        17.70296
201.21        107.1298
201.67       -43.61805
202.13       -5.892418
202.58        11.46785
203.04        23.46318
203.50        31.10675
203.96        33.73171
204.42        31.49468
204.88         19.0374
205.34       -297.8838
205.80        76.85973
206.26        45.96189
206.72        9.542151
207.18       -153.4292
207.64        309.5364
208.10        146.4336
208.55        105.6882
209.01        84.93968
209.47        74.14288
209.93         68.7558
210.39        64.94626
210.85        63.15971
211.31        65.38145
211.77        80.88921
212.23       -70.72902
212.69        22.63031
213.14        38.84906
213.60         74.4299
214.06       -289.2796
214.52       -33.73793
214.98       -12.01889
215.44        2.402177
215.90        34.22666
216.36         461.584
216.81       -170.7307
217.27       -147.6183
217.73        62.33545
218.19       -42.58688
218.65       -54.64043
219.11        -63.3662
219.57       -75.47384
220.02       -69.13748
220.48        15.21491
220.94        10.89625
221.40        5.541041
221.86        4.434857
222.32        8.088545
222.77        16.25509
223.23        29.26199
223.69        46.24183
224.15        54.87053
224.61        49.58171
225.06        39.33487
225.52        31.19897
225.98        27.11307
226.44        26.01798
226.90        26.48067
227.36        28.16772
227.81        29.77097
228.27        30.21587
228.73        30.25943
229.19        29.97836
229.65        29.22033
230.10        27.95963
230.56        26.15948
231.02        24.19282
231.48        23.58411
231.93        24.80902
232.39        27.03825
232.85        29.37461
233.31        31.12323
233.77        32.24725
234.22        33.03927
234.68        33.54543
235.14        33.95744
235.60        34.37083
236.05         34.7532
236.51        35.10399
236.97        35.35123
237.43        35.28267
237.88        34.87602
238.34        33.95795
238.80        32.52852
239.26        30.32449
239.71        27.07913
240.17        22.02531
240.63        15.28691
241.08        9.957695
241.54        8.496704
242.00        10.89654
242.46        17.01234
242.91        28.44194
243.37        48.07557
243.83        82.09284
244.28        117.1265
244.74        124.3831
245.20        114.0613
245.66        100.8424
246.11        89.55138
246.57        78.15359
247.03        61.44737
247.48        35.16457
247.94        4.579628
248.40        -15.1628
248.85       -19.76162
249.31       -8.847286
249.77        8.793889
250.22        25.31285
250.68        39.09505
251.14        48.40381
251.59        52.82225
252.05        53.38325
252.51        48.95163
252.96        35.09339
253.42        18.51348
253.88        28.59609
254.33        50.44637
254.79        60.91459
255.25        62.09795
255.70        59.40713
256.16        56.43653
256.62        54.17754
257.07        53.33827
257.53         53.8127
257.99        54.52302
258.44        54.91211
258.90        54.96038
259.35        54.39019
259.81        53.64046
260.27          52.639
260.72        51.39101
261.18        50.23565
261.63        48.95473
262.09        47.80605
262.55         46.7288
263.00        45.61525
263.46        44.56252
263.91        43.41398
264.37        42.22158
264.83        40.95903
265.28        39.67726
265.74        38.43699
266.19        37.10223
266.65        35.78244
267.11        34.45626
267.56        33.32551
268.02        32.79066
268.47        32.84333
268.93        33.29464
269.38        33.80655
269.84        33.77254
270.30        33.06675
270.75        31.87178
271.21        30.44802
271.66        29.08781
272.12        27.96986
272.57        26.97013
273.03        26.17289
273.48        25.66369
273.94        25.43286
274.39        25.42443
274.85        25.47106
275.31        25.28038
275.76        24.79482
276.22          24.134
276.67        23.39225
277.13        22.78373
277.58        22.31036
278.04        21.94075
278.49        21.60126
278.95        21.28151
279.40        20.93046
279.86         20.5916
280.31        20.24334
280.77        19.91099
281.22        19.56719
281.68        19.25327
282.13        18.91113
282.59        18.52011
283.04        18.07273
283.50        17.61955
283.95        17.24379
284.41        17.11022
284.86        17.22365
285.32        17.51907
285.77        17.88041
286.22        18.16485
286.68        18.34264
287.13         18.4438
287.59        18.49798
288.04        18.51432
288.50         18.5333
288.95        18.51538
289.41         18.5358
289.86        18.65231
290.32        18.88825
290.77        19.22547
291.22        19.59499
291.68        19.87774
292.13        20.06373
292.59        20.23444
293.04        20.46651
293.50        20.92348
293.95        21.62925
294.40         22.5393
294.86        23.60958
295.31        24.77849
295.77        25.99717
296.22        27.26559
296.68        28.53676
297.13        29.73282
297.58        30.87169
298.04        32.00649
298.49        33.19392
298.95        34.55862
299.40         36.0966
299.85        37.74767
300.31        39.51467
300.76        41.40351
301.21        43.41002
301.67        45.55125
302.12        47.65293
302.58        49.45361
303.03        50.87713
303.48        52.02893
303.94        53.20686
304.39        54.77693
304.84        56.85785
305.30        59.31341
305.75        61.89513
306.20        64.22858
306.66        66.19577
307.11        67.85738
307.57        69.34177
308.02        70.74889
308.47        72.16393
308.93        73.55078
309.38        74.87231
309.83        76.16484
310.29        77.44218
310.74        78.69884
311.19        79.92569
311.65        81.07584
312.10          82.117
312.55        83.05235
313.00         83.9372
313.46        84.86635
313.91        85.84047
314.36        86.83192
314.82        87.70714
315.27        88.26499
315.72        88.46496
316.18        88.41664
316.63        88.26964
317.08        88.31084
317.53        88.61583
317.99        89.10579
318.44        89.69009
318.89        90.19131
319.35        90.54913
319.80        90.83685
320.25        91.07137
320.70        91.28373
321.16          91.481
321.61        91.64563
322.06        91.83206
322.51        92.15791
322.97        92.60836
323.42         93.1827
323.87        93.71118
324.32        93.93036
324.78        93.78219
325.23         93.3925
325.68        92.92791
326.13        92.67941
326.59        92.72321
327.04        93.02818
327.49        93.51003
327.94        94.04167
328.39        94.55666
328.85        95.04443
329.30        95.55132
329.75        96.01111
330.20        96.40669
330.66        96.70001
331.11        96.92647
331.56        97.04948
332.01        97.09061
332.46        97.07168
332.92        97.06628
333.37        97.29099
333.82        97.76408
334.27        98.46215
334.72        99.26437
335.17        99.94272
335.63        100.3928
336.08        100.7025
336.53        100.9495
336.98        101.3286
337.43        101.8952
337.88        102.5951
338.34        103.2811
338.79        103.7934
339.24         104.051
339.69        104.1091
340.14        104.1431
340.59        104.4226
341.05        104.9995
341.50        105.8205
341.95        106.6644
342.40        107.1743
342.85        107.2836
343.30        107.1174
343.75        106.9549
344.20        107.2289
344.66        108.0201
345.11        109.1678
345.56        110.4089
346.01         111.299
346.46        111.7047
346.91        111.7783
347.36         111.673
347.81        111.6232
348.26        111.7197
348.72        111.8954
349.17        112.1319
349.62        112.4743
350.07        112.8844
350.52        113.3249
350.97        113.6979
351.42        113.8252
351.87        113.6753
352.32        113.3425
352.77         112.829
353.22        112.1516
353.67        111.3677
354.13         110.503
354.58        109.7594
355.03        109.5487
355.48        109.9129
355.93        110.7612
356.38         111.641
356.83        111.7859
357.28        111.0392
357.73        109.6361
358.18        108.1463
358.63        107.4236
359.08         107.621
359.53        108.4543
359.98        109.4045
360.43        109.6095
360.88         108.842
361.33        107.4073
361.78        105.7466
362.23         104.482
362.68        103.7744
363.13        103.4334
363.58        103.2073
364.03        102.7178
364.48        101.8589
364.93        100.7517
365.38        99.62705
365.83        98.80756
366.28        98.34935
366.73        98.15186
367.18        97.91292
367.63        97.16669
368.08        95.86079
368.53        94.19238
368.98        92.57932
369.43        91.62037
369.88           91.42
370.33        91.77797
370.78          92.333
371.23        92.45084
371.68        91.93513
372.13        90.99261
372.58        89.87355
373.03        88.95138
373.48          88.325
373.93        87.84228
374.38        87.43568
374.83        87.02113
375.28        86.55414
375.72        86.07908
376.17        85.55962
376.62        84.86189
377.07        83.98739
377.52        82.97954
377.97        81.98765
378.42        81.25471
378.87        80.83311
379.32        80.65025
379.77        80.56897
380.22        80.37128
380.67        79.99561
381.11        79.50555
381.56        78.97521
382.01        78.54907
382.46        78.26984
382.91        78.08472
383.36        77.92564
383.81         77.6947
384.26        77.36324
384.71        76.96375
385.15        76.53525
385.60        76.18117
386.05         75.9076
386.50        75.68532
386.95        75.46015
387.40        75.15722
387.85        74.76554
388.29        74.27306
388.74        73.82124
389.19        73.43047
389.64        73.10954
390.09         72.8358
390.54        72.57228
390.98        72.24654
391.43        71.89474
391.88        71.53529
392.33        71.23188
392.78        70.98405
393.23        70.78146
393.67         70.7224
394.12        70.85387
394.57        70.30827
395.02        70.48562
395.47        69.99854
395.91        69.42276
396.36        69.15388
396.81        69.24829
397.26        69.48181
397.71        69.66062
398.15        69.61256
398.60         69.3355
399.05        68.74244
399.50        68.06898
399.95        67.74009
400.39        67.81705
400.84        68.08047
401.29        68.33268
401.74         68.2942
402.18        67.88698
402.63        67.17389
403.08        66.41656
403.53         65.9843
403.97         65.9513
404.42        66.22007
404.87        66.57027
405.32        66.66721
405.76        66.42242
406.21        65.95428
406.66        65.44727
407.11         65.1957
407.55        65.28109
408.00        65.59363
408.45        65.95776
408.90        66.00288
409.34        65.66936
409.79        65.21092
410.24         64.7733
410.68        64.45872
411.13        64.33273
411.58        64.38112
412.03        64.54365
412.47        64.69791
412.92        64.77348
413.37        64.82179
413.81        64.84255
414.26        64.88417
414.71        64.93794
415.15        64.99673
415.60        65.02311
416.05        65.01842
416.49        64.98579
416.94        64.92641
417.39        64.86747
417.83        64.83486
418.28        64.84286
418.73         64.8949
419.17        64.96404
419.62        65.00735
420.07        65.00351
420.51        64.94522
420.96        64.92004
421.41        64.91979
421.85        64.92307
422.30        65.17758
422.74        65.54882
423.19        65.39188
423.64        64.86676
424.08         65.1796
424.53        66.25282
424.98        66.36281
425.42        66.36572
425.87        66.32416
426.31        66.54392
426.76        66.07595
427.21        65.26545
427.65        65.71015
428.10        67.01182
428.54        67.33886
428.99        66.70024
429.44        65.71033
429.88        64.84807
430.33        65.58433
430.77          67.321
431.22        67.45058
431.66        66.12315
432.11        65.70987
432.56        66.34068
433.00        66.91528
433.45         67.2722
433.89        67.33338
434.34         66.7363
434.78        68.25845
435.23        67.44389
435.67        67.50413
436.12        67.29843
436.57        67.73715
437.01        68.67413
437.46        69.09805
437.90        68.95844
438.35         68.8903
438.79        68.91293
439.24        68.64891
439.68        68.22139
440.13         68.2019
440.57        68.58889
441.02        68.88956
441.46        69.03183
441.91        69.41959
442.35        69.83813
442.80        69.93391
443.24        69.72295
443.69        69.60143
444.13        69.63113
444.58        69.69139
445.02        69.77288
445.47        70.03682
445.91        70.43264
446.36        70.68314
446.80        70.71579
447.24        71.08013
447.69        71.08691
448.13        70.94633
448.58        71.08489
449.02        71.00639
449.47         70.9504
449.91        70.97046
450.36        71.10262
450.80        71.28724
451.25        71.47106
451.69        71.53849
452.13        71.47434
452.58        71.32294
453.02        71.11508
453.47        70.95725
453.91        70.86494
454.36        70.78067
454.80        70.71468
455.24        70.71485
455.69        70.68879
456.13         70.5528
456.58        70.48978
457.02        69.77574
457.46        70.15997
457.91        70.54352
458.35        71.14725
458.79        71.18977
459.24        70.63392
459.68        69.94822
460.13         69.4698
460.57         68.5528
461.01        68.88382
461.46        69.12561
461.90        69.47879
462.34        69.73914
462.79        68.97762
463.23        68.97629
463.68        69.36448
464.12        69.50285
464.56        69.29421
465.01        68.88524
465.45        68.42354
465.89        68.49794
466.34        68.88132
466.78        69.26429
467.22        68.18623
467.67        68.07403
468.11        68.27058
468.55        68.45913
468.99        68.48241
469.44        68.50957
469.88        68.54896
470.32        68.55021
470.77         68.5414
471.21        68.56863
471.65        68.61988
472.10        68.69955
472.54        68.76632
472.98        68.72016
473.42        68.53995
473.87        68.42696
474.31        68.38335
474.75        67.92361
475.20        67.71584
475.64        67.79604
476.08        68.21627
476.52        68.32271
476.97        68.05379
477.41        68.09978
477.85        67.45685
478.29        67.85606
478.74          68.103
479.18        68.02767
479.62        67.44152
480.06        67.31906
480.50        67.71364
480.95        67.02818
481.39        67.56365
481.83        67.20404
482.27        67.05047
482.72        67.49001
483.16         67.2653
483.60        67.42127
484.04        67.59457
484.48        67.47673
484.93        67.42701
485.37        68.03907
485.81        67.78267
486.25        69.09914
486.69        68.46496
487.14        66.42732
487.58        65.90034
488.02        67.82635
488.46        66.77226
488.90        66.68882
489.34         67.8593
489.79        67.33334
490.23        67.30375
490.67        67.01322
491.11        67.06574
491.55        67.22818
491.99        67.40562
492.43        67.42416
492.88        67.24328
493.32        67.03645
493.76        66.87331
494.20        66.82917
494.64        66.92432
495.08        67.05654
495.52        67.19938
495.96        67.41672
496.41        67.61224
496.85        67.59415
497.29        67.33839
497.73        66.96489
498.17        66.60165
498.61        66.35342
499.05        66.30499
499.49         66.6113
499.93        67.11021
500.37        67.22146
500.82        66.97903
501.26        66.99084
501.70        67.26677
502.14        67.41412
502.58        67.36859
503.02        67.23785
503.46        67.02742
503.90        66.70903
504.34        66.40536
504.78        66.31035
505.22        66.44458
505.66        66.80711
506.10        67.25884
506.54        67.38755
506.98        67.09403
507.42        67.15455
507.86        66.52242
508.30        66.35562
508.74        66.36275
509.18        66.50553
509.62        66.70743
510.06         66.8696
510.50        66.96185
510.94        67.00562
511.38         67.0192
511.82        67.02596
512.26        67.03077
512.70        67.01227
513.14        66.96692
513.58        66.89725
514.02        66.80757
514.46         66.7124
514.90        66.61034
515.34        66.49437
515.78        66.37323
516.22        66.25522
516.66        66.17545
517.10        66.18541
517.54         66.2877
517.98        66.45984
518.42        66.64913
518.86        66.76744
519.30        66.79218
519.74        66.75078
520.18        66.67471
520.62        66.61939
521.06        66.60019
521.50        66.58808
521.93        66.59339
522.37        66.62395
522.81        66.67691
523.25          66.758
523.69        66.80403
524.13          66.711
524.57         66.4767
525.01        66.14433
525.45        65.82792
525.89        65.70688
526.32        65.81425
526.76        66.08591
527.20        66.41842
527.64        66.64414
528.08        66.71011
528.52        66.67167
528.96         66.5614
529.40        66.43252
529.83        66.30638
530.27        66.17826
530.71        66.08038
531.15        66.08466
531.59        66.19613
532.03        66.39295
532.46         66.5935
532.90         66.6815
533.34        66.63072
533.78        66.43088
534.22        66.15442
534.66        66.02807
535.09        66.02042
535.53        65.86295
535.97         65.5894
536.41        65.48994
536.85        65.57434
537.28        65.68532
537.72        65.78191
538.16        65.85651
538.60          65.888
539.04        65.87574
539.47        65.82442
539.91        65.78511
540.35         65.7533
540.79        65.73708
541.22        65.73797
541.66        65.69395
542.10        65.72621
542.54        65.73982
542.97        65.75534
543.41        65.77917
543.85         65.7993
544.29        65.81759
544.72        65.82964
545.16        65.86496
545.60         65.9116
546.04        65.95551
546.47        65.98952
546.91        66.01445
547.35        66.03322
547.79         66.0303
548.22        65.96208
548.66        65.90238
549.10        65.85728
549.53        65.52074
549.97        65.50718
550.41        65.48141
550.84         65.6279
551.28        65.85569
551.72        66.09955
552.15        66.33167
552.59        66.48113
553.03        66.35281
553.46        66.01967
553.90        65.91704
554.34        66.08025
554.77        66.16102
555.21        66.06622
555.65        66.48494
556.08        66.12739
556.52        65.99963
556.96        65.76862
557.39        65.58131
557.83        65.50116
558.27        65.46526
558.70         65.4695
559.14        65.76653
559.57        65.75511
560.01        66.03172
560.45        66.28006
560.88        66.25194
561.32        66.03007
561.75        65.60587
562.19        65.23203
562.63         65.5555
563.06        66.30564
563.50        66.40137
563.93        65.45416
564.37        65.13936
564.80        65.56389
565.24        65.82255
565.68        65.87315
566.11        65.77274
566.55         65.5984
566.98        65.53361
567.42        65.63513
567.85        65.73061
568.29        65.83085
568.72        65.94598
569.16        66.10867
569.60        66.16503
570.03        66.05008
570.47        65.94677
570.90         66.3205
571.34        65.41341
571.77        65.90062
572.21        65.96616
572.64         66.3906
573.08        65.95598
573.51        65.95831
573.95        66.64293
574.38        66.09123
574.82        66.04906
