SpectraSmart Spectrum 2.9.0.0
--------- Device Information -----------
Spectrum Name :  反射率_0
Saving Time :  2024/05/01 15:57:46
Spectro-Module Model Name : SE2030-DUVN
Spectro-Module Serial Number : OS361AC55029948
Wavelength Start : 200
Wavelength End : 1025
Wavelength Unit : Wavelength(nm)
Spectrum Unit : Reflectance(%)
-----------Spectrum Setting ------------
Integration Time : 20ms
Average : 10
Boxcar : 0
Background removal :  enabled
linearity correction :  enabled
SC :  disabled
Intensity correction :  disabled
DWT denoise :  enabled
savitzky-golay :  disabled
FFT :  disabled
Running average :  disabled
Kalman :  disabled
High pass :  disabled
---------------BEGIN--------------------
Wavelength(nm)             Reflectance(%)
200.29               0
200.75       -20.43188
201.21        124.9748
201.67       -94.58703
202.13       -31.82518
202.58      -0.8598524
203.04        21.55813
203.50        37.77144
203.96        48.42891
204.42        57.83332
204.88        78.78538
205.34        584.2716
205.80       -38.76059
206.26       -24.53613
206.72       -46.56606
207.18       -221.1467
207.64         350.447
208.10        176.7772
208.55        146.9946
209.01        134.8388
209.47        121.8459
209.93        105.5255
210.39        85.70068
210.85        66.92016
211.31        56.48871
211.77        63.18443
212.23       -72.79592
212.69        4.482374
213.14        14.44532
213.60        33.11025
214.06       -131.8621
214.52       -14.02092
214.98       -2.992654
215.44        5.864964
215.90        25.38635
216.36        317.7253
216.81       -150.3508
217.27       -226.7657
217.73        540.2953
218.19        118.8435
218.65        76.60941
219.11        59.86655
219.57        36.84543
220.02        -77.5396
220.48       -78.03799
220.94       -18.49964
221.40        1.598989
221.86        10.18994
222.32        14.43971
222.77        17.38727
223.23        20.55131
223.69        23.76557
224.15        24.29163
224.61        21.86006
225.06        18.63258
225.52         16.5744
225.98        16.31114
226.44        17.58386
226.90        20.15743
227.36        23.90865
227.81         26.8217
228.27        27.31451
228.73        26.44275
229.19        25.07967
229.65        23.56087
230.10        21.81253
230.56        19.76588
231.02        17.71709
231.48        17.00163
231.93         18.1355
232.39        20.34497
232.85        23.05136
233.31        25.88173
233.77        28.63622
234.22        31.35064
234.68        33.67464
235.14        35.41716
235.60        36.73939
236.05         37.8712
236.51        39.17904
236.97        41.33862
237.43         44.2914
237.88        47.26373
238.34         49.4239
238.80        50.93501
239.26        52.10211
239.71         53.5558
240.17        54.06359
240.63        49.93375
241.08        40.62799
241.54        30.04801
242.00        24.32837
242.46        27.80921
242.91        42.37239
243.37        72.45658
243.83        123.6737
244.28        163.8409
244.74        155.0769
245.20        125.2488
245.66        99.15019
246.11        82.88836
246.57        72.10625
247.03        60.84861
247.48        45.43623
247.94        26.25776
248.40        10.66988
248.85        3.839381
249.31        9.253621
249.77        22.82139
250.22        37.88876
250.68        51.22087
251.14        61.18555
251.59        68.28938
252.05        74.75336
252.51        83.62216
252.96        102.4345
253.42        140.6848
253.88        161.3925
254.33        142.6122
254.79        122.6442
255.25        108.9727
255.70        98.54852
256.16         90.9595
256.62        85.33537
257.07        81.52541
257.53        79.68068
257.99        78.68957
258.44        77.87963
258.90        77.31518
259.35        76.47148
259.81        75.75686
260.27        74.94719
260.72        73.89891
261.18        72.96232
261.63        71.79209
262.09        70.78622
262.55        69.89108
263.00        68.92618
263.46        68.03085
263.91        66.86472
264.37        65.41373
264.83        63.65395
265.28         61.7227
265.74        59.85787
266.19        58.05243
266.65        56.46969
267.11        54.99056
267.56         53.7805
268.02        53.20882
268.47        53.21703
268.93        53.63353
269.38         54.0122
269.84        53.58385
270.30        52.21868
270.75        50.16549
271.21        47.87348
271.66        45.89793
272.12        44.47295
272.57        43.36555
273.03        42.54519
273.48        41.88857
273.94        41.35106
274.39        40.94612
274.85        40.54964
275.31        39.88369
275.76        38.91971
276.22        37.79915
276.67        36.67382
277.13        35.89372
277.58        35.43355
278.04        35.21444
278.49        35.04559
278.95        34.76936
279.40        34.28486
279.86        33.71296
280.31        33.05328
280.77        32.41036
281.22        31.76247
281.68        31.14672
282.13        30.53165
282.59        29.97301
283.04        29.45165
283.50        29.02705
283.95         28.6877
284.41        28.46609
284.86        28.35473
285.32        28.35982
285.77        28.48207
286.22         28.7741
286.68        29.21984
287.13        29.74987
287.59        30.27363
288.04        30.59945
288.50        30.70305
288.95        30.59725
289.41        30.39953
289.86        30.19361
290.32         30.0642
290.77        30.00584
291.22        30.02831
291.68        30.12632
292.13        30.31282
292.59        30.64328
293.04        31.16809
293.50        32.00494
293.95         33.1391
294.40        34.52738
294.86        36.05091
295.31        37.53324
295.77        38.90702
296.22        40.18358
296.68        41.42438
297.13        42.71728
297.58        44.11615
298.04        45.62547
298.49        47.18791
298.95         48.7529
299.40        50.27528
299.85        51.76521
300.31        53.33992
300.76        55.15347
301.21        57.24626
301.67        59.58861
302.12        61.92674
302.58        63.88655
303.03        65.35217
303.48        66.46964
303.94        67.61015
304.39        69.21345
304.84        71.42295
305.30        74.07354
305.75        76.84257
306.20        79.25803
306.66        81.18848
307.11        82.71893
307.57        84.07042
308.02        85.45481
308.47        86.98361
308.93        88.58527
309.38        90.12907
309.83         91.5166
310.29        92.74557
310.74        93.86591
311.19        94.96248
311.65        96.12959
312.10        97.36143
312.55        98.60294
313.00        99.85878
313.46        101.1471
313.91        102.4311
314.36        103.7042
314.82        104.7958
315.27        105.4475
315.72        105.6183
316.18        105.4411
316.63        105.1424
317.08        105.1481
317.53        105.5614
317.99        106.2635
318.44         107.098
318.89        107.7631
319.35        108.1616
319.80        108.4132
320.25        108.5687
320.70        108.7156
321.16        108.8843
321.61        109.0428
322.06         109.262
322.51        109.6898
322.97        110.3102
323.42         111.128
323.87         111.922
324.32        112.3446
324.78        112.3066
325.23        111.9394
325.68        111.4611
326.13        111.2583
326.59        111.4227
327.04         111.909
327.49        112.5359
327.94        113.0215
328.39        113.2659
328.85         113.292
329.30        113.3142
329.75        113.5192
330.20         113.964
330.66        114.5561
331.11        115.1526
331.56        115.3849
332.01        115.1975
332.46        114.7086
332.92        114.2201
333.37        114.3463
333.82        115.2023
334.27         116.648
334.72        118.3194
335.17        119.5648
335.63        120.1323
336.08         120.225
336.53        120.1115
336.98        120.3134
337.43        120.9799
337.88        121.9559
338.34        122.9397
338.79        123.5354
339.24         123.598
339.69        123.2882
340.14        122.9293
340.59        123.0085
341.05        123.6336
341.50        124.6724
341.95        125.8052
342.40        126.5204
342.85        126.6994
343.30        126.5194
343.75        126.2901
344.20        126.4899
344.66        127.2175
345.11        128.2858
345.56        129.4556
346.01        130.3275
346.46        130.7736
346.91        130.9483
347.36        130.9441
347.81        130.8937
348.26        130.8753
348.72        130.8496
349.17        130.8869
349.62        131.1849
350.07         131.724
350.52        132.4009
350.97         133.009
351.42        133.1911
351.87        132.8801
352.32        132.2567
352.77         131.378
353.22        130.3455
353.67        129.2557
354.13        128.0934
354.58        127.1365
355.03         126.931
355.48        127.5147
355.93        128.7689
356.38        130.0155
356.83        130.1076
357.28        128.8324
357.73        126.5626
358.18        124.1853
358.63        123.0243
359.08        123.3249
359.53        124.6538
359.98        126.2434
360.43        126.8042
360.88        125.9744
361.33        124.1921
361.78        122.0606
362.23        120.4383
362.68        119.5526
363.13        119.1305
363.58        118.8452
364.03        118.2136
364.48        117.1033
364.93        115.6858
365.38         114.259
365.83        113.2303
366.28        112.6727
366.73        112.4556
367.18        112.2046
367.63        111.3436
368.08        109.7999
368.53        107.8097
368.98        105.8748
369.43        104.7152
369.88        104.4578
370.33        104.8641
370.78        105.4955
371.23        105.5858
371.68        104.9031
372.13        103.6998
372.58        102.3026
373.03        101.1948
373.48        100.5019
373.93        100.0373
374.38        99.67989
374.83        99.26014
375.28        98.70937
375.72        98.09648
376.17        97.43527
376.62        96.65764
377.07        95.77643
377.52        94.80705
377.97        93.85226
378.42        93.08619
378.87        92.54904
379.32         92.1974
379.77        91.93675
380.22         91.6104
380.67        91.17403
381.11        90.67388
381.56        90.16038
382.01        89.74202
382.46        89.44736
382.91        89.23029
383.36        89.03449
383.81        88.77979
384.26        88.43824
384.71         88.0337
385.15        87.58115
385.60        87.15423
386.05        86.75864
386.50        86.38451
386.95        86.01316
387.40        85.62516
387.85        85.21842
388.29        84.74841
388.74        84.34698
389.19        84.00403
389.64        83.71942
390.09        83.47224
390.54        83.20358
390.98        82.85176
391.43        82.47481
391.88        81.95654
392.33        81.38999
392.78        81.21748
393.23        81.30763
393.67        80.87125
394.12        80.08555
394.57        79.80508
395.02        79.93645
395.47        79.57349
395.91        78.82451
396.36        78.49724
396.81        78.63049
397.26        78.84617
397.71        78.97508
398.15        78.86944
398.60        78.57206
399.05        78.06357
399.50        77.53191
399.95        77.28808
400.39        77.36162
400.84        77.50089
401.29        77.56255
401.74        77.41967
402.18        77.02524
402.63        76.36639
403.08        75.66189
403.53        75.24475
403.97        75.16349
404.42        75.31956
404.87         75.5377
405.32        75.53798
405.76        75.24973
406.21         74.8449
406.66        74.41251
407.11        74.01254
407.55        73.78926
408.00        73.81051
408.45         74.0078
408.90        74.32329
409.34         74.5032
409.79        73.96188
410.24         72.9556
410.68        72.47659
411.13        72.61893
411.58        72.84033
412.03        73.00496
412.47        73.12754
412.92        73.12173
413.37        73.00919
413.81        72.84748
414.26        72.77875
414.71        72.81087
415.15          72.918
415.60        73.02744
416.05        73.07816
416.49         73.0517
416.94        72.96777
417.39        72.86195
417.83        72.77132
418.28        72.71595
418.73        72.69111
419.17        72.67773
419.62        72.65108
420.07         72.5967
420.51        72.50601
420.96         72.4549
421.41        72.42688
421.85        72.39454
422.30         72.5571
422.74        72.79438
423.19        72.64908
423.64        72.25654
424.08        72.48511
424.53        73.20855
424.98        73.50484
425.42        73.28538
425.87         73.1468
426.31        73.17236
426.76        72.94685
427.21        72.66278
427.65         73.0845
428.10        73.91695
428.54        74.20152
428.99        73.92416
429.44        73.14182
429.88        72.23438
430.33        72.68603
430.77        73.98487
431.22        73.85762
431.66        72.48778
432.11        71.97767
432.56        72.45478
433.00        73.06741
433.45        73.53756
433.89        73.62457
434.34        72.39437
434.78         73.8736
435.23         73.2459
435.67        73.40858
436.12        73.14926
436.57        73.65786
437.01        74.74707
437.46        75.18147
437.90        74.89501
438.35        74.59949
438.79        74.39257
439.24        74.00331
439.68        73.57971
440.13         73.6869
440.57        74.27596
441.02         74.6524
441.46        74.69105
441.91        75.04942
442.35        75.52845
442.80        75.10813
443.24        74.76651
443.69        74.53501
444.13        74.70724
444.58        74.78872
445.02        74.77255
445.47        74.98139
445.91         75.3578
446.36        75.68389
446.80        75.90984
447.24        76.09866
447.69        76.24059
448.13        76.30234
448.58        76.30483
449.02        76.22312
449.47        76.12296
449.91        76.06915
450.36        76.09695
450.80        76.16611
451.25        76.24421
451.69        76.22782
452.13        76.10689
452.58        75.92512
453.02        75.71857
453.47        75.54858
453.91        75.41312
454.36         75.3675
454.80        75.40227
455.24        75.12263
455.69        75.12981
456.13        74.91242
456.58         74.7646
457.02        74.40305
457.46        74.31765
457.91        74.63741
458.35        75.23119
458.79        75.26613
459.24        74.69897
459.68        74.06882
460.13        73.70499
460.57        72.71677
461.01        72.99588
461.46        73.06203
461.90        73.49207
462.34        73.27222
462.79         72.4757
463.23         72.5732
463.68        73.32944
464.12        73.49123
464.56        73.02512
465.01        72.50321
465.45        72.06496
465.89        72.30956
466.34        72.98139
466.78        72.79819
467.22        71.84526
467.67        71.45017
468.11        71.48164
468.55        71.71648
468.99        71.93472
469.44        72.01199
469.88        71.91156
470.32        71.76452
470.77        71.63581
471.21        71.55769
471.65        71.53908
472.10        71.59037
472.54        71.64187
472.98        71.59321
473.42        71.42133
473.87        71.24245
474.31        71.07584
474.75        70.82258
475.20        70.57435
475.64        70.74798
476.08         71.2365
476.52         71.1578
476.97        70.87707
477.41        70.92628
477.85        70.09081
478.29        70.42492
478.74        70.69002
479.18        70.87096
479.62        70.05535
480.06        69.96728
480.50        70.45044
480.95         69.7669
481.39        70.30794
481.83         69.8567
482.27        70.02882
482.72        70.03767
483.16        69.70573
483.60        69.78589
484.04        70.10175
484.48        70.13691
484.93        70.09711
485.37         71.0153
485.81        70.58687
486.25        71.50367
486.69        71.17471
487.14        68.90584
487.58        68.13034
488.02        70.04803
488.46        69.31541
488.90        69.03516
489.34        69.99536
489.79        69.68671
490.23        69.49114
490.67         69.2366
491.11        69.22013
491.55        69.24387
491.99        69.25154
492.43        69.20779
492.88        69.10085
493.32        69.03079
493.76        68.99937
494.20        68.99731
494.64        69.02357
495.08        69.00116
495.52        68.96573
495.96        69.08804
496.41        69.29755
496.85        69.36124
497.29        69.21142
497.73        68.90949
498.17        68.56234
498.61        68.29617
499.05        68.21096
499.49        68.46133
499.93        68.90906
500.37        69.03117
500.82        68.84538
501.26        68.87693
501.70        69.12783
502.14        69.24837
502.58        69.19437
503.02        69.08524
503.46        68.92924
503.90        68.69127
504.34         68.4575
504.78        68.37419
505.22        68.46143
505.66        68.69292
506.10        68.97643
506.54        69.07172
506.98         68.8906
507.42        68.77738
507.86        68.40999
508.30        67.98967
508.74        68.23103
509.18         68.3813
509.62        68.59387
510.06        68.74783
510.50        68.80765
510.94        68.79036
511.38        68.72017
511.82        68.65613
512.26        68.61182
512.70        68.56441
513.14        68.50056
513.58        68.40373
514.02        68.27402
514.46        68.13026
514.90        67.98888
515.34        67.87029
515.78        67.78607
516.22        67.73457
516.66        67.71789
517.10        67.73689
517.54        67.78605
517.98        67.85973
518.42        67.94585
518.86         68.0232
519.30        68.08482
519.74        68.13496
520.18        68.16904
520.62        68.18584
521.06        68.18472
521.50        68.15502
521.93         68.1229
522.37        68.12214
522.81        68.15923
523.25        68.22775
523.69        68.26592
524.13        68.17387
524.57        67.94762
525.01         67.6332
525.45        67.33047
525.89        67.19331
526.32         67.2541
526.76        67.45988
527.20        67.73154
527.64         67.9416
528.08        68.04491
528.52        68.07909
528.96        68.05887
529.40        68.01004
529.83        67.94178
530.27        67.85688
530.71        67.77909
531.15        67.76785
531.59        67.83163
532.03        67.95448
532.46         68.0799
532.90        68.13434
533.34         68.1005
533.78        67.95287
534.22        67.74329
534.66        67.66868
535.09        67.68545
535.53         67.5288
535.97        67.23566
536.41        67.10671
536.85        67.15859
537.28         67.2323
537.72        67.29697
538.16        67.36545
538.60        67.42223
539.04        67.44976
539.47        67.42871
539.91        67.46715
540.35        67.57003
540.79         67.5648
541.22        67.38842
541.66        67.78891
542.10        67.43563
542.54        67.40131
542.97        67.31498
543.41        67.27927
543.85        67.28562
544.29         67.3352
544.72        67.39604
545.16         67.4157
545.60        67.37185
546.04        67.27573
546.47        67.16483
546.91        67.11161
547.35         67.1383
547.79        67.20681
548.22        67.23141
548.66        67.22558
549.10        67.17629
549.53        66.78704
549.97        66.71717
550.41        66.65693
550.84        66.80145
551.28        67.10743
551.72        67.46267
552.15        67.61735
552.59        67.56101
553.03        67.45283
553.46        67.33661
553.90        67.30213
554.34        67.37118
554.77        67.41769
555.21        67.36999
555.65         67.6785
556.08         67.3651
556.52        67.15244
556.96        66.85775
557.39         66.6198
557.83         66.4549
558.27         66.8429
558.70        66.58387
559.14        66.89007
559.57        66.81214
560.01        67.05196
560.45        67.29453
560.88        67.18598
561.32        66.84635
561.75        66.48087
562.19        66.26229
562.63        66.44988
563.06        66.89785
563.50        66.85918
563.93        66.38712
564.37         66.2866
564.80        66.54184
565.24        66.71107
565.68        66.73795
566.11        66.75028
566.55        66.76638
566.98        66.72193
567.42        66.68132
567.85        66.70484
568.29          66.838
568.72          66.967
569.16        67.10248
569.60         67.3163
570.03        67.26231
570.47        67.18807
570.90        67.52493
571.34        66.89349
571.77        67.08087
572.21        66.97546
572.64        67.13431
573.08        66.65935
573.51         66.9384
573.95        67.33355
574.38         66.9022
574.82        67.17113
