SpectraSmart Spectrum 2.9.0.0
--------- Device Information -----------
Spectrum Name :  反射率_0
Saving Time :  2024/05/01 16:12:46
Spectro-Module Model Name : SE2030-DUVN
Spectro-Module Serial Number : OS361AC55029948
Wavelength Start : 200
Wavelength End : 1025
Wavelength Unit : Wavelength(nm)
Spectrum Unit : Reflectance(%)
-----------Spectrum Setting ------------
Integration Time : 20ms
Average : 10
Boxcar : 0
Background removal :  enabled
linearity correction :  enabled
SC :  disabled
Intensity correction :  disabled
DWT denoise :  enabled
savitzky-golay :  disabled
FFT :  disabled
Running average :  disabled
Kalman :  disabled
High pass :  disabled
---------------BEGIN--------------------
Wavelength(nm)             Reflectance(%)
200.29               0
200.75       -110.6851
201.21       -165.9584
201.67        7.027047
202.13        8.224526
202.58        26.13259
203.04        43.49688
203.50        58.55217
203.96        72.42419
204.42        91.94302
204.88        147.8019
205.34         1571.35
205.80       -174.4329
206.26        -119.463
206.72       -153.4721
207.18       -478.7048
207.64        575.9385
208.10        248.8349
208.55        188.6446
209.01        166.8382
209.47        153.5912
209.93        142.7455
210.39        132.8219
210.85         129.823
211.31         150.144
211.77          260.95
212.23        -693.433
212.69       -121.1938
213.14       -86.04723
213.60        -127.426
214.06        533.9637
214.52        89.17757
214.98        67.61743
215.44        77.13581
215.90        131.7799
216.36         1048.93
216.81       -386.0687
217.27       -522.9314
217.73        1211.858
218.19        277.8643
218.65        205.3154
219.11        218.1197
219.57        328.9384
220.02        781.1038
220.48        386.8442
220.94        145.9026
221.40        89.12862
221.86        72.57502
222.32        71.32834
222.77        78.74512
223.23        94.88928
223.69        116.2175
224.15        122.6167
224.61        108.7559
225.06        88.97642
225.52        75.90355
225.98        73.42538
226.44        79.88808
226.90        94.41004
227.36        113.4985
227.81        121.1746
228.27        112.1025
228.73        97.07833
229.19        85.18166
229.65        81.06124
230.10        83.70418
230.56        91.34526
231.02        102.1178
231.48        109.5626
231.93        109.8371
232.39        106.4434
232.85        101.6732
233.31        97.51942
233.77        94.58358
234.22        92.20084
234.68        90.94553
235.14        91.62174
235.60        94.55872
236.05        100.7035
236.51        110.4341
236.97        121.8893
237.43        131.5018
237.88        137.2012
238.34        139.1945
238.80        142.3024
239.26         148.991
239.71        160.6162
240.17        175.3581
240.63        182.7247
241.08         172.756
241.54        150.8957
242.00        132.0983
242.46        126.7286
242.91        136.4734
243.37        164.1142
243.83        212.2585
244.28        241.4115
244.74        218.5989
245.20        179.8663
245.66        150.8644
246.11        136.6518
246.57        132.4133
247.03        133.2845
247.48        136.6249
247.94        132.3676
248.40        114.8733
248.85        92.71564
249.31        77.49905
249.77        75.48559
250.22         82.5882
250.68        92.95733
251.14        103.3784
251.59        114.2808
252.05        129.2668
252.51         157.346
252.96        224.5314
253.42         348.835
253.88        394.8132
254.33        317.8751
254.79        250.2985
255.25        210.5649
255.70        184.4966
256.16         167.173
256.62        154.7347
257.07        145.6666
257.53         140.667
257.99        138.0818
258.44         137.204
258.90        138.8277
259.35        141.5874
259.81        145.3551
260.27        148.8767
260.72        150.5998
261.18         150.812
261.63        149.3777
262.09        147.3388
262.55        144.7657
263.00        141.6355
263.46        138.4831
263.91        135.0612
264.37        131.9824
264.83        129.1569
265.28         126.513
265.74        124.2683
266.19        122.0481
266.65        120.0319
267.11         118.121
267.56         116.447
268.02         115.402
268.47        114.8986
268.93        114.7423
269.38        114.5358
269.84        113.6456
270.30        111.9462
270.75        109.6242
271.21        107.0265
271.66        104.4776
272.12        102.2011
272.57        99.99279
273.03        97.98923
273.48        96.23769
273.94        94.81897
274.39        93.65806
274.85        92.60966
275.31        91.21906
275.76        89.41216
276.22        87.47077
276.67        85.57344
277.13        84.28162
277.58        83.48521
278.04        83.05318
278.49        82.62379
278.95        81.92012
279.40         80.7618
279.86        79.41241
280.31         77.8497
280.77        76.29688
281.22        74.70799
281.68        73.19174
282.13        71.73051
282.59        70.53324
283.04        69.53265
283.50        68.79035
283.95        68.17091
284.41        67.59798
284.86        67.00656
285.32        66.47935
285.77        66.04432
286.22        65.87549
286.68        65.96259
287.13         66.1792
287.59        66.38811
288.04        66.31078
288.50        65.94595
288.95        65.33095
289.41         64.6717
289.86        64.07563
290.32        63.67277
290.77         63.3991
291.22        63.27067
291.68        63.27463
292.13        63.39288
292.59        63.69373
293.04        64.17735
293.50        64.91283
293.95        65.86687
294.40        67.00816
294.86        68.27129
295.31        69.56202
295.77        70.83584
296.22        72.06001
296.68        73.24886
297.13        74.38092
297.58         75.5013
298.04        76.65919
298.49         77.8346
298.95        79.05714
299.40        80.30285
299.85        81.57085
300.31        82.98287
300.76        84.66431
301.21        86.64397
301.67        88.86957
302.12        91.06663
302.58        92.85839
303.03         94.1026
303.48        94.96141
303.94        95.77023
304.39        96.85738
304.84        98.39127
305.30        100.2494
305.75        102.2337
306.20        104.0972
306.66          105.76
307.11        107.2194
307.57        108.5675
308.02        109.7746
308.47        110.9081
308.93         111.971
309.38        112.9156
309.83        113.7973
310.29        114.6577
310.74         115.483
311.19        116.3148
311.65        117.1791
312.10        118.0479
312.55        118.9114
313.00        119.7876
313.46        120.7068
313.91        121.6389
314.36        122.5578
314.82        123.3298
315.27        123.7683
315.72        123.8292
316.18        123.6247
316.63        123.2747
317.08        123.0514
317.53        123.0388
317.99         123.179
318.44        123.4271
318.89        123.6666
319.35        123.8602
319.80        124.0666
320.25        124.2966
320.70         124.571
321.16        124.8722
321.61        125.1834
322.06        125.5031
322.51        125.8638
322.97        126.2277
323.42        126.6284
323.87        126.9473
324.32        127.0252
324.78        126.8314
325.23        126.4642
325.68        126.0612
326.13        125.8703
326.59        125.9378
327.04        126.2626
327.49        126.7222
327.94        127.1332
328.39        127.4231
328.85        127.5778
329.30        127.7475
329.75        127.9944
330.20        128.3445
330.66        128.7325
331.11        129.1246
331.56        129.3125
332.01        129.2807
332.46        129.1012
332.92         128.949
333.37        129.2421
333.82         130.037
334.27        131.2484
334.72        132.6344
335.17        133.7609
335.63        134.4352
336.08        134.7948
336.53        134.9854
336.98        135.3421
337.43        135.9584
337.88        136.7362
338.34        137.4426
338.79        137.8096
339.24        137.7318
339.69        137.3321
340.14        136.8997
340.59         136.869
341.05        137.3336
341.50        138.1924
341.95        139.1483
342.40        139.7189
342.85        139.7952
343.30        139.5402
343.75        139.2567
344.20        139.4142
344.66        140.1044
345.11        141.1456
345.56        142.2893
346.01         143.119
346.46        143.5082
346.91        143.6192
347.36        143.5654
347.81        143.5133
348.26        143.5424
348.72        143.5937
349.17        143.7176
349.62        144.0834
350.07        144.6573
350.52        145.3426
350.97        145.9119
351.42        145.9814
351.87        145.4831
352.32         144.601
352.77        143.4479
353.22        142.2091
353.67        140.9988
354.13        139.7968
354.58        138.7973
355.03        138.4206
355.48        138.6891
355.93        139.5229
356.38        140.3692
356.83        140.2932
357.28        139.1157
357.73        137.1184
358.18        135.0313
358.63        133.9476
359.08        134.0554
359.53        134.9947
359.98        136.0799
360.43         136.172
360.88        134.9816
361.33        132.9152
361.78        130.5766
362.23        128.8185
362.68        127.8536
363.13        127.4167
363.58        127.1531
364.03        126.5234
364.48        125.3791
364.93        123.8999
365.38        122.3923
365.83        121.2858
366.28        120.6603
366.73        120.3705
367.18        120.0533
367.63        119.1569
368.08        117.6022
368.53        115.6088
368.98        113.6422
369.43        112.3621
369.88        111.8847
370.33        111.9996
370.78        112.2879
371.23        112.0287
371.68        111.0284
372.13         109.538
372.58        107.9365
373.03        106.7747
373.48        106.1768
373.93        105.9401
374.38        105.8379
374.83        105.5237
375.28        104.8845
375.72        104.0266
376.17        103.0887
376.62        102.1969
377.07        101.4031
377.52        100.6637
377.97        99.95235
378.42        99.24465
378.87        98.54115
379.32        97.86446
379.77         97.2588
380.22         96.7738
380.67        96.40752
381.11        96.14483
381.56        95.89455
382.01        95.53554
382.46        95.04971
382.91        94.47552
383.36        93.91258
383.81         93.5164
384.26        93.30663
384.71        93.21822
385.15        93.13544
385.60        92.93269
386.05        92.55873
386.50        92.07202
386.95        91.52045
387.40        90.98634
387.85        90.50081
388.29        89.97737
388.74        89.54262
389.19        89.17032
389.64        88.85204
390.09        88.58628
390.54        88.29731
390.98        87.87218
391.43         87.3716
391.88        86.73757
392.33        86.10336
392.78        85.86627
393.23        85.95193
393.67        85.76591
394.12        85.35901
394.57         85.2153
395.02        85.19408
395.47        84.52982
395.91         83.4493
396.36        82.91855
396.81        83.02888
397.26        83.35212
397.71        83.62705
398.15         83.5901
398.60        83.26636
399.05        82.61893
399.50        81.92651
399.95        81.75906
400.39        82.10802
400.84        82.34985
401.29        82.31124
401.74        82.16923
402.18          81.847
402.63         81.0302
403.08        79.99227
403.53        79.37189
403.97        79.24608
404.42        79.37896
404.87         79.6208
405.32        79.74171
405.76        79.64145
406.21        79.56126
406.66        79.47729
407.11        78.99895
407.55        78.32603
408.00        78.23229
408.45        78.64706
408.90        78.66779
409.34        78.22319
409.79        77.85237
410.24        77.61044
410.68        77.36141
411.13        77.13391
411.58        76.93411
412.03        76.78766
412.47        76.76658
412.92         76.8443
413.37        77.00404
413.81          77.146
414.26        77.18863
414.71        77.09072
415.15        76.89291
415.60        76.64033
416.05        76.48067
416.49        76.45694
416.94        76.51659
417.39        76.60583
417.83        76.62573
418.28        76.55293
418.73        76.42682
419.17        76.27652
419.62        76.15016
420.07        76.06169
420.51        75.98062
420.96        75.95572
421.41         75.9444
421.85        75.91304
422.30        76.02074
422.74        76.19592
423.19        76.12274
423.64        76.02553
424.08        76.21341
424.53        76.63398
424.98        76.76614
425.42        76.54755
425.87        76.38609
426.31        76.33148
426.76        75.89892
427.21        75.35188
427.65        75.75304
428.10        76.76821
428.54        77.14297
428.99        76.84747
429.44        75.98766
429.88        75.02746
430.33         75.7298
430.77         77.4564
431.22        77.44124
431.66        75.87186
432.11        75.11843
432.56        75.32172
433.00        75.73284
433.45        76.23906
433.89        75.54822
434.34        74.92611
434.78        76.50982
435.23        76.04598
435.67        76.24158
436.12        75.97649
436.57         76.4514
437.01        77.35091
437.46        78.47955
437.90        77.73884
438.35        76.97647
438.79          76.965
439.24        76.41706
439.68        75.85314
440.13        75.85865
440.57        76.41099
441.02        76.78967
441.46        76.85683
441.91        77.27093
442.35         77.7466
442.80        77.47651
443.24        76.64042
443.69        76.52515
444.13        77.07807
444.58         77.2522
445.02         76.9894
445.47        77.00604
445.91        77.36463
446.36        77.57426
446.80        77.54291
447.24        78.50968
447.69        78.46134
448.13        78.59189
448.58        78.42524
449.02        78.35616
449.47        78.41418
449.91        78.33465
450.36        78.17113
450.80         78.0579
451.25        78.02631
451.69         77.9848
452.13        77.93121
452.58        77.89468
453.02        77.83124
453.47         77.7077
453.91        77.50845
454.36        77.27777
454.80         77.0318
455.24        76.78739
455.69        76.57496
456.13        76.40884
456.58        76.37875
457.02        76.26563
457.46         76.4118
457.91         76.7186
458.35        77.10112
458.79        77.04465
459.24        76.52448
459.68        75.93654
460.13        75.60914
460.57        74.50285
461.01         74.8115
461.46        74.90829
461.90        75.25636
462.34        75.01092
462.79        74.65224
463.23        74.53969
463.68        74.74322
464.12        74.73887
464.56        74.52135
465.01        74.35658
465.45        74.24955
465.89        74.50095
466.34        74.85503
466.78        74.98869
467.22        73.76525
467.67        73.47863
468.11        73.55842
468.55        73.63019
468.99        73.53792
469.44        73.50917
469.88        73.55332
470.32        73.56632
470.77        73.53693
471.21        73.55342
471.65        73.61781
472.10          73.364
472.54        73.42527
472.98        73.25857
473.42         73.0624
473.87        72.87724
474.31        72.70857
474.75        72.53869
475.20        72.39474
475.64        72.48274
476.08         72.7366
476.52        72.74803
476.97        72.43176
477.41         72.9286
477.85        71.80875
478.29        72.69888
478.74        72.50418
479.18        72.68781
479.62         71.7336
480.06        71.51405
480.50        71.77867
480.95         71.2025
481.39        72.29312
481.83        70.88249
482.27        71.48708
482.72        71.64835
483.16        71.21793
483.60        71.36433
484.04        71.67743
484.48        71.71127
484.93        71.75343
485.37        72.56022
485.81        72.60692
486.25        73.39098
486.69        74.01076
487.14        70.93765
487.58        69.50622
488.02        71.73837
488.46        70.94181
488.90        70.41608
489.34        71.12017
489.79        71.06776
490.23        70.74345
490.67        70.63184
491.11        70.69663
491.55        70.79989
491.99        70.85959
492.43        70.84407
492.88        70.74534
493.32        70.63485
493.76        70.53336
494.20        70.47356
494.64        70.46144
495.08        70.42133
495.52        70.37704
495.96        70.45196
496.41        70.54841
496.85        70.57591
497.29        70.16956
497.73        69.79967
498.17        69.82296
498.61        69.51546
499.05        69.14821
499.49         69.3625
499.93        69.99281
500.37         70.1788
500.82        69.96376
501.26         69.6852
501.70        70.18471
502.14        70.31334
502.58         70.2627
503.02        70.16511
503.46        70.02924
503.90        69.80246
504.34        69.57172
504.78         69.5035
505.22        69.62259
505.66         69.8932
506.10        70.17921
506.54        70.24438
506.98        70.04147
507.42        69.65631
507.86        69.23239
508.30        68.98804
508.74        68.98052
509.18        69.13985
509.62        69.38246
510.06        69.57171
510.50        69.65618
510.94        69.67434
511.38        69.64924
511.82        69.61615
512.26        69.58666
512.70        69.53822
513.14        69.46659
513.58        69.37354
514.02        69.26303
514.46        69.14907
514.90        69.03783
515.34        68.93211
515.78        68.84058
516.22        68.76965
516.66        68.73144
517.10        68.74146
517.54         68.7961
517.98        68.88209
518.42        68.98306
518.86        69.06355
519.30        69.10932
519.74        69.15231
520.18        69.17891
520.62        69.11094
521.06        68.97931
521.50        68.92353
521.93         68.9498
522.37        68.93332
522.81        68.87784
523.25        68.87044
523.69        68.88431
524.13        68.83517
524.57        68.72263
525.01        68.57571
525.45        68.45738
525.89        68.46659
526.32        68.61547
526.76        68.86112
527.20        69.12675
527.64        69.29348
528.08        69.32584
528.52        69.26251
528.96        69.13777
529.40        69.00796
529.83        68.89104
530.27        68.78776
530.71         68.7112
531.15        68.69897
531.59        68.75354
532.03        68.86582
532.46        68.98355
532.90        69.04075
533.34        69.02114
533.78        68.89194
534.22        68.70397
534.66        68.65607
535.09        68.70305
535.53        68.57774
535.97        68.31053
536.41        68.19629
536.85        68.24999
537.28        68.31006
537.72        68.36006
538.16        68.43563
538.60        68.52064
539.04        68.59846
539.47        68.64436
539.91         68.6615
540.35        68.63185
540.79        68.58456
541.22        68.53432
541.66        68.40995
542.10         68.3936
542.54        68.34119
542.97        68.29621
543.41        68.27685
543.85         68.2726
544.29        68.28685
544.72        68.29548
545.16        68.29713
545.60        68.27471
546.04        68.22179
546.47        68.16246
546.91        68.14997
547.35        68.19628
547.79        68.26661
548.22        68.27612
548.66        68.24109
549.10        68.15668
549.53        67.72835
549.97        67.62394
550.41        67.54931
550.84        67.70937
551.28        67.99322
551.72        68.31737
552.15        68.61872
552.59        68.81705
553.03        68.73922
553.46        68.44422
553.90        68.34714
554.34        68.48815
554.77         68.4953
555.21        68.29736
555.65        68.72982
556.08        68.42971
556.52        68.22533
556.96        67.81978
557.39        67.62138
557.83        67.67694
558.27         67.7356
558.70          67.755
559.14        67.99648
559.57        67.85809
560.01        68.08265
560.45        68.35548
560.88        68.24961
561.32        67.89078
561.75        67.54544
562.19        67.38505
562.63         67.6804
563.06        68.24412
563.50        68.18852
563.93          67.592
564.37        67.42882
564.80        67.69701
565.24        67.86852
565.68        67.86737
566.11        67.85746
566.55        67.86086
566.98        67.73486
567.42        67.60143
567.85         67.7476
568.29        68.12756
568.72        68.30146
569.16        68.32681
569.60        68.34882
570.03        68.29811
570.47        68.40625
570.90        68.65697
571.34        67.83847
571.77        68.22824
572.21        68.17009
572.64         68.4036
573.08        68.01556
573.51        68.37711
573.95        68.86473
574.38        68.32816
574.82        68.54925
