SpectraSmart Spectrum 2.9.0.0
--------- Device Information -----------
Spectrum Name :  反射率_0
Saving Time :  2024/05/01 16:11:14
Spectro-Module Model Name : SE2030-DUVN
Spectro-Module Serial Number : OS361AC55029948
Wavelength Start : 200
Wavelength End : 1025
Wavelength Unit : Wavelength(nm)
Spectrum Unit : Reflectance(%)
-----------Spectrum Setting ------------
Integration Time : 20ms
Average : 10
Boxcar : 0
Background removal :  enabled
linearity correction :  enabled
SC :  disabled
Intensity correction :  disabled
DWT denoise :  enabled
savitzky-golay :  disabled
FFT :  disabled
Running average :  disabled
Kalman :  disabled
High pass :  disabled
---------------BEGIN--------------------
Wavelength(nm)             Reflectance(%)
200.29               0
200.75       -92.99124
201.21       -74.27015
201.67       -39.55003
202.13       -12.02476
202.58        14.19402
203.04        36.52851
203.50        53.56322
203.96        64.52778
204.42        73.32854
204.88        92.00978
205.34        540.5468
205.80       -13.63789
206.26       -2.834104
206.72       -25.85107
207.18       -196.4929
207.64        352.6327
208.10        182.4366
208.55        151.6145
209.01         138.672
209.47        126.3164
209.93        111.7778
210.39        94.21885
210.85        77.75106
211.31        69.17027
211.77        77.87315
212.23       -69.14751
212.69        16.05056
213.14        28.64214
213.60        54.82224
214.06       -194.4818
214.52       -17.50248
214.98      -0.9600897
215.44        12.65316
215.90        45.68871
216.36        533.2244
216.81        -226.463
217.27       -301.6079
217.73        627.9706
218.19        128.4772
218.65        93.63499
219.11        110.6939
219.57        203.3374
220.02        610.8822
220.48        345.8317
220.94        128.6939
221.40         72.8796
221.86        54.40955
222.32        49.81105
222.77         52.1525
223.23        59.82248
223.69         71.2097
224.15        76.44957
224.61        71.73707
225.06        63.55701
225.52         58.2691
225.98        57.94661
226.44        62.11076
226.90        70.52963
227.36        81.39493
227.81        86.06518
228.27        81.49766
228.73        73.42372
229.19        67.17745
229.65        65.71264
230.10        68.56046
230.56         74.9513
231.02        83.28622
231.48        88.18779
231.93        86.99519
232.39        82.81803
232.85        78.25688
233.31        75.63864
233.77        75.11964
234.22        75.65499
234.68        77.04572
235.14        79.27714
235.60         82.5553
236.05        87.87611
236.51         95.4982
236.97        103.9211
237.43        110.3658
237.88        113.1684
238.34        112.8473
238.80        113.4414
239.26        116.6804
239.71        123.4939
240.17        132.4174
240.63        135.8774
241.08        127.5569
241.54        111.9938
242.00        99.83251
242.46        98.62175
242.91        110.3329
243.37        138.3257
243.83         186.306
244.28         219.012
244.74        202.4635
245.20        168.1231
245.66        141.2075
246.11        127.5865
246.57        122.8703
247.03        122.2308
247.48         121.922
247.94        110.6974
248.40        84.69978
248.85         54.9607
249.31        36.51984
249.77        37.42757
250.22        50.37722
250.68        66.59449
251.14        81.36758
251.59        94.26936
252.05        109.2364
252.51        135.3879
252.96        195.0253
253.42        300.3813
253.88        332.2523
254.33          260.62
254.79        203.4752
255.25        174.5255
255.70        158.5686
256.16        149.7984
256.62        143.0958
257.07        135.6704
257.53         129.516
257.99        124.7227
258.44        121.9182
258.90         122.809
259.35        125.9265
259.81         130.528
260.27        134.7703
260.72        136.3419
261.18        135.5435
261.63        132.8194
262.09         129.615
262.55        126.4945
263.00        123.4508
263.46        120.6956
263.91        117.8419
264.37        115.2226
264.83        112.7263
265.28        110.3846
265.74        108.4022
266.19        106.4625
266.65         104.725
267.11        103.0518
267.56        101.6074
268.02        100.8319
268.47        100.6378
268.93         100.819
269.38        100.8647
269.84        99.94949
270.30        97.94227
270.75        95.12714
271.21        92.05276
271.66        89.35197
272.12        87.30979
272.57        85.64579
273.03         84.3191
273.48        83.12471
273.94        82.03883
274.39          81.038
274.85        80.07275
275.31        78.86145
275.76        77.35475
276.22        75.75969
276.67        74.10841
277.13        72.72499
277.58        71.52066
278.04         70.4595
278.49        69.45681
278.95        68.61032
279.40        67.81023
279.86        67.15848
280.31         66.3708
280.77        65.26643
281.22        63.75737
281.68        62.06952
282.13        60.42006
282.59        59.30951
283.04        58.73252
283.50        58.62703
283.95        58.67777
284.41        58.51408
284.86        58.02089
285.32        57.38062
285.77        56.80779
286.22        56.71874
286.68        57.14857
287.13        57.88254
287.59        58.63756
288.04        58.90477
288.50        58.61744
288.95        57.90665
289.41        57.08183
289.86        56.41208
290.32        56.05969
290.77        55.91674
291.22        55.94848
291.68        56.07307
292.13        56.25778
292.59        56.59768
293.04        57.12255
293.50        57.93459
293.95        59.01024
294.40        60.30112
294.86        61.72011
295.31        63.14333
295.77        64.52061
296.22        65.84084
296.68        67.13642
297.13        68.41756
297.58        69.74001
298.04        71.14465
298.49        72.61055
298.95        74.16118
299.40        75.75609
299.85        77.37292
300.31        79.11657
300.76        81.09879
301.21        83.34109
301.67        85.79996
302.12        88.17127
302.58        90.03121
303.03         91.2446
303.48        91.99458
303.94        92.70212
304.39         93.8235
304.84        95.53951
305.30         97.6881
305.75        99.97349
306.20        101.9857
306.66        103.6156
307.11        104.9255
307.57        106.0959
308.02         107.235
308.47        108.4378
308.93        109.6482
309.38        110.7794
309.83        111.8256
310.29         112.802
310.74        113.7228
311.19        114.5958
311.65        115.3946
312.10        116.0919
312.55        116.6826
313.00        117.2812
313.46        118.0734
313.91        119.0588
314.36         120.181
314.82        121.1715
315.27        121.6158
315.72        121.4345
316.18        120.8242
316.63        120.0817
317.08        119.7437
317.53        119.9424
317.99        120.5231
318.44        121.2889
318.89        121.8721
319.35        122.1547
319.80        122.2716
320.25        122.3116
320.70        122.4231
321.16        122.6364
321.61        122.8882
322.06        123.1728
322.51        123.5228
322.97        123.8912
323.42        124.3228
323.87        124.6733
324.32        124.7264
324.78        124.4444
325.23         123.947
325.68        123.4002
326.13        123.1011
326.59         123.114
327.04        123.4174
327.49        123.9044
327.94        124.4139
328.39        124.8688
328.85        125.2558
329.30        125.6533
329.75        126.0029
330.20        126.3031
330.66        126.5128
331.11        126.7008
331.56        126.8437
332.01        126.9663
332.46        127.0799
332.92        127.2426
333.37        127.6733
333.82        128.3707
334.27         129.312
334.72        130.3329
335.17        131.1371
335.63        131.5979
336.08        131.8241
336.53        131.9581
336.98        132.3228
337.43        132.9987
337.88        133.8952
338.34        134.7596
338.79        135.2795
339.24        135.3258
339.69        135.0108
340.14        134.6172
340.59         134.579
341.05        134.9998
341.50        135.7941
341.95         136.672
342.40        137.1626
342.85         137.171
343.30        136.8569
343.75        136.5717
344.20        136.8576
344.66         137.802
345.11        139.1897
345.56        140.6595
346.01        141.6102
346.46        141.8785
346.91        141.6919
347.36        141.2769
347.81        140.9764
348.26        140.9193
348.72        140.9939
349.17         141.208
349.62         141.659
350.07        142.2833
350.52        143.0114
350.97        143.6048
351.42        143.6559
351.87        143.0987
352.32        142.1198
352.77        140.8675
353.22        139.5871
353.67         138.407
354.13         137.293
354.58        136.4096
355.03        136.1277
355.48         136.454
355.93         137.316
356.38        138.1845
356.83        138.1626
357.28        137.0769
357.73        135.1968
358.18        133.2065
358.63        132.1354
359.08        132.1631
359.53        132.9443
359.98        133.8658
360.43        133.9111
360.88        132.8132
361.33          130.94
361.78        128.7911
362.23        127.0611
362.68        125.9386
363.13         125.216
363.58        124.6434
364.03        123.8546
364.48        122.7433
364.93        121.4224
365.38        120.1233
365.83        119.1604
366.28        118.5762
366.73        118.2696
367.18        117.8823
367.63        116.8677
368.08        115.1706
368.53        113.0156
368.98        110.9261
369.43        109.6539
369.88        109.3285
370.33        109.7124
370.78        110.3276
371.23        110.3364
371.68        109.4948
372.13        108.0771
372.58        106.4764
373.03        105.2754
373.48        104.6173
373.93        104.2879
374.38        104.0912
374.83        103.7322
375.28        103.1143
375.72        102.3469
376.17        101.5264
376.62        100.7096
377.07        99.93011
377.52         99.1496
377.97        98.39944
378.42        97.74675
378.87        97.20026
379.32        96.75232
379.77        96.33743
380.22        95.84226
380.67        95.23994
381.11        94.56273
381.56        93.87189
382.01         93.2964
382.46        92.87517
382.91        92.57545
383.36        92.32241
383.81        91.99745
384.26        91.56904
384.71        91.06973
385.15         90.5544
385.60        90.16414
386.05        89.90202
386.50        89.71668
386.95        89.52618
387.40        89.21352
387.85         88.7618
388.29        88.17673
388.74        87.61788
389.19          87.104
389.64        86.64964
390.09        86.21992
390.54        85.82773
390.98        85.47918
391.43        85.22734
391.88        85.04861
392.33         84.8758
392.78        84.64244
393.23        84.34439
393.67        83.87675
394.12        83.39095
394.57        83.20528
395.02        83.21687
395.47        82.81697
395.91        82.12656
396.36        81.83076
396.81        81.96889
397.26        82.20419
397.71        82.33704
398.15        82.18909
398.60        81.81146
399.05        81.14644
399.50        80.46214
399.95        80.27448
400.39        80.58443
400.84        80.89809
401.29        81.00049
401.74        80.84473
402.18        80.36441
402.63        79.46369
403.08        78.44867
403.53        77.84051
403.97        77.72771
404.42        77.96513
404.87        78.32235
405.32         78.4427
405.76        78.22559
406.21        77.82996
406.66        77.38731
407.11         77.0858
407.55        77.02249
408.00        77.14552
408.45        77.23901
408.90        77.41588
409.34        77.46217
409.79        77.00217
410.24        76.21066
410.68         75.7463
411.13         75.6847
411.58        75.66525
412.03        75.63843
412.47        75.68147
412.92        75.73698
413.37        75.80878
413.81        75.84351
414.26        75.81696
414.71        75.70588
415.15        75.53307
415.60        75.33488
416.05        75.24107
416.49         75.2838
416.94        75.41846
417.39        75.57369
417.83        75.62228
418.28         75.5349
418.73        75.35091
419.17         75.1291
419.62        74.96946
420.07        74.89945
420.51        74.87697
420.96        74.90754
421.41        74.90891
421.85        74.84887
422.30        74.83922
422.74        74.85996
423.19        74.89958
423.64        74.96366
424.08        75.18435
424.53        75.48961
424.98        75.65739
425.42        75.62829
425.87        75.69888
426.31        75.83921
426.76        75.34159
427.21        74.51987
427.65        74.86803
428.10        76.04932
428.54         76.3307
428.99        75.75858
429.44        74.97268
429.88         74.3219
430.33        75.06173
430.77        76.56582
431.22        76.30025
431.66        74.55766
432.11        73.91869
432.56        74.47873
433.00        75.14471
433.45        75.69634
433.89        75.27056
434.34        74.02174
434.78         76.2037
435.23        75.52319
435.67        75.77661
436.12        75.32162
436.57        75.79173
437.01        76.90316
437.46        77.80341
437.90        76.96559
438.35        76.53576
438.79        76.22771
439.24        75.75781
439.68        75.28517
440.13        75.41628
440.57        76.06411
441.02        76.48983
441.46        76.56667
441.91        76.82874
442.35         77.1054
442.80        77.02419
443.24        76.65202
443.69        76.56165
444.13        76.75463
444.58        76.85623
445.02        76.83332
445.47        76.99345
445.91        77.32443
446.36        77.53995
446.80        77.57051
447.24        78.08727
447.69        77.98193
448.13        78.06091
448.58        78.02048
449.02        77.87879
449.47        77.70634
449.91        77.59285
450.36        77.58997
450.80        77.63602
451.25        77.70831
451.69        77.71793
452.13        77.65131
452.58        77.55085
453.02        77.44083
453.47        77.30316
453.91        77.11739
454.36        77.04911
454.80        77.17931
455.24        76.54356
455.69        76.96764
456.13        76.60637
456.58        76.27175
457.02        75.51511
457.46        75.98048
457.91        76.47905
458.35        77.13171
458.79        77.24273
459.24        76.76643
459.68        76.05318
460.13        75.42702
460.57        74.68204
461.01        74.61605
461.46        74.75077
461.90        75.13986
462.34        74.92603
462.79        74.59808
463.23        74.65915
463.68        75.12309
464.12        75.17778
464.56        74.79047
465.01         74.4492
465.45        74.21488
465.89        74.21769
466.34        74.30385
466.78        74.67657
467.22        73.87953
467.67        73.79732
468.11        73.82412
468.55        73.79411
468.99        73.63697
469.44         73.5481
469.88        73.55862
470.32        73.59808
470.77        73.64892
471.21        73.69846
471.65        73.71464
472.10        73.71255
472.54        73.68607
472.98        73.61989
473.42        73.50757
473.87        73.48696
474.31        73.48495
474.75         73.1765
475.20        72.70207
475.64        72.71895
476.08        73.13158
476.52        73.16999
476.97        72.76156
477.41        72.79404
477.85        72.12379
478.29        72.53629
478.74        72.30584
479.18        72.61831
479.62        72.18327
480.06        72.18159
480.50        72.38017
480.95        71.52911
481.39        72.17781
481.83        71.23201
482.27        71.67972
482.72        71.68283
483.16        71.82714
483.60        72.01034
484.04        72.10491
484.48        72.00713
484.93        72.10261
485.37        72.43246
485.81         71.9423
486.25        73.65802
486.69        73.09332
487.14        70.64359
487.58        69.65337
488.02        72.32198
488.46        71.23858
488.90        70.54176
489.34        71.75128
489.79        71.24958
490.23        71.13924
490.67        70.94006
491.11        71.03303
491.55        71.08652
491.99        71.04289
492.43        71.00211
492.88        70.94666
493.32        70.88293
493.76        70.81238
494.20        70.77576
494.64        70.77889
495.08        70.74137
495.52        70.70097
495.96         70.7808
496.41        70.89145
496.85        70.86861
497.29        70.76357
497.73        70.12951
498.17        70.46351
498.61        70.19369
499.05        69.86781
499.49        70.01659
499.93        70.52188
500.37        70.69722
500.82        70.53745
501.26        70.49099
501.70        70.52897
502.14        70.92064
502.58          70.606
503.02        70.54149
503.46        70.42804
503.90        70.24855
504.34        70.07666
504.78        70.04122
505.22         70.1485
505.66        70.42573
506.10        70.74975
506.54        70.69056
506.98        70.16305
507.42        70.12785
507.86        69.27416
508.30        69.07994
508.74         69.1673
509.18        69.47973
509.62        69.87914
510.06        70.16543
510.50        70.27898
510.94        70.26776
511.38        70.17204
511.82        70.05615
512.26        69.94733
512.70        69.81125
513.14         69.6762
513.58        69.59615
514.02        69.57854
514.46        69.62543
514.90        69.67546
515.34        69.61875
515.78        69.44016
516.22        69.17745
516.66        68.92353
517.10         68.8197
517.54        68.88712
517.98        69.09608
518.42        69.36508
518.86        69.48792
519.30        69.41119
519.74        69.46371
520.18        69.24613
520.62        69.16996
521.06        69.14263
521.50        69.21411
521.93        69.35847
522.37        69.46387
522.81        69.51594
523.25        69.57478
523.69        69.60185
524.13        69.50912
524.57         69.3018
525.01        69.01505
525.45        68.74355
525.89        68.63789
526.32        68.72501
526.76        68.95192
527.20        69.23186
527.64        69.42346
528.08        69.48235
528.52        69.45705
528.96        69.36981
529.40        69.25813
529.83        69.13813
530.27        69.00974
530.71        68.91421
531.15        68.93687
531.59        69.08608
532.03        69.33766
532.46        69.59325
532.90        69.71201
533.34        69.66291
533.78        69.43756
534.22         69.1367
534.66        69.03641
535.09        69.10611
535.53        69.04919
535.97        68.85838
536.41         68.7713
536.85        68.78782
537.28        68.76977
537.72        68.71775
538.16         68.6926
538.60        68.69096
539.04        68.69137
539.47        68.68212
539.91        68.67654
540.35        68.66166
540.79        68.68721
541.22        68.73106
541.66        68.63996
542.10        68.58669
542.54        68.45827
542.97        68.34368
543.41        68.32928
543.85        68.41488
544.29        68.57067
544.72        68.73225
545.16        68.83773
545.60        68.85147
546.04        68.79076
546.47        68.68176
546.91        68.58046
547.35        68.51508
547.79        68.45705
548.22        68.36069
548.66          68.301
549.10        68.27511
549.53        67.96542
549.97        68.00175
550.41        67.99834
550.84        68.13631
551.28        68.39469
551.72        68.69037
552.15        68.81987
552.59        68.78615
553.03         68.7293
553.46        68.67342
553.90        68.69603
554.34         68.8121
554.77        68.88034
555.21        68.80909
555.65        69.20438
556.08        68.74637
556.52        68.56458
556.96        68.31456
557.39        68.11749
557.83        68.01438
558.27        67.91855
558.70        67.83932
559.14        68.03782
559.57        67.93283
560.01        68.29247
560.45        68.73978
560.88        68.72261
561.32        68.34678
561.75         67.9138
562.19        67.62997
562.63        67.85817
563.06        68.41832
563.50         68.3045
563.93        67.63985
564.37        67.58178
564.80        68.06451
565.24        68.42319
565.68        68.35762
566.11        68.30843
566.55        68.27766
566.98        68.20512
567.42        68.16503
567.85        68.27972
568.29        68.53222
568.72        68.56352
569.16        68.49739
569.60         68.6516
570.03        68.45695
570.47        68.54901
570.90         68.8315
571.34        68.08559
571.77        68.48885
572.21        68.40257
572.64        68.40971
573.08        68.37263
573.51        68.47812
573.95        69.11961
574.38        68.50053
574.82        68.60722
