SpectraSmart Spectrum 2.9.0.0
--------- Device Information -----------
Spectrum Name :  反射率_0
Saving Time :  2024/05/01 16:40:09
Spectro-Module Model Name : SE2030-DUVN
Spectro-Module Serial Number : OS361AC55029948
Wavelength Start : 200
Wavelength End : 1025
Wavelength Unit : Wavelength(nm)
Spectrum Unit : Reflectance(%)
-----------Spectrum Setting ------------
Integration Time : 20ms
Average : 10
Boxcar : 0
Background removal :  enabled
linearity correction :  enabled
SC :  disabled
Intensity correction :  disabled
DWT denoise :  enabled
savitzky-golay :  disabled
FFT :  disabled
Running average :  disabled
Kalman :  disabled
High pass :  disabled
---------------BEGIN--------------------
Wavelength(nm)             Reflectance(%)
200.29               0
200.75         49.8855
201.21        417.7614
201.67       -233.6918
202.13        -89.5759
202.58       -31.56446
203.04        6.690909
203.50        31.28131
203.96        41.72898
204.42        39.97734
204.88         16.6936
205.34       -627.5223
205.80        140.7039
206.26        85.01662
206.72        29.95602
207.18       -190.0275
207.64        401.6983
208.10        180.0623
208.55         119.035
209.01        87.34354
209.47        73.72109
209.93        71.11332
210.39        72.67889
210.85        76.89233
211.31        83.30963
211.77        99.14217
212.23       -32.89326
212.69        53.87415
213.14        79.32214
213.60        150.6592
214.06       -604.0289
214.52       -78.58692
214.98       -41.15455
215.44       -27.64942
215.90          -14.97
216.36        110.6909
216.81       -88.81352
217.27       -126.7726
217.73        224.9794
218.19        26.30241
218.65       -2.838022
219.11       -31.97002
219.57       -107.1961
220.02       -400.9854
220.48       -199.1909
220.94       -44.84122
221.40       -4.849947
221.86        10.31103
222.32        18.31218
222.77        25.00842
223.23        33.20514
223.69        42.43329
224.15        45.58403
224.61         40.8807
225.06        33.65067
225.52        29.21166
225.98        29.72443
226.44        34.78769
226.90        44.25701
227.36        56.81425
227.81        63.85956
228.27        61.29718
228.73        54.54343
229.19        48.29788
229.65        44.92624
230.10         43.9731
230.56        44.50531
231.02        46.22585
231.48        48.29215
231.93        49.80525
232.39        51.18269
232.85        52.27426
233.31        53.00813
233.77        53.52759
234.22        53.82195
234.68        54.18864
235.14        55.16297
235.60        57.00044
236.05        60.09466
236.51        64.51645
236.97        69.13126
237.43        72.15662
237.88        72.85397
238.34        71.74098
238.80        71.27895
239.26        72.36108
239.71        75.40868
240.17        79.25949
240.63        78.90659
241.08        71.29916
241.54        60.33428
242.00        52.56721
242.46         52.3496
242.91        60.79375
243.37        79.51665
243.83        112.4179
244.28        139.5571
244.74        135.2514
245.20        117.3338
245.66        100.3756
246.11        87.11557
246.57        74.31573
247.03        56.13106
247.48        29.32965
247.94        3.172152
248.40       -5.890196
248.85        3.386583
249.31         23.5193
249.77        39.43783
250.22        47.80288
250.68        52.03119
251.14        54.52842
251.59        57.82025
252.05        63.63399
252.51        74.72832
252.96        100.3163
253.42         146.321
253.88        161.2364
254.33        133.3301
254.79        110.3937
255.25        98.19965
255.70        91.13692
256.16        86.96357
256.62         84.5125
257.07          83.334
257.53        83.52522
257.99        84.24026
258.44        84.76942
258.90        85.20868
259.35        85.10953
259.81        84.94994
260.27        84.65529
260.72        84.25038
261.18        84.06048
261.63        83.60287
262.09        83.11118
262.55        82.27656
263.00        80.98254
263.46        79.58692
263.91         77.9652
264.37        76.45056
264.83        74.99891
265.28        73.57245
265.74         72.2579
266.19         70.7917
266.65        69.30732
267.11        67.76759
267.56        66.38808
268.02        65.62276
268.47        65.44897
268.93        65.67712
269.38        65.89251
269.84         65.3908
270.30        64.04594
270.75        62.08279
271.21        59.91481
271.66        58.01833
272.12         56.6109
272.57        55.47586
273.03        54.57386
273.48        53.75419
273.94        53.00027
274.39        52.32535
274.85        51.69435
275.31        50.92917
275.76        49.99211
276.22        48.98854
276.67        47.96645
277.13        47.17053
277.58        46.54026
278.04        46.05865
278.49        45.56851
278.95        44.99407
279.40        44.25589
279.86        43.46963
280.31        42.63598
280.77         41.8927
281.22        41.19439
281.68        40.58483
282.13        39.97277
282.59         39.3579
283.04        38.69877
283.50         38.0789
283.95        37.52053
284.41        37.13493
284.86        36.91801
285.32        36.85162
285.77        36.88735
286.22        37.02409
286.68        37.23353
287.13        37.47313
287.59        37.67368
288.04        37.67641
288.50        37.49136
288.95        37.12675
289.41        36.73477
289.86        36.42659
290.32        36.28598
290.77        36.28302
291.22        36.38273
291.68        36.50706
292.13        36.64683
292.59        36.87784
293.04        37.27429
293.50        38.00142
293.95        39.05715
294.40        40.38296
294.86        41.85413
295.31        43.28498
295.77         44.6047
296.22        45.82811
296.68        47.01521
297.13        48.24044
297.58        49.56135
298.04        50.99293
298.49        52.48225
298.95        53.99012
299.40        55.47602
299.85        56.94648
300.31        58.53362
300.76        60.40879
301.21        62.60639
301.67        65.07719
302.12        67.52546
302.58        69.51879
303.03        70.92258
303.48        71.90414
303.94         72.8634
304.39        74.26888
304.84        76.28392
305.30        78.74461
305.75        81.33178
306.20        83.58404
306.66        85.37511
307.11        86.78242
307.57        88.03529
308.02        89.34911
308.47        90.82448
308.93        92.37662
309.38        93.83431
309.83        95.04255
310.29        95.99503
310.74        96.76917
311.19        97.49117
311.65        98.31839
312.10        99.27028
312.55         100.282
313.00        101.3613
313.46        102.5271
313.91        103.7326
314.36        104.9654
314.82        106.0315
315.27        106.6332
315.72        106.7177
316.18        106.4288
316.63        105.9961
317.08        105.8523
317.53        106.1094
317.99        106.6485
318.44        107.3405
318.89        107.9306
319.35        108.3273
319.80        108.6298
320.25         108.852
320.70        109.0195
321.16        109.1425
321.61        109.2057
322.06        109.2841
322.51        109.5378
322.97        109.9609
323.42         110.551
323.87        111.1228
324.32        111.3872
324.78        111.2725
325.23        110.9123
325.68        110.4651
326.13        110.2136
326.59        110.2291
327.04        110.4863
327.49        110.9056
327.94        111.3767
328.39        111.8383
328.85        112.2705
329.30        112.7331
329.75        113.1517
330.20        113.5109
330.66        113.7782
331.11        113.9949
331.56        114.1071
332.01        114.1408
332.46        114.1265
332.92        114.1605
333.37        114.5148
333.82        115.2105
334.27        116.2038
334.72        117.3366
335.17        118.3153
335.63        118.9976
336.08        119.4813
336.53        119.8361
336.98        120.2658
337.43        120.8329
337.88        121.4789
338.34        122.0673
338.79         122.475
339.24        122.6311
339.69           122.6
340.14        122.5548
340.59        122.7522
341.05        123.2428
341.50        123.9796
341.95        124.7579
342.40        125.2455
342.85        125.3765
343.30        125.2648
343.75        125.1575
344.20        125.4382
344.66        126.1776
345.11        127.2318
345.56        128.3739
346.01        129.2185
346.46        129.6484
346.91        129.7991
347.36        129.7967
347.81        129.8329
348.26        129.9862
348.72        130.2009
349.17        130.4694
349.62        130.8607
350.07        131.3344
350.52        131.8307
350.97        132.2358
351.42        132.3495
351.87         132.136
352.32        131.7098
352.77        131.0613
353.22        130.1887
353.67        129.1587
354.13        128.0086
354.58        127.0034
355.03        126.6642
355.48        127.0476
355.93        128.0383
356.38        129.0753
356.83        129.2085
357.28        128.2466
357.73        126.4857
358.18         124.631
358.63        123.7386
359.08        123.9942
359.53        125.0366
359.98        126.2269
360.43        126.5035
360.88        125.5824
361.33        123.8435
361.78        121.8024
362.23        120.1851
362.68        119.1879
363.13        118.5847
363.58        118.1322
364.03        117.4713
364.48        116.4957
364.93        115.3349
365.38        114.1767
365.83        113.2635
366.28        112.6402
366.73        112.2298
367.18        111.7873
367.63        110.9488
368.08        109.6792
368.53        108.1252
368.98        106.6542
369.43        105.7917
369.88        105.6139
370.33         105.942
370.78        106.3952
371.23        106.3118
371.68          105.51
372.13        104.2146
372.58        102.7548
373.03        101.6185
373.48        100.9255
373.93        100.4973
374.38        100.1965
374.83        99.81364
375.28        99.27185
375.72         98.6543
376.17        97.97987
376.62        97.19212
377.07        96.31165
377.52        95.34453
377.97         94.4185
378.42        93.75047
378.87        93.37201
379.32        93.21058
379.77         93.1135
380.22        92.83562
380.67        92.31709
381.11        91.64285
381.56        90.89901
382.01        90.25474
382.46        89.77673
382.91        89.41483
383.36        89.14671
383.81        88.93943
384.26        88.75988
384.71        88.60702
385.15        88.43219
385.60        88.20647
386.05        87.90224
386.50        87.53176
386.95        87.09698
387.40         86.6179
387.85        86.11541
388.29        85.54131
388.74        85.04723
389.19        84.64709
389.64         84.3439
390.09        84.11664
390.54        83.89254
390.98        83.56971
391.43        83.19244
391.88        82.68228
392.33        82.13495
392.78        81.91454
393.23        81.92379
393.67        81.56828
394.12        80.97523
394.57        80.68612
395.02        80.65224
395.47         80.3396
395.91        79.82323
396.36        79.56447
396.81        79.59972
397.26         79.7433
397.71        79.81058
398.15        79.64513
398.60        79.30342
399.05        78.54321
399.50        77.69734
399.95        77.73731
400.39        78.53134
400.84        78.76823
401.29        78.32277
401.74        78.09866
402.18        78.04329
402.63        77.36213
403.08        76.29243
403.53         75.6637
403.97        75.55578
404.42        75.68309
404.87         75.8619
405.32        75.87273
405.76        75.64307
406.21        75.27847
406.66         74.8869
407.11        74.68199
407.55        74.73645
408.00        74.81135
408.45        74.85025
408.90        75.06567
409.34        75.24917
409.79         74.7388
410.24        73.75672
410.68        73.23801
411.13        73.27224
411.58        73.36681
412.03         73.4312
412.47        73.52795
412.92        73.58283
413.37        73.60072
413.81        73.57569
414.26         73.5538
414.71        73.52372
415.15        73.48814
415.60        73.42525
416.05        73.36389
416.49        73.31454
416.94         73.2691
417.39        73.22869
417.83        73.17811
418.28         73.1177
418.73        73.05432
419.17         72.9873
419.62        72.92319
420.07        72.85957
420.51        72.77385
420.96        72.71676
421.41        72.67654
421.85        72.62779
422.30        72.67126
422.74        72.74616
423.19        72.71223
423.64        72.60979
424.08        72.78879
424.53        73.19791
424.98        73.41697
425.42        73.37206
425.87        73.56446
426.31        73.89258
426.76        73.28629
427.21        72.12315
427.65        72.36823
428.10        73.69836
428.54        73.98227
428.99        73.27991
429.44        72.55161
429.88        72.07407
430.33         72.7738
430.77        74.10378
431.22        73.64429
431.66        72.20467
432.11        71.53191
432.56        71.93481
433.00        72.52258
433.45        73.08851
433.89        72.88206
434.34        72.18794
434.78        73.63062
435.23        73.78294
435.67         73.7143
436.12        72.72086
436.57        72.92555
437.01        74.17314
437.46        74.67208
437.90        74.36961
438.35        73.91387
438.79          74.187
439.24        73.85213
439.68        73.28566
440.13        73.15685
440.57        73.50309
441.02        73.71453
441.46        73.69036
441.91        74.12345
442.35        74.78131
442.80        74.30176
443.24        74.42789
443.69        74.29662
444.13        74.40545
444.58        74.38345
445.02        74.22659
445.47        74.14893
445.91         74.1842
446.36        74.30593
446.80        74.49101
447.24        74.81845
447.69        75.19764
448.13        75.22301
448.58         75.1396
449.02        75.04096
449.47        75.03992
449.91        74.96678
450.36        74.85751
450.80         74.7959
451.25         74.7915
451.69        74.73643
452.13        74.62839
452.58        74.55083
453.02        74.48804
453.47        74.25626
453.91         74.2252
454.36        74.01379
454.80        73.75785
455.24        73.76874
455.69        73.94526
456.13        73.65287
456.58        73.08915
457.02         72.9325
457.46        73.24294
457.91        73.71152
458.35        74.11855
458.79        74.11646
459.24        73.69143
459.68        73.10615
460.13        72.64986
460.57        71.60488
461.01        72.15582
461.46        71.58112
461.90         72.0833
462.34        72.17049
462.79        71.86773
463.23        71.93989
463.68        72.17555
464.12        72.20882
464.56        71.99184
465.01        71.82247
465.45        71.69429
465.89        71.65667
466.34        71.58064
466.78        71.79138
467.22        70.90688
467.67        70.78329
468.11        70.75565
468.55        70.79216
468.99        70.75225
469.44        70.72087
469.88        70.70345
470.32        70.65685
470.77        70.60326
471.21        70.59152
471.65        70.61223
472.10        70.66432
472.54         70.6886
472.98        70.61698
473.42        70.43801
473.87        70.23271
474.31        70.02691
474.75        69.81358
475.20        69.64681
475.64        69.78965
476.08        70.16362
476.52        70.16438
476.97        69.67505
477.41        70.09766
477.85        69.23817
478.29        69.43912
478.74         69.6988
479.18        70.00571
479.62        69.39341
480.06        69.35395
480.50        69.67046
480.95        68.92181
481.39        69.57121
481.83        68.64387
482.27        69.33038
482.72        69.23233
483.16        69.11031
483.60        69.11103
484.04          69.424
484.48        69.40301
484.93        69.50471
485.37        70.15286
485.81        69.65644
486.25        71.36055
486.69        71.94993
487.14        68.66494
487.58        67.58674
488.02         69.7747
488.46        68.68283
488.90        68.22607
489.34        69.36215
489.79        68.65791
490.23         68.7502
490.67        68.36433
491.11        68.19688
491.55         68.3313
491.99        68.66827
492.43         68.8036
492.88        68.67786
493.32        68.60572
493.76        68.59721
494.20        68.56633
494.64        68.52281
495.08        68.41546
495.52        68.29774
495.96        68.37585
496.41        68.58225
496.85        68.64858
497.29        68.50902
497.73        68.23241
498.17        67.93063
498.61        67.66995
499.05        67.46792
499.49        67.56033
499.93        67.84879
500.37        68.03281
500.82        68.08386
501.26        68.21532
501.70        68.40354
502.14        68.50933
502.58        68.45358
503.02        68.35634
503.46        68.21386
503.90        67.99965
504.34        67.79362
504.78        67.73303
505.22        67.83926
505.66        68.08173
506.10        68.34274
506.54        68.40901
506.98        68.23617
507.42        67.93819
507.86        67.57368
508.30        67.36277
508.74        67.33193
509.18        67.46126
509.62        67.70303
510.06        67.78129
510.50         67.9718
510.94        68.04314
511.38        68.08321
511.82        68.07257
512.26        68.01371
512.70        67.89674
513.14        67.74111
513.58         67.5937
514.02         67.4705
514.46        67.37424
514.90        67.29289
515.34        67.20011
515.78        67.09625
516.22        66.99622
516.66        66.93045
517.10        66.94194
517.54        67.03333
517.98         67.1828
518.42        67.34848
518.86        67.46033
519.30        67.49678
519.74         67.4837
520.18        67.44211
520.62         67.3875
521.06        67.34146
521.50        67.33745
521.93          67.364
522.37        67.34684
522.81        67.28445
523.25        67.22623
523.69        67.16232
524.13        67.05839
524.57        66.92144
525.01        66.76373
525.45        66.63928
525.89        66.63306
526.32        66.75356
526.76        66.96764
527.20         67.1974
527.64        67.32166
528.08        67.30885
528.52        67.19469
528.96        67.03287
529.40        66.91901
529.83        66.87098
530.27        66.85995
530.71        66.87518
531.15        66.93649
531.59        67.03626
532.03        67.15637
532.46         67.2748
532.90        67.38165
533.34        67.46517
533.78        67.47095
534.22        67.39719
534.66        67.36406
535.09        67.31562
535.53        67.01767
535.97         66.5596
536.41        66.31994
536.85        66.33814
537.28         66.4358
537.72        66.55129
538.16        66.64448
538.60        66.68189
539.04        66.67146
539.47        66.63382
539.91         66.6389
540.35        66.68005
540.79        66.75885
541.22        66.84021
541.66        66.77842
542.10        66.73519
542.54        66.59834
542.97        66.45515
543.41        66.39293
543.85        66.41823
544.29          66.508
544.72        66.61275
545.16        66.69196
545.60        66.71561
546.04        66.69285
546.47        66.64685
546.91        66.62672
547.35         66.6499
547.79        66.68366
548.22         66.6639
548.66        66.63718
549.10        66.60104
549.53        66.25478
549.97        66.23245
550.41        66.20865
550.84        66.37116
551.28        66.63655
551.72        66.92155
552.15        67.12933
552.59        67.20543
553.03        67.05949
553.46        66.75372
553.90        66.63058
554.34        66.72817
554.77        66.74232
555.21        66.59589
555.65        67.02222
556.08        66.70975
556.52        66.57774
556.96        66.30389
557.39        66.15392
557.83        66.16477
558.27        66.14751
558.70         66.0938
559.14        66.30433
559.57        66.20213
560.01        66.46371
560.45        66.74403
560.88        66.65762
561.32        66.31446
561.75         65.8152
562.19        65.42912
562.63        65.84499
563.06        66.80505
563.50        66.87469
563.93        66.12961
564.37        65.96262
564.80        66.36938
565.24        66.57309
565.68        66.50866
566.11        66.46819
566.55        66.48297
566.98        66.40633
567.42        66.34011
567.85        66.48154
568.29        66.79977
568.72        67.01649
569.16        67.18775
569.60        67.29388
570.03        67.19402
570.47         67.5435
570.90        67.37242
571.34        66.63697
571.77        66.99973
572.21        66.99208
572.64        67.25815
573.08        66.90364
573.51        67.24668
573.95        67.95515
574.38        67.37012
574.82        67.48338
