SpectraSmart Spectrum 2.9.0.0
--------- Device Information -----------
Spectrum Name :  反射率_0
Saving Time :  2024/05/01 16:37:00
Spectro-Module Model Name : SE2030-DUVN
Spectro-Module Serial Number : OS361AC55029948
Wavelength Start : 200
Wavelength End : 1025
Wavelength Unit : Wavelength(nm)
Spectrum Unit : Reflectance(%)
-----------Spectrum Setting ------------
Integration Time : 20ms
Average : 10
Boxcar : 0
Background removal :  enabled
linearity correction :  enabled
SC :  disabled
Intensity correction :  disabled
DWT denoise :  enabled
savitzky-golay :  disabled
FFT :  disabled
Running average :  disabled
Kalman :  disabled
High pass :  disabled
---------------BEGIN--------------------
Wavelength(nm)             Reflectance(%)
200.29               0
200.75       -16.57627
201.21        151.4809
201.67       -94.01688
202.13       -21.87374
202.58        13.97477
203.04        40.73928
203.50        59.90691
203.96        71.41899
204.42        79.46275
204.88        93.03584
205.34        424.4301
205.80       0.6301133
206.26       -9.553419
206.72       -69.87064
207.18       -421.1282
207.64         630.583
208.10        277.3086
208.55        198.5732
209.01          161.69
209.47        138.0944
209.93        120.0619
210.39        102.1309
210.85          88.923
211.31        91.83317
211.77        146.3839
212.23       -381.9151
212.69       -66.60445
213.14       -37.83451
213.60       -22.43202
214.06       -75.11967
214.52       -30.26145
214.98       -21.20154
215.44       -7.941545
215.90        29.35048
216.36        593.8995
216.81       -282.2632
217.27       -357.7194
217.73        650.8073
218.19        103.5912
218.65        49.56639
219.11        30.01622
219.57        9.618259
220.02        -45.8143
220.48       -5.851486
220.94        21.20759
221.40        28.48832
221.86        32.25167
222.32        36.01662
222.77        41.14901
223.23        48.84101
223.69        57.22483
224.15        57.14201
224.61         47.9469
225.06        37.06798
225.52        30.11594
225.98        28.48488
226.44        31.09001
226.90        37.25984
227.36         45.7391
227.81        49.98429
228.27        47.17136
228.73        41.58336
229.19        36.32076
229.65        32.56697
230.10        29.81916
230.56        27.37402
231.02        25.51133
231.48        25.57213
231.93        27.70878
232.39        31.00024
232.85        34.35978
233.31        36.94733
233.77        38.74398
234.22        40.06385
234.68         40.9615
235.14        41.63638
235.60        42.28531
236.05        43.02914
236.51        44.19632
236.97        46.45913
237.43        49.80563
237.88         53.5674
238.34        56.90649
238.80        60.22419
239.26        64.16778
239.71        69.83095
240.17        76.10703
240.63        77.02885
241.08        68.46438
241.54        54.38678
242.00        43.57002
242.46        42.13871
242.91        51.61526
243.37          75.078
243.83        117.8742
244.28        154.5013
244.74        151.2785
245.20          129.15
245.66        109.5819
246.11        99.30978
246.57        95.72127
247.03        94.92585
247.48        93.40491
247.94        82.08072
248.40        58.47079
248.85        31.90798
249.31        16.94868
249.77         21.3497
250.22        36.94522
250.68        54.68724
251.14        69.41895
251.59        79.74138
252.05        88.18743
252.51        99.26704
252.96        120.7365
253.42        156.5192
253.88        164.6915
254.33        136.4078
254.79        114.7088
255.25         102.982
255.70        95.55933
256.16        91.05047
256.62        87.64711
257.07        84.40018
257.53         82.0171
257.99        80.08423
258.44        78.41077
258.90         77.4566
259.35        76.60519
259.81        76.00534
260.27        75.25636
260.72        74.00839
261.18        72.62496
261.63        70.93552
262.09        69.38743
262.55        67.94866
263.00        66.48719
263.46        65.14781
263.91        63.68719
264.37        62.20029
264.83         60.6433
265.28        59.07382
265.74        57.61277
266.19        56.11349
266.65        54.69941
267.11        53.28648
267.56        52.07603
268.02        51.49328
268.47        51.50051
268.93        51.91195
269.38         52.2625
269.84        51.75795
270.30        50.27275
270.75        48.07649
271.21        45.67447
271.66        43.69733
272.12        42.38881
272.57        41.49698
273.03        40.90769
273.48        40.37394
273.94         39.8243
274.39        39.30429
274.85        38.78443
275.31        38.12783
275.76        37.31769
276.22        36.43759
276.67        35.52777
277.13        34.78055
277.58        34.16127
278.04        33.65802
278.49        33.20084
278.95        32.80857
279.40        32.41298
279.86        32.05953
280.31        31.65605
280.77        31.17498
281.22        30.57221
281.68        29.93632
282.13        29.27777
282.59        28.70413
283.04        28.21345
283.50        27.83709
283.95        27.56454
284.41        27.43382
284.86         27.4236
285.32        27.52692
285.77        27.71767
286.22        28.00564
286.68        28.37275
287.13        28.77575
287.59        29.13852
288.04        29.29635
288.50        29.25077
288.95        29.01842
289.41        28.75499
289.86        28.60096
290.32        28.62984
290.77        28.80272
291.22        29.06384
291.68        29.30665
292.13        29.52246
292.59        29.80632
293.04        30.23425
293.50        30.96616
293.95        32.01523
294.40        33.32907
294.86        34.83746
295.31        36.43937
295.77        38.06833
296.22        39.70739
296.68        41.32846
297.13        42.88211
297.58        44.39236
298.04        45.90226
298.49        47.42406
298.95        49.02016
299.40        50.67831
299.85         52.3769
300.31        54.18874
300.76        56.20467
301.21        58.44879
301.67        60.90724
302.12        63.36283
302.58        65.49366
303.03        67.18288
303.48        68.55101
303.94         69.9045
304.39        71.59304
304.84        73.75594
305.30        76.26228
305.75        78.87124
306.20        81.24023
306.66        83.26183
307.11        84.97359
307.57         86.5167
308.02        87.97842
308.47        89.44678
308.93        90.89678
309.38        92.25138
309.83        93.49831
310.29        94.65736
310.74        95.74085
311.19        96.81693
311.65        97.95407
312.10        99.13629
312.55        100.3316
313.00        101.5174
313.46        102.6651
313.91        103.7362
314.36        104.7275
314.82        105.5528
315.27        106.0962
315.72        106.3344
316.18        106.3534
316.63        106.2458
317.08        106.2287
317.53        106.3739
317.99        106.6421
318.44        107.0085
318.89        107.3941
319.35        107.7656
319.80        108.1609
320.25        108.5642
320.70        108.9549
321.16        109.3117
321.61        109.6363
322.06        109.9488
322.51        110.3144
322.97        110.7113
323.42        111.1534
323.87        111.5421
324.32         111.743
324.78        111.7251
325.23        111.5831
325.68        111.3933
326.13        111.3014
326.59        111.3405
327.04        111.5262
327.49        111.8408
327.94         112.277
328.39        112.8037
328.85        113.3648
329.30        113.9709
329.75        114.4642
330.20        114.8076
330.66        115.0061
331.11        115.1389
331.56        115.2108
332.01        115.2681
332.46        115.3127
332.92        115.4436
333.37        115.9415
333.82        116.8148
334.27        118.0178
334.72        119.3261
335.17        120.3301
335.63        120.8662
336.08        121.0705
336.53        121.1153
336.98        121.3717
337.43        121.9521
337.88        122.7612
338.34        123.5949
338.79        124.2073
339.24        124.4834
339.69         124.518
340.14        124.5229
340.59        124.8168
341.05        125.4631
341.50        126.3835
341.95        127.3294
342.40        127.9068
342.85        128.0356
343.30        127.8514
343.75        127.6476
344.20        127.8774
344.66        128.6271
345.11        129.7326
345.56        130.9261
346.01        131.7552
346.46        132.0898
346.91        132.0965
347.36        131.9408
347.81        131.8695
348.26        131.9785
348.72        132.1974
349.17        132.5037
349.62        132.9437
350.07        133.4665
350.52        134.0147
350.97        134.4764
351.42        134.6549
351.87        134.5085
352.32        134.1417
352.77         133.532
353.22        132.6577
353.67        131.5931
354.13         130.402
354.58        129.3597
355.03        129.0061
355.48        129.4032
355.93        130.4128
356.38        131.5146
356.83        131.8237
357.28        131.1344
357.73        129.7102
358.18        128.1198
358.63        127.2192
359.08        127.1738
359.53        127.6953
359.98         128.319
360.43        128.2853
360.88        127.3971
361.33        125.9423
361.78        124.3025
362.23        122.9967
362.68        122.1614
363.13        121.6346
363.58        121.2073
364.03        120.5758
364.48        119.6494
364.93        118.5113
365.38          117.36
365.83        116.4687
366.28        115.8806
366.73        115.5241
367.18        115.0928
367.63        114.1169
368.08        112.5575
368.53        110.6098
368.98        108.7555
369.43        107.6863
369.88        107.5131
370.33        108.0146
370.78        108.7169
371.23        108.7865
371.68         107.987
372.13        106.5942
372.58        105.0115
373.03        103.8435
373.48        103.2367
373.93        102.9626
374.38        102.8374
374.83        102.5815
375.28        102.0911
375.72        101.4758
376.17        100.7649
376.62        99.91225
377.07        98.95136
377.52        97.88809
377.97        96.87566
378.42        96.16999
378.87         95.8139
379.32        95.73257
379.77         95.7445
380.22        95.55889
380.67        95.09989
381.11        94.44793
381.56        93.72167
382.01        93.14723
382.46        92.79125
382.91        92.58077
383.36        92.41028
383.81        92.12119
384.26        91.67258
384.71        91.12291
385.15        90.54597
385.60        90.10165
386.05        89.81016
386.50        89.62431
386.95        89.45746
387.40        89.19493
387.85        88.80298
388.29        88.25051
388.74        87.73145
389.19        87.31576
389.64        87.02964
390.09        86.85017
390.54        86.63681
390.98        86.22377
391.43        85.66908
391.88        84.82336
392.33        83.95922
392.78        83.91597
393.23         84.4745
393.67         84.4462
394.12        83.89155
394.57        83.61932
395.02        83.58796
395.47        83.16556
395.91        82.46862
396.36        82.04759
396.81        81.96538
397.26        82.05601
397.71         82.1572
398.15        82.03436
398.60        81.73409
399.05        81.21831
399.50         80.6975
399.95        80.60466
400.39        80.92285
400.84        81.15942
401.29        81.14732
401.74        80.93777
402.18        80.49425
402.63        79.69789
403.08        78.80381
403.53         78.2605
403.97        78.13211
404.42        78.28522
404.87        78.56165
405.32        78.67897
405.76        78.54802
406.21        78.41371
406.66        78.27139
407.11        77.85587
407.55         77.3736
408.00        77.31836
408.45        77.64048
408.90        77.99464
409.34         78.0924
409.79        77.42686
410.24        76.28135
410.68        75.71413
411.13        75.82748
411.58        76.01068
412.03        76.14457
412.47        76.31691
412.92        76.43748
413.37        76.49155
413.81        76.48106
414.26        76.47636
414.71        76.46932
415.15        76.45501
415.60        76.40356
416.05         76.3329
416.49        76.25296
416.94        76.16497
417.39        76.07866
417.83        75.98805
418.28        75.89864
418.73        75.81652
419.17        75.74256
419.62        75.68304
420.07        75.62871
420.51        75.55953
420.96        75.52734
421.41        75.46659
421.85        75.34716
422.30        75.39974
422.74        75.58254
423.19        75.31864
423.64        75.05295
424.08         75.2074
424.53        75.94983
424.98        75.45586
425.42        75.96917
425.87        76.13329
426.31        76.52041
426.76        75.98465
427.21        74.90102
427.65         75.1727
428.10        76.41881
428.54        76.59291
428.99        75.74422
429.44        74.69413
429.88        73.91425
430.33        74.70425
430.77        76.42763
431.22        76.66912
431.66        75.46275
432.11        74.72622
432.56        74.73286
433.00        75.02931
433.45        75.46167
433.89        75.98611
434.34        75.19494
434.78        76.56927
435.23        75.24335
435.67        75.15179
436.12        75.16183
436.57         76.0118
437.01        77.40255
437.46        78.01389
437.90        77.72637
438.35        77.34007
438.79        77.01615
439.24        76.51322
439.68        75.99395
440.13        76.09647
440.57        76.74477
441.02         77.0427
441.46         76.8301
441.91        77.45478
442.35        77.42214
442.80        77.29447
443.24        76.83755
443.69        76.73876
444.13          76.985
444.58        77.06358
445.02        76.94545
445.47        77.01677
445.91        77.31665
446.36        77.55388
446.80        77.65674
447.24         78.4771
447.69        78.51857
448.13        78.76318
448.58        78.78793
449.02        78.66178
449.47        78.47598
449.91        78.33646
450.36        78.31268
450.80        78.35028
451.25        78.40496
451.69        78.34929
452.13        78.16827
452.58        77.90771
453.02        77.62305
453.47        77.44618
453.91        77.39254
454.36        77.42558
454.80        77.45488
455.24        77.40173
455.69        77.22659
456.13        76.82755
456.58        76.42373
457.02        76.18456
457.46        76.46398
457.91        76.86796
458.35          77.257
458.79        77.28886
459.24        76.95104
459.68         76.3623
460.13        75.79048
460.57        75.08952
461.01         75.3409
461.46        74.98743
461.90        75.52415
462.34         75.4437
462.79        74.95824
463.23        75.05808
463.68        75.56287
464.12        75.68001
464.56        75.32398
465.01        75.05547
465.45        74.96236
465.89         74.8708
466.34        74.54079
466.78        75.27142
467.22        74.04752
467.67        73.35621
468.11        73.90113
468.55        74.00701
468.99        74.04228
469.44        74.07791
469.88        74.13739
470.32         74.1486
470.77        74.09779
471.21         74.0293
471.65        73.92906
472.10        73.79568
472.54         73.6707
472.98        73.60188
473.42        73.58342
473.87        73.77128
474.31        74.00441
474.75        73.72602
475.20        73.08719
475.64        73.01147
476.08        73.44883
476.52         73.4465
476.97        72.93383
477.41        73.24467
477.85        72.47092
478.29        73.01849
478.74        73.05771
479.18        73.03192
479.62        72.40246
480.06        72.25984
480.50         72.5789
480.95         71.8708
481.39        72.67692
481.83         71.8271
482.27        72.34853
482.72        72.59304
483.16        72.04233
483.60        72.14711
484.04        72.47795
484.48        72.59309
484.93        72.76132
485.37        73.32096
485.81        73.08686
486.25        74.31263
486.69        73.38669
487.14        70.95174
487.58        70.43263
488.02        72.93758
488.46        71.96131
488.90        71.40415
489.34        72.33158
489.79        72.05197
490.23          71.871
490.67        71.59259
491.11        71.50866
491.55        71.77393
491.99        72.23319
492.43        72.39897
492.88        72.20196
493.32        71.94608
493.76        71.73515
494.20        71.63702
494.64        71.67759
495.08        71.79152
495.52        71.95373
495.96        72.04073
496.41         71.9754
496.85        71.99876
497.29        72.09893
497.73        71.23408
498.17        71.09383
498.61        70.75867
499.05        70.77991
499.49        71.16818
499.93        71.72072
500.37        71.79346
500.82         71.4279
501.26        71.30742
501.70        71.47872
502.14        71.76978
502.58        71.79597
503.02        71.78927
503.46        71.65471
503.90         71.4573
504.34        71.27241
504.78        71.20664
505.22        71.27309
505.66         71.4201
506.10        71.63453
506.54        71.80632
506.98        71.73249
507.42        71.99007
507.86        71.23648
508.30        70.60171
508.74        71.03874
509.18        71.15836
509.62        71.27597
510.06        71.39926
510.50        71.51506
510.94        71.58441
511.38        71.60391
511.82        71.60349
512.26        71.58434
512.70        71.52895
513.14        71.43629
513.58        71.32722
514.02         71.2141
514.46        71.02929
514.90        70.92341
515.34        70.78626
515.78         70.6704
516.22        70.57626
516.66        70.52589
517.10        70.54652
517.54         70.6344
517.98        70.77573
518.42        70.92851
518.86        71.02357
519.30        71.04417
519.74        71.01077
520.18        70.95181
520.62         70.9176
521.06         70.9211
521.50        70.93701
521.93        70.96878
522.37        71.01186
522.81        71.06204
523.25        71.12579
523.69        71.15529
524.13        71.07278
524.57        70.87795
525.01        70.60221
525.45        70.33617
525.89        70.22771
526.32        70.31229
526.76        70.51682
527.20        70.74771
527.64        70.94399
528.08        71.08153
528.52        70.85931
528.96        70.83627
529.40        70.75372
529.83        70.73513
530.27        70.54311
530.71        70.25469
531.15        70.19428
531.59        70.38099
532.03         70.6608
532.46        70.92439
532.90        71.07391
533.34        71.07213
533.78        70.89649
534.22          70.638
534.66        70.56129
535.09        70.63251
535.53        70.55481
535.97        70.33447
536.41        70.23605
536.85        70.26536
537.28        70.27539
537.72        70.25829
538.16        70.26239
538.60        70.28094
539.04          70.295
539.47        70.29545
539.91        70.30999
540.35        70.32211
540.79        70.35545
541.22        70.39886
541.66        70.33516
542.10        70.34073
542.54        70.27783
542.97        70.21436
543.41        70.20843
543.85        70.25534
544.29        70.33971
544.72        70.41696
545.16        70.45742
545.60        70.43728
546.04        70.36249
546.47        70.25697
546.91        70.20131
547.35        70.22472
547.79        70.23799
548.22        70.16161
548.66        70.29567
549.10        70.23228
549.53        69.91719
549.97        69.89806
550.41        69.95311
550.84        70.21001
551.28        70.32129
551.72         70.3041
552.15        70.26225
552.59        70.60447
553.03        70.50416
553.46          70.158
553.90        70.10468
554.34        70.36935
554.77        70.55392
555.21         70.5344
555.65        70.97797
556.08         70.5079
556.52        70.33805
556.96        70.13768
557.39        69.81359
557.83        69.48219
558.27        69.61633
558.70        70.13977
559.14        70.04219
559.57        69.95428
560.01        70.02574
560.45        70.33532
560.88        70.43969
561.32        70.34901
561.75        69.88953
562.19        69.30922
562.63        69.45403
563.06        70.15941
563.50        70.14806
563.93        69.49354
564.37        69.40562
564.80        69.84544
565.24        70.09764
565.68        70.08347
566.11         70.0584
566.55         70.0397
566.98        69.89462
567.42        69.74024
567.85        69.72005
568.29        69.87788
568.72        70.13175
569.16         70.4646
569.60        70.56795
570.03        70.34267
570.47        70.27661
570.90        70.53548
571.34        69.44147
571.77        69.98661
572.21        69.99008
572.64        70.31091
573.08        69.88385
573.51        70.19846
573.95        70.36285
574.38        70.07767
574.82        70.25666
