SpectraSmart Spectrum 2.9.0.0
--------- Device Information -----------
Spectrum Name :  反射率_0
Saving Time :  2024/05/01 16:26:25
Spectro-Module Model Name : SE2030-DUVN
Spectro-Module Serial Number : OS361AC55029948
Wavelength Start : 200
Wavelength End : 1025
Wavelength Unit : Wavelength(nm)
Spectrum Unit : Reflectance(%)
-----------Spectrum Setting ------------
Integration Time : 20ms
Average : 10
Boxcar : 0
Background removal :  enabled
linearity correction :  enabled
SC :  disabled
Intensity correction :  disabled
DWT denoise :  enabled
savitzky-golay :  disabled
FFT :  disabled
Running average :  disabled
Kalman :  disabled
High pass :  disabled
---------------BEGIN--------------------
Wavelength(nm)             Reflectance(%)
200.29               0
200.75        53.66135
201.21        504.6964
201.67       -282.7257
202.13       -110.3915
202.58       -42.76709
203.04        1.603079
203.50        30.11232
203.96        42.29154
204.42        40.41069
204.88        13.36579
205.34       -752.3828
205.80        166.3508
206.26        107.2203
206.72        59.59246
207.18       -107.7659
207.64        322.0233
208.10         153.856
208.55        105.6586
209.01        79.94898
209.47        68.96527
209.93         67.3103
210.39        68.91306
210.85        73.72814
211.31        85.12148
211.77        125.0653
212.23       -207.7725
212.69       -2.632315
213.14        23.12994
213.60        59.30373
214.06       -272.0792
214.52       -37.98203
214.98        -19.5079
215.44       -9.938057
215.90        7.938627
216.36        239.7172
216.81       -106.0779
217.27       -102.5199
217.73        63.53003
218.19       -23.26966
218.65       -33.00314
219.11       -38.75933
219.57       -43.49797
220.02       -28.69921
220.48        11.59931
220.94        3.318822
221.40       -1.205382
221.86       -1.163406
222.32        4.000608
222.77        14.35438
223.23        31.10135
223.69        52.74003
224.15         62.6312
224.61        54.22345
225.06        39.63822
225.52        28.73595
225.98        24.66454
226.44        26.10351
226.90        31.67115
227.36        40.07752
227.81        44.93296
228.27        43.17354
228.73        38.73514
229.19        34.91674
229.65        33.45073
230.10         34.0903
230.56        36.30124
231.02        39.41234
231.48        41.44419
231.93        41.37534
232.39        40.37925
232.85        39.45829
233.31        39.56768
233.77        40.65823
234.22        42.18956
234.68        43.89888
235.14        45.75354
235.60        47.89516
236.05        50.85678
236.51         54.6835
236.97        58.21026
237.43        59.89163
237.88        59.17866
238.34        56.92791
238.80        55.67089
239.26        56.21206
239.71         58.8838
240.17        63.33559
240.63        66.06481
241.08        63.86801
241.54         58.6671
242.00         54.5511
242.46        54.83104
242.91        60.83492
243.37        73.44812
243.83        95.39484
244.28        113.9871
244.74        111.5321
245.20        99.47652
245.66         88.4472
246.11        80.96457
246.57         75.2156
247.03        68.18548
247.48        56.52736
247.94         38.5666
248.40        19.64413
248.85         5.22317
249.31        2.820982
249.77        13.10699
250.22        28.67428
250.68        44.12537
251.14        56.25429
251.59        64.48105
252.05        71.06809
252.51        79.30143
252.96        95.69989
253.42        128.7605
253.88        146.8841
254.33        130.3611
254.79        113.3452
255.25         102.484
255.70        94.67223
256.16        89.42253
256.62        85.53628
257.07        82.49173
257.53        80.79394
257.99        79.74081
258.44        78.97865
258.90        78.88918
259.35        78.84371
259.81        78.99123
260.27        78.93279
260.72        78.26989
261.18        77.33695
261.63        75.97869
262.09        74.57115
262.55        72.96984
263.00        71.12386
263.46        69.30294
263.91        67.47362
264.37        66.02791
264.83        64.88652
265.28        63.93129
265.74         63.0959
266.19        61.95787
266.65        60.60098
267.11        59.05162
267.56        57.56188
268.02        56.63551
268.47        56.29241
268.93        56.33687
269.38        56.40644
269.84        55.87914
270.30        54.63963
270.75        52.88272
271.21        50.96867
271.66        49.29743
272.12         48.0504
272.57        47.03591
273.03        46.18245
273.48        45.30975
273.94        44.40889
274.39         43.5256
274.85         42.7003
275.31         41.8854
275.76        41.06145
276.22        40.27291
276.67         39.5011
277.13        38.86426
277.58        38.29495
278.04        37.81027
278.49        37.30476
278.95        36.75908
279.40        36.11808
279.86        35.45726
280.31        34.77639
280.77        34.18811
281.22        33.65119
281.68        33.20445
282.13        32.75269
282.59        32.26417
283.04        31.70573
283.50        31.15801
283.95        30.67253
284.41         30.3932
284.86        30.32071
285.32        30.41125
285.77        30.59347
286.22         30.8197
286.68        31.06034
287.13        31.30108
287.59         31.4906
288.04        31.50064
288.50        31.35135
288.95        31.04493
289.41        30.74151
289.86         30.5822
290.32        30.63478
290.77        30.85426
291.22        31.15656
291.68        31.39283
292.13        31.53975
292.59        31.69213
293.04        31.95518
293.50        32.54023
293.95        33.46893
294.40        34.67914
294.86        36.04903
295.31        37.39658
295.77        38.65133
296.22        39.83297
296.68        41.00367
297.13        42.24391
297.58        43.60114
298.04        45.07859
298.49        46.60121
298.95        48.09216
299.40        49.51133
299.85        50.88742
300.31         52.3697
300.76        54.16125
301.21        56.30835
301.67        58.75409
302.12        61.22834
302.58        63.33046
303.03        64.91904
303.48         66.1343
303.94        67.31093
304.39        68.84031
304.84        70.86584
305.30        73.24329
305.75        75.70078
306.20        77.84986
306.66        79.58619
307.11        80.97987
307.57        82.22869
308.02        83.50425
308.47        84.90776
308.93        86.38715
309.38        87.81713
309.83        89.10564
310.29        90.24809
310.74        91.27597
311.19        92.28601
311.65        93.39479
312.10        94.59624
312.55        95.83668
313.00        97.06371
313.46        98.20488
313.91        99.21622
314.36        100.1189
314.82        100.8555
315.27        101.3539
315.72        101.6046
316.18        101.6722
316.63        101.6455
317.08        101.7347
317.53        101.9985
317.99        102.3941
318.44        102.8623
318.89        103.2667
319.35        103.5674
319.80        103.8255
320.25        104.0649
320.70        104.3318
321.16        104.6247
321.61        104.9192
322.06        105.2392
322.51        105.6501
322.97        106.1219
323.42        106.6784
323.87        107.1561
324.32        107.3116
324.78        107.0995
325.23        106.6379
325.68        106.1329
326.13        105.9414
326.59        106.1402
327.04        106.6859
327.49        107.4006
327.94             108
328.39        108.3799
328.85        108.5651
329.30         108.722
329.75         108.974
330.20        109.3655
330.66        109.8088
331.11        110.2598
331.56        110.5234
332.01         110.577
332.46        110.4963
332.92         110.417
333.37        110.6682
333.82         111.298
334.27        112.2411
334.72        113.3354
335.17        114.2882
335.63        114.9553
336.08        115.4377
336.53        115.8078
336.98        116.2641
337.43         116.865
337.88        117.5517
338.34        118.1707
338.79         118.569
339.24        118.6755
339.69        118.5648
340.14        118.4419
340.59        118.6177
341.05         119.148
341.50        119.9556
341.95        120.8091
342.40         121.332
342.85        121.4435
343.30         121.283
343.75        121.0755
344.20        121.1695
344.66        121.6464
345.11        122.3756
345.56        123.2322
346.01        123.9965
346.46        124.5803
346.91        125.0693
347.36        125.4468
347.81        125.6846
348.26        125.8119
348.72        125.8292
349.17         125.856
349.62        126.1687
350.07        126.7747
350.52        127.5466
350.97        128.2452
351.42        128.4695
351.87        128.1415
352.32        127.4572
352.77        126.5283
353.22        125.5311
353.67        124.5758
354.13        123.6331
354.58        122.8938
355.03        122.7674
355.48        123.2705
355.93        124.3145
356.38        125.3612
356.83        125.4951
357.28        124.5386
357.73        122.7796
358.18        120.9019
358.63        119.9328
359.08        120.0642
359.53        120.9563
359.98        122.0336
360.43        122.3346
360.88        121.5894
361.33        120.1328
361.78        118.4011
362.23        117.0053
362.68         116.113
363.13        115.5335
363.58         115.053
364.03        114.3625
364.48        113.3797
364.93         112.218
365.38        111.0787
365.83        110.2309
366.28         109.712
366.73        109.4258
367.18        109.0937
367.63        108.2926
368.08        106.9702
368.53        105.3003
368.98        103.6477
369.43        102.5295
369.88        102.0404
370.33        102.0179
370.78         102.163
371.23        101.9591
371.68        101.2591
372.13        100.2369
372.58        99.13047
373.03        98.28671
373.48        97.77735
373.93        97.45535
374.38        97.18668
374.83        96.77509
375.28        96.16308
375.72        95.43138
376.17        94.64192
376.62        93.81361
377.07        92.97667
377.52        92.11163
377.97        91.31238
378.42         90.7327
378.87        90.38781
379.32        90.23862
379.77        90.11827
380.22         89.7588
380.67        89.11213
381.11        88.26514
381.56        87.39273
382.01        86.81252
382.46        86.60172
382.91        86.64602
383.36        86.77985
383.81        86.74984
384.26        86.47675
384.71         86.0373
385.15        85.48544
385.60        84.95581
386.05        84.48254
386.50        84.03468
386.95        83.60465
387.40        83.19644
387.85        82.80746
388.29        82.38979
388.74        82.05313
389.19        81.75406
389.64        81.48361
390.09        81.23226
390.54        80.94363
390.98        80.55656
391.43        80.13593
391.88        79.58745
392.33        79.02094
392.78         78.8603
393.23        78.99239
393.67         78.7089
394.12        78.14689
394.57        77.98457
395.02        78.19595
395.47        77.88243
395.91        77.18172
396.36        76.88138
396.81        77.03064
397.26        77.25662
397.71        77.40406
398.15        77.36487
398.60        77.18356
399.05        76.77726
399.50        76.31714
399.95        76.21217
400.39        76.43013
400.84         76.4412
401.29        76.17826
401.74        75.90929
402.18        75.62789
402.63         75.1217
403.08        74.51694
403.53        74.08303
403.97        73.85072
404.42        73.76213
404.87         73.7183
405.32        73.56951
405.76        73.28316
406.21        72.94639
406.66        72.62798
407.11         72.4603
407.55        72.51131
408.00        72.62154
408.45        72.74418
408.90        73.04962
409.34        73.32049
409.79        72.90119
410.24        71.99866
410.68        71.52673
411.13        71.57357
411.58        71.65384
412.03        71.68922
412.47        71.76594
412.92        71.82063
413.37        71.85191
413.81        71.85675
414.26        71.88403
414.71        71.92014
415.15        71.96565
415.60        71.98415
416.05        71.97715
416.49        71.94635
416.94        71.88979
417.39        71.82291
417.83        71.75296
418.28         71.6916
418.73        71.64899
419.17        71.61458
419.62        71.57396
420.07        71.51529
420.51        71.42474
420.96        71.38995
421.41        71.37688
421.85        71.35011
422.30          71.576
422.74        71.93478
423.19        71.60168
423.64        71.32051
424.08        71.40903
424.53        71.88151
424.98        72.08948
425.42        71.94121
425.87        71.98125
426.31         72.1944
426.76        71.95322
427.21         71.4724
427.65        71.79876
428.10        72.65978
428.54        72.90859
428.99        72.55439
429.44        71.77539
429.88        70.93771
430.33        71.49386
430.77         72.9385
431.22        72.78893
431.66        71.52334
432.11        71.11018
432.56        71.71329
433.00        72.08614
433.45        72.08329
433.89        72.21833
434.34        71.33316
434.78        73.13985
435.23        72.34881
435.67         72.3513
436.12        71.96313
436.57        72.47605
437.01        73.61011
437.46        74.48085
437.90        74.05904
438.35         73.2979
438.79        73.42661
439.24        73.02132
439.68         72.6297
440.13        72.78321
440.57        73.40913
441.02        73.79907
441.46        73.81837
441.91        74.08475
442.35        74.24118
442.80         74.1052
443.24        73.67627
443.69        73.47117
444.13        73.53415
444.58        73.58803
445.02        73.59808
445.47        73.85767
445.91        74.33082
446.36        74.59752
446.80        74.55193
447.24        75.32136
447.69        75.04111
448.13        75.15707
448.58        75.14355
449.02        75.02734
449.47        74.87548
449.91         74.7889
450.36        74.82513
450.80        74.91994
451.25        75.03244
451.69        75.04393
452.13        74.93896
452.58        74.76042
453.02        74.54442
453.47        74.39543
453.91        74.32542
454.36        74.30147
454.80        74.27695
455.24        74.23978
455.69        74.15633
456.13        73.92838
456.58        73.68708
457.02        73.50792
457.46        73.50188
457.91        73.88771
458.35        74.44167
458.79        74.47523
459.24         73.9575
459.68        73.34171
460.13        72.94003
460.57        71.95621
461.01        72.56991
461.46        72.47302
461.90        72.73907
462.34        73.39292
462.79        72.25296
463.23        72.36863
463.68        72.91022
464.12         73.0209
464.56        72.65092
465.01        72.42367
465.45        72.34807
465.89        72.35026
466.34        72.30936
466.78         72.3575
467.22        71.62141
467.67        71.38935
468.11         71.4942
468.55        71.67231
468.99        71.83853
469.44        71.92973
469.88        71.93072
470.32        71.86601
470.77        71.77591
471.21        71.73029
471.65        71.73185
472.10        71.76982
472.54        71.79964
472.98        71.76231
473.42        71.63894
473.87        71.54963
474.31        71.47025
474.75        71.21438
475.20        70.88781
475.64        70.99972
476.08        71.45728
476.52        71.50031
476.97        71.03643
477.41        71.31495
477.85        70.51364
478.29        70.83755
478.74        71.45164
479.18        71.50371
479.62         70.9949
480.06        70.83401
480.50        71.03781
480.95        70.29236
481.39        71.16194
481.83        69.66824
482.27        70.22638
482.72        70.73531
483.16        70.53583
483.60        70.83334
484.04        71.04493
484.48        70.81891
484.93        70.54128
485.37        71.35582
485.81        71.21535
486.25        72.62737
486.69        71.83779
487.14        69.44685
487.58        68.43525
488.02        70.65132
488.46        70.08089
488.90        69.75649
489.34        70.47636
489.79        70.65213
490.23        70.48392
490.67        70.15854
491.11        69.76597
491.55        69.95055
491.99        70.54982
492.43         70.7085
492.88        70.35921
493.32        70.02987
493.76        69.85492
494.20        69.79671
494.64         69.8606
495.08        70.12611
495.52        70.50104
495.96        70.52366
496.41        70.12543
496.85        70.49902
497.29        70.01947
497.73        69.83656
498.17        69.65154
498.61        69.37273
499.05        69.14713
499.49         69.3711
499.93         69.9293
500.37        70.12021
500.82        69.94704
501.26        69.99651
501.70        70.26836
502.14        70.39961
502.58        70.34007
503.02        70.20148
503.46        69.99434
503.90        69.68861
504.34        69.40353
504.78        69.32674
505.22        69.47109
505.66        69.84178
506.10        70.29718
506.54        70.39867
506.98         70.0263
507.42        70.10034
507.86        69.26878
508.30        69.06803
508.74        69.11751
509.18        69.33196
509.62        69.61597
510.06        69.86279
510.50        70.02945
510.94        70.13451
511.38        70.17516
511.82         70.1414
512.26        70.04066
512.70        69.86889
513.14         69.6677
513.58        69.51225
514.02        69.42451
514.46        69.39597
514.90        69.39968
515.34        69.38289
515.78        69.33327
516.22        69.27061
516.66        69.21662
517.10        69.20257
517.54        69.23421
517.98        69.29488
518.42        69.36749
518.86        69.42655
519.30        69.46339
519.74        69.48578
520.18         69.4957
520.62        69.49862
521.06        69.49508
521.50        69.47517
521.93        69.45241
522.37        69.43886
522.81        69.44216
523.25        69.46796
523.69         69.4798
524.13        69.41743
524.57        69.28093
525.01        69.09368
525.45        68.93343
525.89        68.92207
526.32        69.07477
526.76        69.34252
527.20        69.63097
527.64        69.79072
528.08        69.78133
528.52        69.65565
528.96        69.46346
529.40        69.28424
529.83        69.14387
530.27        69.03516
530.71        68.97239
531.15        68.99451
531.59        69.10065
532.03        69.28193
532.46        69.46808
532.90        69.56413
533.34        69.54727
533.78        69.38842
534.22         69.1627
534.66        69.10925
535.09        69.18832
535.53        69.11815
535.97        68.89886
536.41        68.78013
536.85        68.76844
537.28        68.71893
537.72        68.64813
538.16        68.64346
538.60        68.70383
539.04        68.79955
539.47          68.884
539.91        68.92493
540.35        68.89725
540.79         68.8454
541.22            68.8
541.66        68.71355
542.10        68.77248
542.54        68.81554
542.97        68.87626
543.41        68.96082
543.85        69.04854
544.29        69.14199
544.72        69.20403
545.16        69.21438
545.60        69.15659
546.04        69.03452
546.47          68.892
546.91        68.81568
547.35        68.82972
547.79        68.89114
548.22        68.91219
548.66        68.90398
549.10        68.85527
549.53        68.46902
549.97        68.40526
550.41         68.3376
550.84        68.46252
551.28        68.69765
551.72        68.98681
552.15        69.23849
552.59        69.37582
553.03        69.49523
553.46        69.20853
553.90        69.19479
554.34        69.35264
554.77        69.40136
555.21        69.26199
555.65        69.62756
556.08        69.16927
556.52        69.05034
556.96        68.91236
557.39        68.67516
557.83        68.44448
558.27         68.5834
558.70         68.9608
559.14        69.12677
559.57        68.55112
560.01        68.65917
560.45        69.14385
560.88        69.19978
561.32        68.90417
561.75        68.57191
562.19        68.38202
562.63        68.70161
563.06        69.32603
563.50        69.20225
563.93        68.44962
564.37        68.23074
564.80        68.55484
565.24        68.81059
565.68        68.88473
566.11         68.9096
566.55        68.89464
566.98        68.71153
567.42        68.50689
567.85        68.60032
568.29        68.95262
568.72        69.12887
569.16        69.18582
569.60        69.21815
570.03        69.14173
570.47        69.39713
570.90        69.59656
571.34        68.84855
571.77        69.23517
572.21        69.23257
572.64        69.55633
573.08        69.14593
573.51        69.01807
573.95        70.22003
574.38        69.15903
574.82        69.65118
