SpectraSmart Spectrum 2.9.0.0
--------- Device Information -----------
Spectrum Name :  反射率_0
Saving Time :  2024/05/01 16:02:14
Spectro-Module Model Name : SE2030-DUVN
Spectro-Module Serial Number : OS361AC55029948
Wavelength Start : 200
Wavelength End : 1025
Wavelength Unit : Wavelength(nm)
Spectrum Unit : Reflectance(%)
-----------Spectrum Setting ------------
Integration Time : 20ms
Average : 10
Boxcar : 0
Background removal :  enabled
linearity correction :  enabled
SC :  disabled
Intensity correction :  disabled
DWT denoise :  enabled
savitzky-golay :  disabled
FFT :  disabled
Running average :  disabled
Kalman :  disabled
High pass :  disabled
---------------BEGIN--------------------
Wavelength(nm)             Reflectance(%)
200.29               0
200.75        105.9537
201.21        502.2284
201.67       -211.2491
202.13       -68.81662
202.58       -18.92291
203.04        12.38573
203.50        32.52802
203.96        42.47972
204.42        45.35596
204.88        40.06378
205.34       -127.4696
205.80        58.21377
206.26        25.04704
206.72       -32.16178
207.18       -311.2987
207.64         480.997
208.10         198.934
208.55        128.4168
209.01        92.42905
209.47        72.08703
209.93        60.13917
210.39        50.32988
210.85        43.23621
211.31        41.60025
211.77        53.25455
212.23       -85.37225
212.69       -1.673476
213.14        13.83916
213.60        49.67889
214.06       -310.7294
214.52       -58.20602
214.98       -38.75195
215.44       -29.07974
215.90       -14.03284
216.36        188.2323
216.81       -134.9086
217.27       -191.1476
217.73        357.9083
218.19        53.93254
218.65         19.5715
219.11       -1.277441
219.57       -44.21801
220.02       -219.9156
220.48        -130.763
220.94       -38.53912
221.40       -12.24781
221.86       -1.337182
222.32        5.244838
222.77        11.60108
223.23        19.82735
223.69        30.00875
224.15        35.68567
224.61        33.58639
225.06        28.07513
225.52        23.82071
225.98        22.61991
226.44        23.98619
226.90        27.29869
227.36        31.62318
227.81        33.04875
228.27        30.36895
228.73        26.46873
229.19         23.1356
229.65        20.88975
230.10        19.38816
230.56         18.3576
231.02        18.01127
231.48        19.05176
231.93        21.27043
232.39        23.92958
232.85         26.4681
233.31        28.58174
233.77        30.27498
234.22        31.70917
234.68        32.71912
235.14        33.27375
235.60        33.45359
236.05        33.22914
236.51        32.96044
236.97        33.76751
237.43        36.22857
237.88        40.00055
238.34        43.45385
238.80        45.27709
239.26        45.20086
239.71        43.03429
240.17        38.14968
240.63        32.08048
241.08         28.5672
241.54        29.30535
242.00        32.89959
242.46        37.88712
242.91        45.45108
243.37        57.25206
243.83        78.79473
244.28         106.222
244.74        118.5069
245.20         117.269
245.66        110.7494
246.11        102.2109
246.57         90.6161
247.03         71.2941
247.48        39.34838
247.94        1.287627
248.40       -23.73819
248.85       -30.56837
249.31       -18.35774
249.77        3.167434
250.22        24.09691
250.68        42.06082
251.14        54.93782
251.59         62.7365
252.05        67.64332
252.51        70.85615
252.96        73.84307
253.42        83.38273
253.88        95.54119
254.33        95.83948
254.79        91.19215
255.25        85.14951
255.70        78.82472
256.16        73.78409
256.62        70.49221
257.07        69.44872
257.53        70.29537
257.99         71.6524
258.44        72.45562
258.90         72.4016
259.35        71.22183
259.81        69.61301
260.27        67.88058
260.72        66.56367
261.18        65.99658
261.63         65.5546
262.09        65.15448
262.55        64.27258
263.00        62.80411
263.46        61.14707
263.91        59.33467
264.37        57.75478
264.83        56.39591
265.28        55.17958
265.74        54.08013
266.19        52.78319
266.65        51.38329
267.11        49.88383
267.56        48.56386
268.02        47.95231
268.47        48.04427
268.93        48.60808
269.38        49.15418
269.84        48.85465
270.30        47.55581
270.75        45.52607
271.21        43.24821
271.66        41.32146
272.12        39.98909
272.57        39.02248
273.03        38.32161
273.48        37.66586
273.94         37.0087
274.39        36.40823
274.85        35.87078
275.31        35.31612
275.76        34.71395
276.22        34.09418
276.67        33.44842
277.13        32.89569
277.58        32.38757
278.04        31.94356
278.49        31.47896
278.95        30.98607
279.40         30.4267
279.86         29.8733
280.31        29.33346
280.77        28.91068
281.22        28.56392
281.68        28.30836
282.13        28.05605
282.59        27.77341
283.04        27.42446
283.50        27.08134
283.95        26.75993
284.41        26.53944
284.86        26.42639
285.32        26.41045
285.77        26.48993
286.22         26.7061
286.68        27.04951
287.13        27.47852
287.59        27.91052
288.04        28.16134
288.50         28.2195
288.95        28.09983
289.41        27.94803
289.86        27.89662
290.32        28.01529
290.77        28.26223
291.22         28.5791
291.68         28.8613
292.13        29.09607
292.59        29.36827
293.04        29.75849
293.50        30.43392
293.95        31.40844
294.40        32.63615
294.86        34.02101
295.31        35.42014
295.77        36.77309
296.22        38.08796
296.68        39.40392
297.13        40.77144
297.58        42.22625
298.04        43.77178
298.49        45.34963
298.95        46.90943
299.40        48.40853
299.85        49.85931
300.31        51.37014
300.76        53.08681
301.21        55.05008
301.67        57.22797
302.12         59.4017
302.58        61.25394
303.03        62.66846
303.48        63.76095
303.94        64.83449
304.39        66.23262
304.84        68.08503
305.30        70.27273
305.75        72.53099
306.20        74.47805
306.66         76.0229
307.11        77.23723
307.57        78.34257
308.02        79.55654
308.47        80.97054
308.93        82.49695
309.38        83.97199
309.83        85.24003
310.29         86.2775
310.74        87.14677
311.19        87.92928
311.65         88.7205
312.10        89.53468
312.55        90.33204
313.00        91.15916
313.46        92.09797
313.91        93.12561
314.36        94.21284
314.82        95.17635
315.27        95.73043
315.72        95.81569
316.18        95.56868
316.63        95.17392
317.08        94.98229
317.53        95.09382
317.99        95.41647
318.44        95.87481
318.89        96.31256
319.35        96.66895
319.80        97.01408
320.25        97.33224
320.70        97.59743
321.16        97.80133
321.61         97.9428
322.06        98.09497
322.51        98.41122
322.97        98.88985
323.42        99.52088
323.87        100.1365
324.32        100.4793
324.78        100.4823
325.23        100.2635
325.68        99.96581
326.13        99.84377
326.59        99.96134
327.04        100.2987
327.49        100.7725
327.94        101.2648
328.39        101.7158
328.85        102.1058
329.30         102.517
329.75        102.9298
330.20        103.3423
330.66        103.7217
331.11        104.0498
331.56        104.1846
332.01        104.1311
332.46        103.9376
332.92        103.7887
333.37        104.0937
333.82        104.9091
334.27        106.1565
334.72        107.5608
335.17        108.6207
335.63        109.1468
336.08         109.303
336.53        109.3063
336.98        109.5921
337.43        110.2815
337.88         111.237
338.34        112.2189
338.79        112.9206
339.24        113.2057
339.69        113.1909
340.14        113.0764
340.59        113.1625
341.05        113.5304
341.50        114.1218
341.95        114.7682
342.40        115.1994
342.85        115.3687
343.30        115.3878
343.75        115.4714
344.20        115.9445
344.66        116.8552
345.11        118.0558
345.56        119.3368
346.01        120.3461
346.46        120.9614
346.91        121.2985
347.36        121.4228
347.81        121.4401
348.26        121.4277
348.72        121.3717
349.17        121.3623
349.62        121.6194
350.07        122.1418
350.52        122.8281
350.97        123.4917
351.42        123.8058
351.87        123.6955
352.32        123.3155
352.77        122.6892
353.22        121.8654
353.67        120.9292
354.13        119.8931
354.58        119.0247
355.03        118.8511
355.48        119.4212
355.93        120.6104
356.38        121.8394
356.83        122.1219
357.28        121.2525
357.73        119.5394
358.18        117.6845
358.63        116.7398
359.08        116.9081
359.53        117.8464
359.98        118.9674
360.43        119.2902
360.88        118.5481
361.33        117.0889
361.78        115.3845
362.23        114.0995
362.68        113.4025
363.13        113.0715
363.58        112.8468
364.03         112.345
364.48        111.4569
364.93        110.3203
365.38        109.1431
365.83        108.2048
366.28        107.5668
366.73        107.1461
367.18        106.7155
367.63        105.9337
368.08        104.7627
368.53        103.3442
368.98        102.0005
369.43        101.1874
369.88        100.9717
370.33        101.1972
370.78        101.5371
371.23        101.4268
371.68        100.7137
372.13        99.59152
372.58        98.34516
373.03         97.3975
373.48        96.84635
373.93        96.52825
374.38        96.31661
374.83        96.01855
375.28        95.56173
375.72        95.02176
376.17        94.40471
376.62        93.64254
377.07        92.75699
377.52        91.76082
377.97        90.80972
378.42        90.16001
378.87        89.85047
379.32        89.80098
379.77        89.81983
380.22        89.60091
380.67        89.07576
381.11        88.34761
381.56        87.55418
382.01        86.94942
382.46        86.61253
382.91        86.45596
383.36        86.39721
383.81        86.31302
384.26        86.14929
384.71        85.93867
385.15        85.66586
385.60        85.35281
386.05        84.99488
386.50        84.59045
386.95        84.14958
387.40        83.70474
387.85        83.26968
388.29        82.79094
388.74        82.39049
389.19        82.03846
389.64        81.73189
390.09        81.47523
390.54         81.2078
390.98        80.82643
391.43        80.37898
391.88        79.84901
392.33        79.36403
392.78        79.14666
393.23        79.13547
393.67         79.2009
394.12        79.32371
394.57        79.07632
395.02        78.38557
395.47        78.57805
395.91        77.86681
396.36        77.43672
396.81        77.53182
397.26        77.64345
397.71        77.79061
398.15        77.64987
398.60        77.29844
399.05        76.61346
399.50        75.89837
399.95        75.93344
400.39        76.62918
400.84        76.98405
401.29         76.8205
401.74         76.6488
402.18        76.41846
402.63        75.64929
403.08        74.61093
403.53        73.99373
403.97        73.88287
404.42        74.05612
404.87        74.32906
405.32        74.43728
405.76        74.29546
406.21        74.04921
406.66        73.75261
407.11        73.47828
407.55        73.32737
408.00        73.20399
408.45        73.11828
408.90        73.34942
409.34        73.66895
409.79        73.26082
410.24        72.33611
410.68        71.94462
411.13        72.15948
411.58        72.38994
412.03        72.52456
412.47        72.64279
412.92        72.67059
413.37        72.61707
413.81        72.49007
414.26        72.35892
414.71        72.22542
415.15        72.08504
415.60        71.96336
416.05        71.96241
416.49        72.09444
416.94        72.32739
417.39        72.55548
417.83        72.58904
418.28        72.40276
418.73        72.07098
419.17        71.70673
419.62        71.50006
420.07        71.48851
420.51        71.57574
420.96         71.7666
421.41        71.93668
421.85        72.00733
422.30        72.23943
422.74        72.50754
423.19        72.24847
423.64        71.66842
424.08        71.88869
424.53        72.78118
424.98        73.16402
425.42        72.89954
425.87         72.7618
426.31        72.80009
426.76        72.33125
427.21        71.63439
427.65        71.95146
428.10        72.98156
428.54        73.28716
428.99        72.83173
429.44        72.26138
429.88        71.23764
430.33        71.89686
430.77        73.44137
431.22         73.2012
431.66        71.44092
432.11        70.95176
432.56        71.83624
433.00        72.39442
433.45        72.37349
433.89         72.4932
434.34        71.72085
434.78         73.1432
435.23          73.036
435.67        73.09918
436.12        72.55009
436.57         72.9408
437.01        74.09132
437.46         74.6875
437.90         74.1539
438.35          73.877
438.79        73.77198
439.24        73.39825
439.68        72.86591
440.13        72.83923
440.57           73.38
441.02        73.68723
441.46        73.59971
441.91        74.62486
442.35        75.34892
442.80        74.57373
443.24        73.96359
443.69         73.7338
444.13        74.35981
444.58        74.54563
445.02        74.28033
445.47        74.31736
445.91        74.67406
446.36        74.99287
446.80         75.2206
447.24        75.70403
447.69         75.9712
448.13         76.0455
448.58        75.85992
449.02        75.65537
449.47        75.53526
449.91        75.44063
450.36         75.4194
450.80        75.54063
451.25        75.73045
451.69         75.7057
452.13        75.47691
452.58        75.26823
453.02        75.09624
453.47        74.92323
453.91        74.74529
454.36        74.56764
454.80        74.46383
455.24         74.4158
455.69        74.53703
456.13        74.58317
456.58         74.0864
457.02        73.24005
457.46        73.33942
457.91        73.82486
458.35        74.72305
458.79        74.85079
459.24         74.1529
459.68        73.34876
460.13        72.81976
460.57        71.85934
461.01         72.0317
461.46        72.23962
461.90        72.72542
462.34        72.62533
462.79        72.38582
463.23        72.36949
463.68        72.63176
464.12         72.6727
464.56        72.42762
465.01        72.05968
465.45        71.68508
465.89         71.7009
466.34        71.89032
466.78        72.47876
467.22        71.51102
467.67        71.33586
468.11           71.21
468.55        71.37457
468.99        71.62782
469.44        71.67077
469.88        71.49911
470.32        71.32108
470.77        71.19878
471.21         71.1191
471.65        71.08221
472.10        71.10353
472.54         71.1403
472.98        71.10784
473.42         70.9775
473.87         70.9315
474.31        70.91587
474.75        70.55072
475.20        69.99913
475.64        70.13933
476.08        70.83127
476.52        70.90376
476.97        70.23386
477.41        70.67744
477.85        69.40947
478.29         70.0817
478.74        70.40775
479.18        70.37952
479.62        69.67213
480.06        69.48827
480.50        69.88694
480.95        69.22397
481.39         69.9137
481.83        69.13191
482.27        69.23884
482.72        69.60182
483.16        69.37758
483.60        69.55514
484.04        69.63731
484.48        69.70854
484.93        69.76116
485.37        70.21172
485.81        69.72591
486.25        71.29259
486.69         71.2545
487.14        68.49958
487.58        67.77664
488.02        69.68426
488.46        68.86678
488.90        68.52569
489.34        69.36286
489.79        69.04781
490.23        69.03987
490.67        68.72927
491.11         68.5112
491.55         68.6042
491.99        68.90561
492.43        68.96486
492.88        68.73363
493.32        68.52657
493.76        68.41916
494.20        68.38596
494.64        68.43472
495.08        68.60595
495.52        68.83685
495.96        68.84915
496.41        68.66531
496.85         68.7628
497.29        69.03052
497.73        68.82526
498.17        68.21732
498.61        68.05598
499.05        67.88617
499.49        68.12626
499.93        68.46272
500.37        68.52139
500.82         68.3344
501.26        68.22695
501.70        68.36875
502.14        68.64692
502.58        68.40012
503.02        68.34624
503.46        68.30872
503.90        68.04196
504.34        67.97709
504.78         67.9352
505.22        68.05582
505.66        68.22316
506.10        68.38965
506.54        68.58758
506.98        68.69215
507.42        68.44933
507.86        68.01467
508.30        67.52712
508.74        67.75249
509.18        67.85126
509.62        67.97117
510.06        68.10263
510.50        68.21359
510.94        68.29153
511.38        68.32813
511.82         68.3279
512.26        68.28943
512.70        68.21001
513.14        68.09216
513.58        67.94457
514.02        67.78074
514.46        67.60677
514.90         67.4452
515.34        67.34469
515.78        67.31973
516.22        67.29291
516.66        67.37214
517.10        67.42335
517.54        67.47141
517.98        67.51643
518.42        67.56332
518.86        67.62008
519.30        67.68389
519.74        67.74407
520.18        67.78897
520.62        67.80646
521.06        67.79179
521.50        67.74667
521.93        67.68035
522.37        67.59707
522.81        67.50937
523.25        67.42612
523.69        67.34219
524.13        67.24545
524.57        67.14189
525.01        67.04087
525.45        66.97569
525.89        66.99652
526.32        67.10567
526.76        67.27879
527.20        67.46489
527.64        67.58739
528.08        67.62276
528.52        67.59101
528.96        67.51509
529.40        67.44065
529.83         67.3752
530.27        67.31203
530.71        67.26054
531.15        67.26455
531.59        67.32782
532.03         67.4318
532.46        67.54308
532.90        67.62856
533.34        67.66788
533.78        67.63058
534.22        67.54197
534.66        67.50564
535.09        67.45717
535.53        67.37505
535.97        66.92227
536.41        66.72948
536.85        66.71007
537.28        66.71072
537.72        66.71593
538.16        66.76655
538.60        66.85156
539.04        66.95388
539.47        67.04108
539.91        67.10534
540.35        67.12248
540.79         67.1035
541.22        67.07207
541.66        66.99927
542.10        67.04446
542.54        67.01736
542.97        66.95587
543.41        66.86206
543.85        66.76496
544.29        66.80022
544.72        66.91644
545.16        66.93353
545.60        66.82629
546.04        66.71355
546.47        66.62924
546.91        66.55743
547.35        66.53526
547.79        66.61729
548.22        66.71561
548.66        66.76788
549.10        66.75925
549.53        66.44143
549.97        66.43859
550.41        66.38747
550.84        66.47347
551.28        66.63477
551.72        66.83817
552.15          67.021
552.59        67.09394
553.03        67.20186
553.46        66.79764
553.90         66.7162
554.34        66.95982
554.77        67.08401
555.21        67.01785
555.65        67.41216
556.08        66.97932
556.52        66.78448
556.96         66.5248
557.39         66.3654
557.83        66.35207
558.27        66.41199
558.70        66.48087
559.14        66.65566
559.57        66.43438
560.01        66.53618
560.45        66.72637
560.88        66.76899
561.32         66.7049
561.75        66.40919
562.19        66.06638
562.63        66.31827
563.06         66.9634
563.50        66.80743
563.93        65.98283
564.37        65.73254
564.80         66.0668
565.24        66.34602
565.68        66.45714
566.11        66.51608
566.55        66.52135
566.98         66.4051
567.42        66.28107
567.85        66.29226
568.29        66.46104
568.72        66.65118
569.16        66.88869
569.60        66.97919
570.03        66.83192
570.47         67.0268
570.90        67.28624
571.34        66.45629
571.77        66.93238
572.21        66.91418
572.64         67.1803
573.08        66.82105
573.51        66.88231
573.95        67.44922
574.38        67.16317
574.82        67.00901
