SpectraSmart Spectrum 2.9.0.0
--------- Device Information -----------
Spectrum Name :  反射率_0
Saving Time :  2024/05/01 16:38:52
Spectro-Module Model Name : SE2030-DUVN
Spectro-Module Serial Number : OS361AC55029948
Wavelength Start : 200
Wavelength End : 1025
Wavelength Unit : Wavelength(nm)
Spectrum Unit : Reflectance(%)
-----------Spectrum Setting ------------
Integration Time : 20ms
Average : 10
Boxcar : 0
Background removal :  enabled
linearity correction :  enabled
SC :  disabled
Intensity correction :  disabled
DWT denoise :  enabled
savitzky-golay :  disabled
FFT :  disabled
Running average :  disabled
Kalman :  disabled
High pass :  disabled
---------------BEGIN--------------------
Wavelength(nm)             Reflectance(%)
200.29               0
200.75        76.11739
201.21        578.4023
201.67       -314.5468
202.13       -130.8386
202.58       -63.96312
203.04       -21.78835
203.50        5.019062
203.96         16.9266
204.42        16.62641
204.88       -4.414617
205.34       -618.4486
205.80        117.5546
206.26        68.77684
206.72        27.74379
207.18       -118.7576
207.64        255.5113
208.10        107.4489
208.55        64.34699
209.01        40.69292
209.47        30.39846
209.93        28.44955
210.39         29.3656
210.85        31.56804
211.31        33.49749
211.77        33.69715
212.23        30.68469
212.69        38.46403
213.14        55.62539
213.60         120.085
214.06        -586.752
214.52       -97.20515
214.98       -65.24366
215.44        -59.2132
215.90       -68.48817
216.36       -276.6022
216.81        40.52008
217.27        39.90929
217.73       -146.0018
218.19       -55.02108
218.65       -58.72304
219.11       -84.09234
219.57       -169.9032
220.02       -498.8469
220.48       -226.5803
220.94       -52.89265
221.40       -10.25221
221.86        4.972539
222.32        12.22675
222.77        17.46811
223.23        22.60539
223.69        28.03672
224.15        30.84347
224.61        29.53832
225.06        26.43752
225.52        23.75957
225.98        21.87701
226.44        20.44588
226.90        19.02551
227.36        17.84029
227.81        17.90432
228.27        19.22571
228.73        20.92823
229.19        22.34791
229.65           23.22
230.10        23.78777
230.56        24.58795
231.02        25.55415
231.48        26.40879
231.93        26.93786
232.39        27.06979
232.85        27.67297
233.31        29.77615
233.77        33.05454
234.22        36.96828
234.68        40.38711
235.14        42.09743
235.60        41.95407
236.05        40.05259
236.51        36.82384
236.97        34.91973
237.43        36.43845
237.88        40.99377
238.34        45.92647
238.80        48.02991
239.26        46.23815
239.71           40.28
240.17         28.8545
240.63        15.12115
241.08        6.760436
241.54        6.302337
242.00         10.8922
242.46        16.91134
242.91        24.89784
243.37        37.28184
243.83         59.9107
244.28        88.82936
244.74        101.9852
245.20        100.4815
245.66         93.2524
246.11        83.95689
246.57        71.34656
247.03        50.57139
247.48        16.06086
247.94       -25.64385
248.40       -54.43629
248.85       -64.97003
249.31       -54.48848
249.77       -31.43816
250.22       -7.501006
250.68        13.58852
251.14        27.71429
251.59        32.50165
252.05         28.6405
252.51         12.1052
252.96       -30.31443
253.42       -83.10503
253.88       -56.31908
254.33         12.0343
254.79        48.94184
255.25        61.23749
255.70        63.19879
256.16        62.32045
256.62        61.02008
257.07        60.72873
257.53        61.64799
257.99        62.67676
258.44        63.32507
258.90        63.71462
259.35        63.54131
259.81        63.28194
260.27        62.80091
260.72        61.98794
261.18        61.18249
261.63        60.14099
262.09        59.18921
262.55        58.27464
263.00        57.27151
263.46        56.29944
263.91        55.17043
264.37        53.97793
264.83        52.68657
265.28        51.35772
265.74        50.04895
266.19        48.56131
266.65        47.02217
267.11        45.40215
267.56        43.99054
268.02        43.33517
268.47        43.43431
268.93        44.06153
269.38        44.70948
269.84        44.50479
270.30        43.28618
270.75        41.34035
271.21        39.15635
271.66        37.35331
272.12         36.1767
272.57        35.38029
273.03        34.87787
273.48        34.47832
273.94        34.11581
274.39        33.83029
274.85        33.55847
275.31        33.12734
275.76        32.51271
276.22        31.79609
276.67        31.04471
277.13        30.47555
277.58        30.05867
278.04        29.75963
278.49         29.4774
278.95        29.17259
279.40        28.77857
279.86        28.37045
280.31          27.893
280.77        27.35662
281.22        26.73464
281.68        26.08866
282.13        25.44627
282.59        24.92694
283.04        24.52302
283.50        24.25424
283.95        24.05338
284.41        23.86507
284.86        23.66323
285.32        23.47306
285.77        23.35554
286.22        23.43072
286.68        23.70168
287.13        24.09973
287.59        24.48234
288.04        24.58013
288.50        24.37365
288.95         23.9225
289.41        23.45002
289.86        23.20251
290.32        23.25229
290.77        23.51237
291.22        23.84099
291.68        24.01168
292.13        23.98446
292.59        23.87955
293.04        23.82423
293.50         24.0588
293.95        24.61742
294.40        25.41911
294.86        26.35928
295.31         27.2871
295.77        28.13787
296.22        28.94751
296.68        29.72147
297.13        30.45603
297.58        31.18555
298.04        31.93198
298.49        32.73323
298.95         33.6886
299.40        34.78788
299.85        35.99213
300.31        37.28672
300.76        38.64298
301.21         40.0563
301.67        41.55416
302.12        43.02684
302.58        44.32241
303.03        45.38998
303.48        46.29669
303.94        47.26259
304.39        48.54256
304.84         50.2275
305.30        52.22688
305.75        54.33822
306.20        56.25878
306.66        57.89963
307.11        59.30245
307.57        60.60793
308.02        61.94654
308.47         63.3936
308.93        64.91048
309.38        66.39996
309.83        67.79173
310.29        69.08376
310.74        70.30353
311.19        71.52756
311.65         72.8484
312.10        74.26006
312.55        75.71125
313.00        77.16534
313.46        78.57546
313.91        79.90147
314.36        81.15253
314.82        82.24186
315.27        83.04618
315.72        83.53976
316.18        83.78704
316.63        83.91345
317.08        84.17532
317.53         84.6423
317.99        85.26091
318.44        85.93249
318.89        86.46058
319.35        86.79216
319.80        87.00909
320.25        87.18377
320.70        87.43439
321.16        87.78485
321.61        88.19533
322.06        88.65063
322.51        89.14835
322.97        89.64419
323.42        90.17048
323.87        90.62083
324.32        90.84079
324.78        90.79943
325.23        90.57645
325.68        90.29304
326.13        90.17138
326.59        90.26055
327.04        90.54985
327.49        90.95554
327.94        91.34819
328.39        91.67476
328.85        91.93642
329.30        92.21176
329.75        92.49455
330.20        92.79356
330.66        93.06888
331.11         93.3531
331.56        93.59814
332.01        93.80995
332.46        94.00436
332.92        94.22137
333.37        94.62328
333.82        95.20986
334.27        95.95796
334.72        96.76332
335.17        97.43803
335.63        97.89214
336.08        98.20246
336.53        98.43935
336.98        98.78428
337.43        99.28899
337.88        99.90746
338.34        100.5035
338.79         100.929
339.24        101.1099
339.69        101.1039
340.14        101.0734
340.59        101.2662
341.05        101.7338
341.50        102.4309
341.95        103.1698
342.40        103.6444
342.85        103.7985
343.30        103.7428
343.75          103.71
344.20        104.0619
344.66         104.861
345.11        105.9571
345.56        107.1353
346.01        108.0337
346.46        108.5308
346.91        108.7478
347.36        108.7691
347.81        108.7237
348.26        108.6926
348.72        108.6608
349.17        108.6838
349.62        108.9204
350.07        109.3658
350.52        109.9409
350.97        110.5272
351.42        110.9089
351.87        111.0245
352.32        110.9755
352.77        110.7054
353.22        110.1434
353.67        109.3404
354.13        108.3429
354.58        107.4506
355.03        107.2309
355.48        107.7553
355.93        108.8884
356.38        110.0758
356.83        110.3742
357.28        109.5844
357.73        108.0058
358.18        106.3005
358.63        105.4581
359.08        105.6663
359.53        106.5944
359.98         107.685
360.43        108.0081
360.88        107.3149
361.33        105.9483
361.78        104.3487
362.23        103.1334
362.68        102.4711
363.13        102.1584
363.58        101.9973
364.03        101.6999
364.48        101.1619
364.93          100.47
365.38        99.73997
365.83        99.11795
366.28        98.62881
366.73         98.2258
367.18        97.72921
367.63        96.87826
368.08        95.67322
368.53        94.24606
368.98        92.91584
369.43        92.13248
369.88        91.96211
370.33        92.25356
370.78        92.70117
371.23        92.76397
371.68        92.27928
372.13        91.42194
372.58        90.40646
373.03        89.55849
373.48        88.96422
373.93        88.48949
374.38        88.09765
374.83        87.74725
375.28         87.4046
375.72        87.10375
376.17        86.76498
376.62        86.19087
377.07        85.37346
377.52         84.3709
377.97        83.39592
378.42        82.79177
378.87        82.61722
379.32        82.75349
379.77        82.97198
380.22        82.91838
380.67        82.50493
381.11        81.84522
381.56        81.08671
382.01         80.4948
382.46        80.15714
382.91        79.99242
383.36        79.90812
383.81        79.76572
384.26        79.52006
384.71        79.21695
385.15        78.89536
385.60        78.65579
386.05        78.49738
386.50        78.37997
386.95        78.23885
387.40        77.98743
387.85        77.61914
388.29        77.13558
388.74        76.69186
389.19        76.32381
389.64        76.04452
390.09        75.81705
390.54        75.62429
390.98        75.42307
391.43        75.24718
391.88        75.09039
392.33        74.92066
392.78        74.71958
393.23        74.48848
393.67        74.12589
394.12        73.75209
394.57        73.60477
395.02        73.58291
395.47         73.2562
395.91        72.57187
396.36        72.27316
396.81        72.35327
397.26        72.51865
397.71        72.60792
398.15        72.48923
398.60        72.21198
399.05        71.71142
399.50        71.20042
399.95        71.11939
400.39        71.45795
400.84        71.74519
401.29        71.82704
401.74        71.76188
402.18        71.50217
402.63        70.91426
403.08        70.20372
403.53        69.75115
403.97         69.6172
404.42        69.70197
404.87         69.8644
405.32        69.87109
405.76        69.65794
406.21        69.39037
406.66        69.13667
407.11        68.87973
407.55        68.75671
408.00        68.94788
408.45        69.33913
408.90        69.65434
409.34        69.66752
409.79        69.02949
410.24        68.02617
410.68        67.53412
411.13         67.6534
411.58        67.91975
412.03        68.17619
412.47        68.34628
412.92         68.3281
413.37        68.17757
413.81         67.9495
414.26        67.77506
414.71        67.67308
415.15        67.61772
415.60        67.59239
416.05        67.63093
416.49        67.72879
416.94        67.87296
417.39         68.0211
417.83        68.08212
418.28        68.04665
418.73        67.95627
419.17         67.8341
419.62        67.72407
420.07        67.63206
420.51         67.5201
420.96        67.48679
421.41        67.51292
421.85        67.55219
422.30        67.93108
422.74        68.43893
423.19        68.15251
423.64        67.32842
424.08        67.65717
424.53        68.77134
424.98        69.22614
425.42        68.82989
425.87        68.51072
426.31        68.43472
426.76        68.28667
427.21         68.1797
427.65        68.56637
428.10        69.15892
428.54         69.1701
428.99        68.72587
429.44          68.124
429.88        67.61502
430.33         68.2297
430.77         69.4838
431.22        69.11545
431.66        68.07808
432.11        67.45889
432.56        67.63568
433.00        68.18861
433.45        68.96149
433.89         68.8037
434.34        68.15913
434.78        69.67044
435.23        68.83565
435.67        68.98884
436.12         68.9287
436.57        69.17893
437.01        69.51035
437.46        70.63866
437.90         70.0798
438.35        69.70485
438.79        69.95666
439.24        69.62719
439.68         69.1625
440.13        69.15018
440.57        69.60703
441.02        69.88631
441.46        69.88544
441.91        70.30561
442.35        70.60066
442.80        70.52592
443.24        70.58057
443.69        70.40528
444.13        70.25066
444.58          70.189
445.02        70.23183
445.47        70.38907
445.91        70.60769
446.36        70.81846
446.80        70.98475
447.24        71.13541
447.69        71.27392
448.13        71.38551
448.58        71.48363
449.02         71.5364
449.47        71.57511
449.91        71.60947
450.36         71.6608
450.80        71.70612
451.25        71.72745
451.69        71.65302
452.13        71.48047
452.58        71.23447
453.02        70.96303
453.47        70.75951
453.91        70.63393
454.36        70.62689
454.80        70.65847
455.24        70.44153
455.69        70.23315
456.13        69.85783
456.58        69.56857
457.02        69.47197
457.46        69.63708
457.91        70.13049
458.35        70.70112
458.79        70.75042
459.24        70.23308
459.68        69.54853
460.13        69.03793
460.57        67.93691
461.01        68.30051
461.46        68.21165
461.90        68.52771
462.34        68.73412
462.79        68.28484
463.23        68.43404
463.68        68.82993
464.12        68.97318
464.56        68.86375
465.01        68.23961
465.45        68.17783
465.89        68.26774
466.34        68.59776
466.78        68.52899
467.22        67.94391
467.67        67.23098
468.11        67.70637
468.55         67.7524
468.99        67.69421
469.44        67.64943
469.88        67.62164
470.32        67.54867
470.77        67.44554
471.21        67.39675
471.65        67.39715
472.10        67.44055
472.54        67.48512
472.98        67.46724
473.42        67.36915
473.87        67.31005
474.31        67.26366
474.75        67.04771
475.20        66.77027
475.64         66.8931
476.08        67.30255
476.52        67.38763
476.97        67.08331
477.41        67.15383
477.85        66.24134
478.29        66.90623
478.74        66.77226
479.18        66.82933
479.62        66.06657
480.06        65.92545
480.50         66.2841
480.95        65.70668
481.39        66.48046
481.83        65.77126
482.27        65.98926
482.72        66.30742
483.16        65.99561
483.60        65.96394
484.04        66.38803
484.48        66.28626
484.93        66.08418
485.37        67.13885
485.81        66.93683
486.25        67.85147
486.69        67.09833
487.14        64.81614
487.58        64.66645
488.02        66.54504
488.46        66.30579
488.90        65.30781
489.34        66.11711
489.79        65.62899
490.23         65.5383
490.67        65.46545
491.11         65.5992
491.55        65.77236
491.99        65.88335
492.43        65.93189
492.88        65.88271
493.32        65.73756
493.76        65.54037
494.20         65.4251
494.64        65.41649
495.08        65.40103
495.52        65.39706
495.96        65.53621
496.41        65.72327
496.85        65.80972
497.29        65.52895
497.73        65.23486
498.17        65.30511
498.61        64.94872
499.05        64.45853
499.49        64.58379
499.93        65.19044
500.37        65.37943
500.82        65.14791
501.26        65.12112
501.70        65.27612
502.14        65.62318
502.58         65.3774
503.02        65.32436
503.46        65.24976
503.90        65.12164
504.34        64.99046
504.78        64.95657
505.22         65.0409
505.66         65.2178
506.10        65.40567
506.54        65.45665
506.98        65.33979
507.42        65.11511
507.86         64.8772
508.30        64.71532
508.74         64.6544
509.18        64.75883
509.62        65.01971
510.06         64.8768
510.50         65.1666
510.94        65.20627
511.38        65.24262
511.82         65.2365
512.26        65.19078
512.70        65.09158
513.14        64.94038
513.58        64.80091
514.02        64.69254
514.46         64.5564
514.90        64.37295
515.34        64.42348
515.78        64.20731
516.22        64.13669
516.66        64.08655
517.10        64.10218
517.54        64.18251
517.98           64.32
518.42        64.47639
518.86         64.5757
519.30        64.60142
519.74        64.56954
520.18        64.52325
520.62        64.53687
521.06        64.62115
521.50        64.74144
521.93        64.85758
522.37        64.89535
522.81        64.84237
523.25        64.73546
523.69        64.58634
524.13        64.40871
524.57        64.22601
525.01        64.04234
525.45        63.91282
525.89        63.92365
526.32        64.07845
526.76        64.33947
527.20         64.6254
527.64        64.80467
528.08        64.83884
528.52        64.77029
528.96        64.62913
529.40        64.46784
529.83        64.30885
530.27        64.15403
530.71        64.04059
531.15        64.04272
531.59        64.16637
532.03        64.38932
532.46        64.62427
532.90        64.74548
533.34        64.72309
533.78        64.54672
534.22        64.29468
534.66        64.20214
535.09         64.2382
535.53         64.1331
535.97        63.90472
536.41         63.8125
536.85        63.86391
537.28        63.91981
537.72        63.95115
538.16         63.9679
538.60        63.95721
539.04        63.91087
539.47        63.84843
539.91        63.83844
540.35        63.87392
540.79         63.9635
541.22        64.06674
541.66        64.02754
542.10        63.99807
542.54        63.87281
542.97        63.74504
543.41        63.71663
543.85        63.79274
544.29        63.93749
544.72        64.08965
545.16        64.19067
545.60        64.20593
546.04        64.15395
546.47        64.05497
546.91        63.95266
547.35        63.87403
547.79        63.79784
548.22        63.68943
548.66        63.63037
549.10        63.62066
549.53        63.35897
549.97        63.43044
550.41        63.47143
550.84        63.64289
551.28        63.92725
551.72        64.23891
552.15        64.35566
552.59        64.27274
553.03        64.21228
553.46        64.06998
553.90         64.0233
554.34         64.0466
554.77        64.07544
555.21        64.04842
555.65         64.2384
556.08        63.96897
556.52        63.79267
556.96        63.55993
557.39        63.42396
557.83        63.42615
558.27        63.41956
558.70        63.38008
559.14        63.61826
559.57        63.55289
560.01        63.70041
560.45         63.8056
560.88        63.75625
561.32        63.63365
561.75        63.34208
562.19        63.06039
562.63        63.38394
563.06        64.08476
563.50        63.94042
563.93        63.10105
564.37        62.81919
564.80         63.2476
565.24        63.50454
565.68        63.53674
566.11         63.5681
566.55        63.60381
566.98        63.51937
567.42        63.41669
567.85        63.45398
568.29        63.64304
568.72        63.83205
569.16         64.0646
569.60         64.1334
570.03        63.90929
570.47        64.06973
570.90        64.33637
571.34        63.04245
571.77        63.79055
572.21        63.78169
572.64        64.12619
573.08        63.70076
573.51        63.77513
573.95        64.57497
574.38        63.55016
574.82        63.99148
