SpectraSmart Spectrum 2.9.0.0
--------- Device Information -----------
Spectrum Name :  反射率_0
Saving Time :  2024/05/01 16:28:24
Spectro-Module Model Name : SE2030-DUVN
Spectro-Module Serial Number : OS361AC55029948
Wavelength Start : 200
Wavelength End : 1025
Wavelength Unit : Wavelength(nm)
Spectrum Unit : Reflectance(%)
-----------Spectrum Setting ------------
Integration Time : 20ms
Average : 10
Boxcar : 0
Background removal :  enabled
linearity correction :  enabled
SC :  disabled
Intensity correction :  disabled
DWT denoise :  enabled
savitzky-golay :  disabled
FFT :  disabled
Running average :  disabled
Kalman :  disabled
High pass :  disabled
---------------BEGIN--------------------
Wavelength(nm)             Reflectance(%)
200.29               0
200.75        -21.9048
201.21         182.241
201.67       -136.9789
202.13       -48.98211
202.58       -6.537251
203.04        24.20875
203.50        45.21991
203.96        55.55584
204.42        57.63903
204.88        49.08501
205.34       -211.9129
205.80        91.28835
206.26        57.67131
206.72        10.01361
207.18       -203.6644
207.64        377.6832
208.10         160.934
208.55        102.4567
209.01        73.36855
209.47        63.24862
209.93        65.04313
210.39        71.91865
210.85        82.52017
211.31        98.57985
211.77        142.5338
212.23       -199.0475
212.69         15.9027
213.14        49.14941
213.60        109.0968
214.06       -474.1555
214.52       -65.77959
214.98       -37.02745
215.44       -27.90612
215.90       -22.92613
216.36        15.89583
216.81       -65.62048
217.27       -134.4468
217.73         352.558
218.19        74.79515
218.65        36.96677
219.11        3.437875
219.57       -82.49887
220.02       -443.7646
220.48       -246.5972
220.94       -56.27435
221.40       -4.228528
221.86        15.69851
222.32         25.2653
222.77        31.91612
223.23         39.0481
223.69        46.02867
224.15        46.71871
224.61         40.5087
225.06        32.30633
225.52        26.79871
225.98        25.31562
226.44        27.01073
226.90        31.48479
227.36        37.34423
227.81        38.90656
228.27        34.64812
228.73        28.58048
229.19        23.62292
229.65        20.89713
230.10        19.87915
230.56        20.12999
231.02        21.39454
231.48         22.9551
231.93        24.21121
232.39        25.32962
232.85         26.6125
233.31        28.51977
233.77        30.93681
234.22        33.50906
234.68        35.90468
235.14         38.0402
235.60        40.11383
236.05        42.61635
236.51        45.80135
236.97        49.23926
237.43        51.94646
237.88        53.19928
238.34        53.29823
238.80        54.26349
239.26        57.02617
239.71          62.383
240.17        69.86013
240.63        74.05566
241.08         69.9906
241.54        60.51919
242.00        52.35798
242.46         50.5687
242.91        56.51013
243.37        71.30701
243.83          99.144
244.28         125.671
244.74        127.3403
245.20        115.9012
245.66        104.4917
246.11        97.42184
246.57        93.23229
247.03        88.50316
247.48         80.1439
247.94        64.89203
248.40        45.82561
248.85         29.4134
249.31        22.95425
249.77        27.28991
250.22        36.90825
250.68        47.35925
251.14        56.05622
251.59        62.43113
252.05        68.26468
252.51        77.06715
252.96        95.27553
253.42        126.8178
253.88        136.0884
254.33        114.0965
254.79        98.54669
255.25        93.39587
255.70        92.49001
256.16        93.60207
256.62        93.86409
257.07        91.40807
257.53        88.07561
257.99        84.64561
258.44        81.97279
258.90        81.41926
259.35        82.13039
259.81         83.7261
260.27        85.05509
260.72        84.74377
261.18        83.16238
261.63        80.65172
262.09        78.24509
262.55         76.4439
263.00        75.11691
263.46        74.16391
263.91        73.11683
264.37        71.88196
264.83        70.35627
265.28        68.68346
265.74        67.04531
266.19        65.30904
266.65        63.63538
267.11         61.9311
267.56        60.40701
268.02        59.52056
268.47        59.25093
268.93        59.42485
269.38        59.61525
269.84        59.08098
270.30        57.69418
270.75        55.69214
271.21        53.51257
271.66        51.67849
272.12        50.40561
272.57        49.45402
273.03        48.74478
273.48        48.08023
273.94        47.41701
274.39        46.78179
274.85        46.14061
275.31        45.33365
275.76         44.3377
276.22        43.25441
276.67         42.1441
277.13        41.24468
277.58        40.51213
278.04        39.93282
278.49        39.37474
278.95        38.78349
279.40        38.08553
279.86        37.36987
280.31        36.62989
280.77        35.97075
281.22        35.35085
281.68        34.81975
282.13         34.2796
282.59        33.70232
283.04        33.05891
283.50        32.43185
283.95        31.90207
284.41        31.65879
284.86        31.70244
285.32        31.97161
285.77        32.33679
286.22        32.67558
286.68        32.94257
287.13        33.13392
287.59        33.25196
288.04        33.25693
288.50        33.18306
288.95        33.00098
289.41        32.79662
289.86        32.60001
290.32        32.47666
290.77        32.43355
291.22        32.48214
291.68        32.61237
292.13        32.83354
292.59        33.19892
293.04        33.74393
293.50        34.57132
293.95        35.66732
294.40        36.99336
294.86        38.46553
295.31        39.96361
295.77        41.42298
296.22        42.82556
296.68         44.1849
297.13        45.51183
297.58        46.84801
298.04        48.23569
298.49        49.64144
298.95        51.05353
299.40        52.45298
299.85        53.84509
300.31        55.38338
300.76        57.27391
301.21        59.55094
301.67        62.15302
302.12        64.75531
302.58        66.87248
303.03        68.35381
303.48        69.37822
303.94        70.35674
304.39        71.78129
304.84        73.82646
305.30        76.32994
305.75        78.98066
306.20         81.3256
306.66        83.24171
307.11        84.80782
307.57        86.25734
308.02        87.81399
308.47        89.57298
308.93        91.43935
309.38        93.21915
309.83        94.72248
310.29        95.93155
310.74        96.92919
311.19        97.85419
311.65        98.88635
312.10        100.0521
312.55        101.2804
313.00         102.571
313.46        103.9321
313.91        105.3124
314.36        106.6984
314.82        107.9004
315.27        108.6281
315.72        108.8215
316.18        108.6129
316.63        108.2153
317.08         108.039
317.53        108.2002
317.99        108.6066
318.44        109.1435
318.89        109.5763
319.35        109.8368
319.80        110.0295
320.25        110.2179
320.70        110.5004
321.16        110.8915
321.61        111.3489
322.06        111.8577
322.51        112.4307
322.97        113.0145
323.42        113.6298
323.87        114.1569
324.32        114.4293
324.78        114.4062
325.23        114.1825
325.68        113.8558
326.13        113.6117
326.59        113.5065
327.04         113.571
327.49        113.7847
327.94        114.1296
328.39         114.577
328.85        115.0696
329.30        115.6689
329.75        116.2953
330.20        116.9114
330.66        117.4859
331.11        117.9667
331.56        118.1451
332.01        118.0137
332.46        117.6238
332.92        117.2232
333.37        117.3506
333.82        118.0954
334.27         119.363
334.72        120.8088
335.17        121.8016
335.63        122.1217
336.08        121.9863
336.53        121.7058
336.98        121.8654
337.43        122.6225
337.88        123.7953
338.34         125.046
338.79        125.9149
339.24        126.2146
339.69        126.1038
340.14        125.8659
340.59        125.9364
341.05        126.4257
341.50        127.2242
341.95        128.0811
342.40        128.6026
342.85        128.7045
343.30        128.5342
343.75        128.3719
344.20        128.6395
344.66        129.4133
345.11         130.529
345.56        131.7203
346.01        132.5436
346.46        132.8696
346.91         132.857
347.36        132.6717
347.81        132.5634
348.26        132.6282
348.72        132.7985
349.17        133.0452
349.62        133.4038
350.07        133.8236
350.52         134.253
350.97        134.6024
351.42        134.7068
351.87        134.5377
352.32        134.2021
352.77        133.6472
353.22        132.8066
353.67         131.739
354.13        130.4995
354.58         129.419
355.03        129.1244
355.48        129.6842
355.93        130.9413
356.38         132.243
356.83        132.4865
357.28        131.4438
357.73        129.4661
358.18        127.3395
358.63        126.2377
359.08        126.3818
359.53        127.3802
359.98         128.573
360.43        128.8614
360.88        127.9474
361.33        126.2271
361.78        124.2164
362.23        122.6374
362.68        121.6828
363.13        121.1157
363.58         120.688
364.03        120.0401
364.48        119.0615
364.93        117.8788
365.38        116.6778
365.83        115.6967
366.28        114.9845
366.73        114.4764
367.18        113.9318
367.63         112.993
368.08         111.634
368.53        110.0019
368.98        108.4851
369.43        107.6414
369.88        107.5423
370.33        107.9904
370.78        108.5596
371.23        108.5074
371.68         107.633
372.13        106.1972
372.58        104.5598
373.03        103.2551
373.48         102.426
373.93         101.881
374.38        101.5235
374.83         101.209
375.28        100.8572
375.72        100.5215
376.17        100.1257
376.62        99.46642
377.07        98.53534
377.52         97.3824
377.97         96.2166
378.42        95.38756
378.87        94.96474
379.32        94.83733
379.77        94.81034
380.22        94.57256
380.67        94.04514
381.11        93.33848
381.56        92.55773
382.01        91.89878
382.46        91.43495
382.91         91.1002
383.36        90.85971
383.81        90.66522
384.26        90.48158
384.71        90.31979
385.15        90.13583
385.60        89.90701
386.05        89.60987
386.50        89.25153
386.95        88.84645
387.40         88.4358
387.85        88.03407
388.29        87.57567
388.74        87.18302
389.19        86.82647
389.64        86.50613
390.09        86.21803
390.54         85.9086
390.98         85.5276
391.43         85.1371
391.88        84.58906
392.33        83.99535
392.78        83.85528
393.23        83.98978
393.67        83.58025
394.12        82.84761
394.57         82.4229
395.02        82.21467
395.47        82.25474
395.91         82.0006
396.36        80.95452
396.81        81.70686
397.26        81.82952
397.71        81.94546
398.15        81.78574
398.60        81.43607
399.05        80.74316
399.50        79.95892
399.95        79.83959
400.39        80.29363
400.84        80.32513
401.29        79.86959
401.74        79.63972
402.18        79.60505
402.63        79.15496
403.08        78.43501
403.53        78.00964
403.97        77.91666
404.42        77.95658
404.87        78.02031
405.32        77.95872
405.76        77.71136
406.21        77.45921
406.66        77.24462
407.11        76.86702
407.55        76.49228
408.00        76.68208
408.45        77.27828
408.90        77.38548
409.34        76.91132
409.79         76.3712
410.24        75.91983
410.68        75.58459
411.13         75.4286
411.58        75.42935
412.03        75.52171
412.47        75.60271
412.92        75.60013
413.37         75.5561
413.81        75.47032
414.26        75.40195
414.71        75.34049
415.15        75.28269
415.60        75.18789
416.05        75.06013
416.49        74.90894
416.94        74.73638
417.39        74.58246
417.83        74.49121
418.28        74.47523
418.73        74.52545
419.17        74.59634
419.62        74.61987
420.07        74.57008
420.51        74.44553
420.96        74.33622
421.41        74.26028
421.85        74.20068
422.30        74.32307
422.74        74.51381
423.19        74.38326
423.64        74.03331
424.08         74.2123
424.53        74.82313
424.98        75.02621
425.42        74.72665
425.87        74.66072
426.31        74.80781
426.76        74.14809
427.21        73.08019
427.65        73.46915
428.10        74.93191
428.54        75.40903
428.99        74.83849
429.44        73.88656
429.88        72.99304
430.33        73.49028
430.77        74.85488
431.22        74.83736
431.66        73.59589
432.11        73.04029
432.56        73.26834
433.00        73.88431
433.45        74.73788
433.89        74.15648
434.34        73.12609
434.78        75.06563
435.23         74.0932
435.67        74.37283
436.12        74.19373
436.57        74.60802
437.01        75.41892
437.46        75.89452
437.90        75.49158
438.35        75.21833
438.79        75.00301
439.24        74.58556
439.68        74.11018
440.13        74.17322
440.57        74.71939
441.02        75.02607
441.46        74.97674
441.91        75.20038
442.35        75.59986
442.80        75.20341
443.24        75.39201
443.69         75.2731
444.13        75.26614
444.58         75.2848
445.02        75.32088
445.47        75.42897
445.91        75.59978
446.36        75.82252
446.80        76.06541
447.24        76.37714
447.69        76.67127
448.13        76.69991
448.58         76.5069
449.02        76.31693
449.47        76.23004
449.91        76.18272
450.36        76.21711
450.80        76.37833
451.25        76.59024
451.69        76.63007
452.13         76.4669
452.58        76.18327
453.02        75.85298
453.47        75.56873
453.91        75.34454
454.36        75.29073
454.80        75.40936
455.24        75.02681
455.69        75.01734
456.13        74.89565
456.58        75.06569
457.02        74.42414
457.46        74.83673
457.91        74.96595
458.35        75.18522
458.79        75.00708
459.24        74.43142
459.68        73.82294
460.13        73.47491
460.57        72.40957
461.01        72.75865
461.46        72.86698
461.90        73.17383
462.34        73.21265
462.79        72.82739
463.23        72.90331
463.68        73.25859
464.12        73.28104
464.56        72.97269
465.01        72.54378
465.45        72.22681
465.89        72.34415
466.34        72.77478
466.78        72.60726
467.22        71.87734
467.67        71.68175
468.11         71.7831
468.55        71.88041
468.99        71.83736
469.44        71.83605
469.88        71.87386
470.32        71.89587
470.77        71.90958
471.21        71.94459
471.65        71.97817
472.10        72.00858
472.54        72.00513
472.98        71.90879
473.42        71.70728
473.87        71.57798
474.31        71.47154
474.75        71.04787
475.20        70.46286
475.64        70.49875
476.08        71.06658
476.52         71.1304
476.97        70.56246
477.41        70.99635
477.85        70.28167
478.29        70.46626
478.74           70.61
479.18        70.74183
479.62        69.98595
480.06        69.84143
480.50        70.09561
480.95         69.4771
481.39         70.4312
481.83        69.24538
482.27        69.94453
482.72        70.00658
483.16        70.00269
483.60        70.14339
484.04        70.25895
484.48        70.13026
484.93        70.04682
485.37        70.37824
485.81        70.32246
486.25        71.00198
486.69        70.53462
487.14        68.42719
487.58        67.99313
488.02        70.22819
488.46        69.22827
488.90        68.89423
489.34         69.7197
489.79        69.88645
490.23         69.3452
490.67        69.12141
491.11         69.1275
491.55         69.2608
491.99        69.42441
492.43         69.4527
492.88        69.32561
493.32        69.19556
493.76        69.10841
494.20        69.08007
494.64         69.1138
495.08        69.18064
495.52        69.30428
495.96        69.38584
496.41        69.37444
496.85         69.5947
497.29        69.96643
497.73        69.14125
498.17        68.90947
498.61         68.4928
499.05        68.51804
499.49        68.66663
499.93        68.84926
500.37        69.12005
500.82        69.44202
501.26        69.14402
501.70        69.42895
502.14        69.39536
502.58        69.38387
503.02        69.28084
503.46        69.10709
503.90        68.92271
504.34        68.78835
504.78        68.77223
505.22        68.85542
505.66        69.11489
506.10        69.47478
506.54        69.45374
506.98        68.94234
507.42        69.30321
507.86        68.59558
508.30        68.26365
508.74        68.43418
509.18         68.5453
509.62        68.73146
510.06        68.90081
510.50        69.03709
510.94        69.13159
511.38         69.1771
511.82        69.18321
512.26        69.15479
512.70        69.05664
513.14        68.88642
513.58        68.75594
514.02        68.70264
514.46        68.39475
514.90        68.25231
515.34         68.3196
515.78        68.02711
516.22        67.94329
516.66        67.89981
517.10         67.9677
517.54        68.13718
517.98        68.38879
518.42        68.65809
518.86        68.82205
519.30        68.85034
519.74        68.77576
520.18        68.64332
520.62        68.53046
521.06        68.46351
521.50        68.41728
521.93        68.39534
522.37        68.39209
522.81        68.40649
523.25        68.44956
523.69        68.48655
524.13        68.45643
524.57        68.35501
525.01        68.20084
525.45        68.05508
525.89        68.01691
526.32        68.10194
526.76        68.27309
527.20        68.46435
527.64        68.57214
528.08        68.56742
528.52         68.4879
528.96        68.36569
529.40        68.25064
529.83        68.15807
530.27        68.09079
530.71        68.05653
531.15        68.08492
531.59        68.17552
532.03        68.31617
532.46        68.46242
532.90        68.56234
533.34        68.59917
533.78         68.5338
534.22        68.39744
534.66        68.36008
535.09         68.3731
535.53        68.18052
535.97        67.83689
536.41        67.67299
536.85        67.71276
537.28        67.78575
537.72        67.85596
538.16        67.92603
538.60        67.97334
539.04        67.99483
539.47        67.98143
539.91        67.96143
540.35        67.92564
540.79        67.88049
541.22        67.83173
541.66        67.73184
542.10        67.76617
542.54        67.64826
542.97        67.68647
543.41        67.64697
543.85        67.60731
544.29        67.60088
544.72        67.62436
545.16        67.66555
545.60        67.70447
546.04        67.76823
546.47        67.83295
546.91        67.82109
547.35        67.75494
547.79        67.72285
548.22        67.67718
548.66        67.61616
549.10        67.54263
549.53        67.16792
549.97        67.16149
550.41        67.12056
550.84        67.23597
551.28        67.48086
551.72        67.76429
552.15        67.86832
552.59        67.79724
553.03        67.70443
553.46        67.60193
553.90        67.57467
554.34        67.64583
554.77        67.59956
555.21        67.41015
555.65          67.951
556.08        67.81392
556.52        67.75238
556.96        67.18765
557.39        66.96493
557.83        67.04745
558.27        67.10204
558.70        67.07977
559.14        67.22624
559.57        66.99139
560.01        67.24548
560.45        67.65036
560.88        67.62296
561.32        67.26443
561.75        66.88633
562.19        66.67444
562.63         66.9354
563.06        67.48335
563.50        67.38097
563.93        66.72228
564.37        66.54261
564.80         66.8399
565.24        67.05298
565.68        67.09898
566.11        67.12743
566.55        67.14959
566.98        67.06263
567.42        66.96161
567.85        67.00735
568.29        67.19089
568.72        67.29046
569.16        67.37296
569.60        67.37428
570.03        67.21697
570.47        67.45863
570.90        67.71391
571.34        66.86504
571.77        67.31152
572.21        67.16215
572.64        67.26086
573.08        66.93487
573.51        67.34989
573.95        67.68406
574.38        66.93726
574.82        66.67476
