SpectraSmart Spectrum 2.9.0.0
--------- Device Information -----------
Spectrum Name :  反射率_0
Saving Time :  2024/05/01 16:35:00
Spectro-Module Model Name : SE2030-DUVN
Spectro-Module Serial Number : OS361AC55029948
Wavelength Start : 200
Wavelength End : 1025
Wavelength Unit : Wavelength(nm)
Spectrum Unit : Reflectance(%)
-----------Spectrum Setting ------------
Integration Time : 20ms
Average : 10
Boxcar : 0
Background removal :  enabled
linearity correction :  enabled
SC :  disabled
Intensity correction :  disabled
DWT denoise :  enabled
savitzky-golay :  disabled
FFT :  disabled
Running average :  disabled
Kalman :  disabled
High pass :  disabled
---------------BEGIN--------------------
Wavelength(nm)             Reflectance(%)
200.29               0
200.75       -62.68009
201.21        210.7917
201.67        -206.969
202.13       -81.78424
202.58       -17.74694
203.04        29.40803
203.50        61.63506
203.96        76.89771
204.42        78.26607
204.88        59.46972
205.34       -495.6312
205.80        162.7293
206.26        109.5565
206.72        52.29636
207.18       -175.4023
207.64        415.8293
208.10        184.1634
208.55        117.4361
209.01        82.73244
209.47        69.78242
209.93        70.87693
210.39        77.74397
210.85        88.49013
211.31        104.2742
211.77        146.4101
212.23       -183.0202
212.69        23.06701
213.14        52.47429
213.60        100.9681
214.06       -363.1787
214.52       -36.69577
214.98       -11.28346
215.44        1.547252
215.90        23.89632
216.36          328.58
216.81       -148.1165
217.27       -202.3148
217.73        419.6041
218.19        78.33876
218.65        41.60158
219.11        22.07956
219.57       -13.37053
220.02       -151.3101
220.48       -79.30408
220.94       -7.608905
221.40        12.47918
221.86        20.59404
222.32        25.10868
222.77        29.08809
223.23        34.07263
223.69        39.52111
224.15         40.6969
224.61        36.77898
225.06        31.34874
225.52        27.89273
225.98         27.5125
226.44         29.7271
226.90        34.23325
227.36        40.05955
227.81        42.47815
228.27        39.74496
228.73        35.10958
229.19        30.92269
229.65        28.01978
230.10        25.95043
230.56        24.26654
231.02        23.04763
231.48        22.97345
231.93        24.15819
232.39        26.14308
232.85        28.39922
233.31        30.57392
233.77        32.56318
234.22        34.40447
234.68        35.95161
235.14        37.25799
235.60        38.47762
236.05        39.79118
236.51        41.41607
236.97        43.44728
237.43        45.49777
237.88         47.1598
238.34        47.95978
238.80        48.30099
239.26        48.40617
239.71        48.35546
240.17        47.69007
240.63        45.77045
241.08        43.12602
241.54        41.21967
242.00        41.33637
242.46        44.44958
242.91        51.99712
243.37        66.04815
243.83        90.19527
244.28        112.2935
244.74        112.6091
245.20        101.1497
245.66        90.29089
246.11        84.11716
246.57        81.21925
247.03         79.3295
247.48        74.62522
247.94        58.94725
248.40        32.00111
248.85        2.612198
249.31       -13.03386
249.77       -5.897866
250.22        13.87286
250.68        35.77129
251.14        53.10167
251.59        63.08379
252.05        67.65361
252.51        68.48753
252.96        64.96555
253.42        63.71157
253.88        74.86828
254.33        83.04454
254.79        84.03552
255.25        81.01464
255.70        76.45629
256.16        72.60959
256.62        70.17757
257.07        69.70431
257.53        70.88629
257.99        72.40882
258.44        73.21234
258.90        73.00133
259.35        71.51339
259.81        69.44518
260.27        67.19194
260.72         65.4267
261.18         64.5204
261.63        63.85886
262.09        63.23027
262.55        61.96201
263.00        59.99469
263.46        57.80491
263.91        55.61215
264.37         54.0176
264.83        52.98228
265.28        52.28345
265.74        51.70519
266.19        50.69677
266.65        49.30932
267.11        47.64331
267.56        46.05303
268.02        45.18133
268.47        45.07175
268.93         45.4528
269.38        45.87449
269.84        45.57094
270.30        44.39336
270.75        42.61235
271.21        40.61195
271.66        38.83479
272.12        37.50079
272.57        36.42515
273.03        35.63188
273.48        35.09961
273.94         34.7981
274.39        34.69685
274.85        34.65544
275.31        34.39517
275.76        33.85744
276.22         33.1553
276.67        32.38023
277.13        31.78241
277.58        31.34526
278.04        31.03572
278.49        30.73247
278.95        30.37539
279.40        29.89877
279.86        29.38355
280.31          28.837
280.77        28.35519
281.22        27.90755
281.68        27.52768
282.13        27.12666
282.59        26.66537
283.04        26.12288
283.50        25.57745
283.95        25.10712
284.41        24.88372
284.86        24.91247
285.32        25.13011
285.77        25.43886
286.22        25.74209
286.68        26.00457
287.13        26.23117
287.59        26.39377
288.04         26.4049
288.50        26.29247
288.95        26.04758
289.41        25.81288
289.86        25.71994
290.32        25.82307
290.77        26.08159
291.22        26.40749
291.68        26.64744
292.13        26.78104
292.59        26.90711
293.04        27.12738
293.50        27.64373
293.95        28.48615
294.40        29.60184
294.86          30.902
295.31        32.25528
295.77        33.59673
296.22         34.9287
296.68        36.27045
297.13        37.64323
297.58        39.07404
298.04        40.57649
298.49        42.09665
298.95        43.59083
299.40        45.02872
299.85        46.42599
300.31        47.91133
300.76        49.66512
301.21        51.72896
301.67        54.05799
302.12        56.41197
302.58        58.42999
303.03        59.98604
303.48        61.21297
303.94        62.41211
304.39        63.93505
304.84        65.91584
305.30        68.22261
305.75        70.62776
306.20        72.80521
306.66        74.65784
307.11        76.23588
307.57        77.67268
308.02        79.05563
308.47        80.46528
308.93        81.86697
309.38        83.20501
309.83        84.49166
310.29        85.74049
310.74        86.95593
311.19        88.14228
311.65        89.27397
312.10        90.32513
312.55        91.29137
313.00        92.24309
313.46        93.29803
313.91        94.45271
314.36        95.66888
314.82         96.7612
315.27        97.44754
315.72        97.66418
316.18        97.53841
316.63        97.27535
317.08        97.25693
317.53        97.58284
317.99        98.15821
318.44        98.83261
318.89        99.32326
319.35        99.55497
319.80        99.64272
320.25        99.70286
320.70        99.92214
321.16        100.3349
321.61        100.8686
322.06         101.465
322.51          102.06
322.97        102.5812
323.42        103.0808
323.87        103.4598
324.32        103.5795
324.78        103.4264
325.23        103.0938
325.68        102.7152
326.13        102.5322
326.59        102.6027
327.04        102.9182
327.49        103.4154
327.94        103.9982
328.39        104.6013
328.85        105.1896
329.30        105.7784
329.75        106.2369
330.20        106.5387
330.66        106.6787
331.11        106.7339
331.56        106.7225
332.01        106.6944
332.46        106.6537
332.92        106.7047
333.37        107.1208
333.82        107.9115
334.27        109.0359
334.72        110.2616
335.17        111.1637
335.63        111.5845
336.08        111.6685
336.53        111.6156
336.98        111.8351
337.43        112.4464
337.88        113.3382
338.34        114.2915
338.79        115.0275
339.24        115.4132
339.69         115.541
340.14        115.6021
340.59        115.8895
341.05         116.464
341.50        117.2546
341.95        118.0419
342.40        118.4813
342.85        118.5147
343.30        118.2805
343.75        118.0598
344.20        118.2798
344.66        119.0239
345.11         120.136
345.56        121.3759
346.01        122.3318
346.46        122.8716
346.91        123.1349
347.36        123.2279
347.81        123.3186
348.26        123.4793
348.72        123.6483
349.17        123.8561
349.62        124.2326
350.07        124.7529
350.52        125.3562
350.97        125.8608
351.42        125.9545
351.87        125.5891
352.32        124.9163
352.77         124.058
353.22        123.2088
353.67        122.4642
354.13         121.795
354.58        121.2991
355.03        121.2395
355.48        121.6164
355.93        122.3796
356.38        123.1349
356.83        123.2151
357.28        122.4874
357.73        121.1465
358.18        119.7114
358.63        118.9642
359.08        119.0463
359.53        119.7098
359.98        120.4763
360.43        120.5499
360.88        119.7276
361.33        118.2893
361.78        116.6658
362.23         115.465
362.68        114.8305
363.13        114.5695
363.58        114.3966
364.03        113.8778
364.48        112.9013
364.93        111.6127
365.38        110.2838
365.83        109.2997
366.28        108.7415
366.73        108.4985
367.18         108.269
367.63        107.5857
368.08        106.3794
368.53         104.829
368.98          103.33
369.43        102.4496
369.88        102.2794
370.33        102.6291
370.78        103.1066
371.23        103.0354
371.68        102.2312
372.13        100.9269
372.58        99.47818
373.03        98.40905
373.48        97.84496
373.93        97.59959
374.38         97.4894
374.83        97.22832
375.28        96.72129
375.72        96.06896
376.17        95.35062
376.62        94.60872
377.07        93.87589
377.52        93.11787
377.97        92.38964
378.42        91.79424
378.87        91.34496
379.32        91.02312
379.77         90.7338
380.22        90.31646
380.67        89.74079
381.11        89.06325
381.56        88.37558
382.01        87.85507
382.46        87.55142
382.91        87.40539
383.36        87.33778
383.81        87.22518
384.26        87.02434
384.71        86.77018
385.15        86.46712
385.60        86.17498
386.05        85.89184
386.50        85.59327
386.95        85.28324
387.40        84.98033
387.85        84.68436
388.29        84.34655
388.74        84.03996
389.19        83.66368
389.64        83.21109
390.09         82.7034
390.54        82.18156
390.98        81.69617
391.43        81.31805
391.88        81.01009
392.33        80.76283
392.78         80.5211
393.23        80.26482
393.67        80.05572
394.12        79.93465
394.57        79.51128
395.02        79.21364
395.47        78.81103
395.91        78.50777
396.36        78.33392
396.81        78.31423
397.26        78.47799
397.71        78.65297
398.15        78.55006
398.60        78.22059
399.05        77.62807
399.50        77.00763
399.95        76.85944
400.39        77.16362
400.84        77.36114
401.29        77.30445
401.74        77.13046
402.18        76.80248
402.63        76.15138
403.08        75.38782
403.53        74.91235
403.97        74.78021
404.42        74.87827
404.87        75.06531
405.32        75.09943
405.76        74.90511
406.21        74.67731
406.66        74.45119
407.11        74.07542
407.55        73.70978
408.00        73.75587
408.45        74.12841
408.90        74.31765
409.34        74.17532
409.79        73.74238
410.24        73.18075
410.68        72.87621
411.13        72.89178
411.58         72.9903
412.03        73.11022
412.47        73.25765
412.92        73.36512
413.37        73.44552
413.81        73.46725
414.26        73.44537
414.71        73.36566
415.15        73.23684
415.60        73.07784
416.05         72.9877
416.49         72.9911
416.94        73.05879
417.39        73.13544
417.83         73.1151
418.28        72.97952
418.73        72.76759
419.17        72.53519
419.62        72.37476
420.07         72.3051
420.51        72.28211
420.96        72.31723
421.41        72.30846
421.85        72.21259
422.30        72.23302
422.74        72.31998
423.19        72.18428
423.64        71.94669
424.08        72.29034
424.53        73.04948
424.98        73.37425
425.42        73.16079
425.87         72.9468
426.31        72.85558
426.76         72.5542
427.21        72.26035
427.65        72.75877
428.10        73.70603
428.54        73.99818
428.99        73.60259
429.44        72.70211
429.88        71.71404
430.33        72.03597
430.77        73.23958
431.22        73.29891
431.66        72.29886
432.11        72.01644
432.56        72.52339
433.00        72.90889
433.45        73.00353
433.89        73.08161
434.34        72.46291
434.78        73.59257
435.23        73.57401
435.67        73.66742
436.12         73.2403
436.57        73.45329
437.01        74.20668
437.46        74.52308
437.90        74.40543
438.35        73.88331
438.79         74.1426
439.24        73.77187
439.68        73.23504
440.13        73.12172
440.57        73.49712
441.02        73.80812
441.46        73.94432
441.91         74.5723
442.35        75.35662
442.80        74.91032
443.24        74.38222
443.69        73.99062
444.13        74.13284
444.58        74.15257
445.02        74.04063
445.47        74.30039
445.91        74.86964
446.36        75.22556
446.80        75.25166
447.24        75.98502
447.69        75.78476
448.13        75.91936
448.58        75.92825
449.02        75.82409
449.47        75.66634
449.91         75.5459
450.36        75.52185
450.80        75.54044
451.25        75.57919
451.69        75.54867
452.13        75.43549
452.58         75.2665
453.02        75.06999
453.47        74.92629
453.91        74.83951
454.36        74.82329
454.80        74.81134
455.24        74.66322
455.69        74.37693
456.13        74.06592
456.58        73.91301
457.02        73.64567
457.46        73.90492
457.91        74.42675
458.35        75.10413
458.79        75.19245
459.24        74.63069
459.68        73.90731
460.13        73.41077
460.57        72.21976
461.01        72.49001
461.46        72.64058
461.90        73.06013
462.34        72.92668
462.79        72.31158
463.23        72.41313
463.68        73.06599
464.12        73.20911
464.56        72.81203
465.01        72.41296
465.45        72.09931
465.89        72.24876
466.34        72.64848
466.78         72.6099
467.22        71.67852
467.67        71.42265
468.11        71.52958
468.55         71.8397
468.99        72.11745
469.44        72.22034
469.88        72.11421
470.32        71.90598
470.77         71.6908
471.21        71.57748
471.65        71.58835
472.10        71.70322
472.54        71.83549
472.98        71.85583
473.42        71.72755
473.87        71.59078
474.31        71.44284
474.75        71.13732
475.20        70.79298
475.64        70.88199
476.08         71.3035
476.52        71.34119
476.97        70.90989
477.41        71.06386
477.85        70.31256
478.29        70.57704
478.74        71.17773
479.18        71.13805
479.62        70.41967
480.06        70.23309
480.50        70.58641
480.95        69.97125
481.39        70.83975
481.83        69.76683
482.27        69.97277
482.72         70.4932
483.16        70.07664
483.60        70.29584
484.04        70.48166
484.48        70.52772
484.93        70.68124
485.37        70.99046
485.81        70.67413
486.25         71.5743
486.69        71.54436
487.14        69.11879
487.58        68.41664
488.02        70.16601
488.46        70.10876
488.90        69.50738
489.34        70.29845
489.79        70.01727
490.23        70.09869
490.67         69.9225
491.11        69.76035
491.55        69.87989
491.99        70.16756
492.43        70.22252
492.88        69.99854
493.32        69.75031
493.76        69.56525
494.20        69.48219
494.64        69.51417
495.08        69.66547
495.52        69.88167
495.96        69.88503
496.41        69.67498
496.85        69.73872
497.29        70.01638
497.73        69.47779
498.17        69.28889
498.61        68.89294
499.05        68.45769
499.49        68.78165
499.93        69.53658
500.37        69.73305
500.82        69.41541
501.26        69.06491
501.70        69.66644
502.14         69.8041
502.58        69.71401
503.02        69.61216
503.46        69.51136
503.90        69.33247
504.34        69.14497
504.78        69.08419
505.22        69.15462
505.66        69.38309
506.10        69.68166
506.54        69.70995
506.98        69.39233
507.42        69.49821
507.86        68.96712
508.30        68.80926
508.74        68.87659
509.18        69.01469
509.62        69.20325
510.06        69.35353
510.50        69.44073
510.94        69.48045
511.38        69.47475
511.82         69.4286
512.26        69.34815
512.70         69.2232
513.14         69.0854
513.58        68.99084
514.02         68.9513
514.46        68.96046
514.90        68.97564
515.34        68.92167
515.78         68.7888
516.22         68.6081
516.66        68.43834
517.10        68.36873
517.54        68.41801
517.98         68.5531
518.42        68.72697
518.86        68.86227
519.30        68.93166
519.74        68.95535
520.18        68.94717
520.62        68.93153
521.06        68.91772
521.50        68.89156
521.93        68.86165
522.37        68.83574
522.81        68.81958
523.25        68.81642
523.69        68.80706
524.13        68.75583
524.57        68.66324
525.01          68.548
525.45        68.44411
525.89        68.40439
526.32        68.43887
526.76        68.52571
527.20        68.64146
527.64        68.75154
528.08        68.83817
528.52        68.91097
528.96        68.95248
529.40        68.93765
529.83        68.86126
530.27        68.74725
530.71        68.63271
531.15        68.59499
531.59         68.6487
532.03        68.76761
532.46        68.89429
532.90        68.95702
533.34        68.93659
533.78         68.8085
534.22        68.61616
534.66         68.5433
535.09         68.5451
535.53        68.35954
535.97        68.03737
536.41        67.90453
536.85        67.98003
537.28        68.09239
537.72        68.20129
538.16        68.29707
538.60        68.35353
539.04        68.38795
539.47        68.39322
539.91        68.35471
540.35         68.2846
540.79        68.30252
541.22        68.39038
541.66        68.33612
542.10        68.30785
542.54         68.2353
542.97        68.18023
543.41        68.16322
543.85        68.17921
544.29        68.22258
544.72        68.26656
545.16         68.3076
545.60        68.32469
546.04        68.31509
546.47        68.28218
546.91        68.24622
547.35        68.21868
547.79        68.17717
548.22        68.08296
548.66        68.02155
549.10        68.00257
549.53        67.71188
549.97        67.76531
550.41        67.80106
550.84        68.00403
551.28        68.22823
551.72        68.43937
552.15        68.77962
552.59         69.1227
553.03         68.9943
553.46        68.47989
553.90        68.26076
554.34        68.38871
554.77        68.37736
555.21        68.14658
555.65        68.51301
556.08        68.14812
556.52        68.01208
556.96        67.78024
557.39        67.67171
557.83        67.72304
558.27        67.82282
558.70        67.90225
559.14        68.09502
559.57        67.84992
560.01        67.99577
560.45        68.25212
560.88        68.36645
561.32        68.32737
561.75        67.85746
562.19        67.23724
562.63        67.41042
563.06        68.20029
563.50        68.24581
563.93        67.59093
564.37        67.42934
564.80         67.7469
565.24        67.91218
565.68        67.87594
566.11        67.86257
566.55        67.89585
566.98        67.86531
567.42        67.83309
567.85        67.89063
568.29        68.04984
568.72        68.11377
569.16        68.15393
569.60        68.21421
570.03        68.21731
570.47        68.14233
570.90        68.60245
571.34        67.59772
571.77        68.19189
572.21         68.1399
572.64        68.35293
573.08        68.05166
573.51        68.52471
573.95        68.84552
574.38        68.24477
574.82        68.38017
