SpectraSmart Spectrum 2.9.0.0
--------- Device Information -----------
Spectrum Name :  反射率_0
Saving Time :  2024/05/01 16:18:55
Spectro-Module Model Name : SE2030-DUVN
Spectro-Module Serial Number : OS361AC55029948
Wavelength Start : 200
Wavelength End : 1025
Wavelength Unit : Wavelength(nm)
Spectrum Unit : Reflectance(%)
-----------Spectrum Setting ------------
Integration Time : 20ms
Average : 10
Boxcar : 0
Background removal :  enabled
linearity correction :  enabled
SC :  disabled
Intensity correction :  disabled
DWT denoise :  enabled
savitzky-golay :  disabled
FFT :  disabled
Running average :  disabled
Kalman :  disabled
High pass :  disabled
---------------BEGIN--------------------
Wavelength(nm)             Reflectance(%)
200.29               0
200.75        111.2274
201.21        524.5764
201.67       -223.1788
202.13       -76.17907
202.58       -25.89227
203.04        4.676833
203.50        24.03627
203.96         33.6768
204.42        36.58038
204.88        31.96127
205.34       -145.5587
205.80        64.99058
206.26        46.40625
206.72        24.92614
207.18       -70.04526
207.64         199.427
208.10        104.9519
208.55        82.85282
209.01        72.61357
209.47        68.84205
209.93        68.66599
210.39        69.24524
210.85        71.95789
211.31        81.53268
211.77        119.8976
212.23       -203.6669
212.69       -3.363366
213.14        24.64714
213.60        70.36958
214.06       -359.5674
214.52       -56.72281
214.98       -33.40678
215.44       -22.32891
215.90       -5.413105
216.36        217.8174
216.81       -134.9799
217.27       -187.5755
217.73          360.21
218.19        56.55561
218.65         19.7556
219.11       -6.860093
219.57       -69.19082
220.02       -308.0945
220.48       -144.0487
220.94       -19.21443
221.40        13.35852
221.86        25.30236
222.32        30.44894
222.77        33.40073
223.23        35.81931
223.69        37.38321
224.15        36.20691
224.61        32.94871
225.06        29.34242
225.52        27.23786
225.98        26.97181
226.44        28.14119
226.90        30.58158
227.36         33.6094
227.81        34.33273
228.27        31.97248
228.73        28.68918
229.19        25.74393
229.65        23.35003
230.10        21.18128
230.56        19.10004
231.02        17.50421
231.48        17.78858
231.93        20.14102
232.39        23.43105
232.85        26.87167
233.31         30.0059
233.77        32.71382
234.22        35.12986
234.68        36.94577
235.14         37.9451
235.60        38.20729
236.05        37.74314
236.51         36.8966
236.97        37.07113
237.43        39.18497
237.88        43.00013
238.34        46.87222
238.80        49.37286
239.26        50.36031
239.71        50.13462
240.17        48.54417
240.63        46.87392
241.08           46.96
241.54        48.76924
242.00        52.04516
242.46         57.3965
242.91        66.59805
243.37        81.93859
243.83        106.3037
244.28        125.0634
244.74        120.1301
245.20        105.1421
245.66        91.84995
246.11        82.57989
246.57        74.95667
247.03        65.48494
247.48         50.8388
247.94        31.39651
248.40        14.44012
248.85        4.085951
249.31        5.339425
249.77        16.44443
250.22        30.53149
250.68        43.74368
251.14        53.15823
251.59        57.51447
252.05        57.61267
252.51        52.64621
252.96        38.35044
253.42         22.4549
253.88        35.87502
254.33        60.01384
254.79        71.67104
255.25        74.24342
255.70        72.92915
256.16         71.1192
256.62        69.56638
257.07        68.76641
257.53        68.99086
257.99        69.39508
258.44        69.45768
258.90        69.30498
259.35        68.57131
259.81        67.67685
260.27        66.60773
260.72        65.46812
261.18        64.58796
261.63        63.61224
262.09        62.66407
262.55        61.42656
263.00        59.82907
263.46        58.17815
263.91        56.47248
264.37        55.05097
264.83        53.87809
265.28         52.8677
265.74        51.99168
266.19        50.94226
266.65        49.79679
267.11        48.54982
267.56        47.41753
268.02        46.83496
268.47        46.79547
268.93        47.10997
269.38         47.3955
269.84        46.99357
270.30        45.79438
270.75        44.01815
271.21        42.06564
271.66        40.41001
272.12        39.25626
272.57        38.40768
273.03        37.79062
273.48        37.23023
273.94        36.68048
274.39        36.16358
274.85          35.672
275.31         35.1095
275.76        34.45586
276.22        33.78129
276.67        33.06531
277.13        32.40293
277.58         31.7559
278.04        31.13967
278.49        30.56431
278.95        30.16565
279.40        29.89211
279.86        29.73641
280.31        29.52923
280.77        29.12738
281.22        28.48007
281.68        27.72667
282.13        26.93795
282.59          26.298
283.04        25.82108
283.50        25.49483
283.95        25.29941
284.41        25.25448
284.86        25.32529
285.32        25.51577
285.77        25.75489
286.22         25.9803
286.68        26.17568
287.13        26.32118
287.59        26.43837
288.04        26.52535
288.50        26.60684
288.95        26.63872
289.41        26.65289
289.86        26.62022
290.32        26.57841
290.77        26.54386
291.22        26.53834
291.68        26.57748
292.13        26.67972
292.59        26.88872
293.04        27.22727
293.50         27.7745
293.95        28.52455
294.40        29.46264
294.86        30.54893
295.31        31.72632
295.77         32.9528
296.22         34.2099
296.68        35.47632
297.13        36.71529
297.58        37.94411
298.04        39.19728
298.49         40.4795
298.95        41.83526
299.40        43.24875
299.85         44.7029
300.31        46.24607
300.76        47.94286
301.21        49.80984
301.67        51.83487
302.12        53.85933
302.58         55.6522
303.03        57.12144
303.48        58.36275
303.94        59.59253
304.39        61.04374
304.84        62.83077
305.30        64.86532
305.75        67.01132
306.20        69.08106
306.66        71.00093
307.11        72.76994
307.57         74.4258
308.02        75.92071
308.47        77.30733
308.93        78.60169
309.38        79.81839
309.83        81.07523
310.29        82.41093
310.74        83.78739
311.19        85.17178
311.65        86.48524
312.10        87.68025
312.55        88.76871
313.00        89.81369
313.46        90.92018
313.91        92.08756
314.36        93.27823
314.82        94.33329
315.27        95.01697
315.72        95.27749
316.18        95.23204
316.63        95.06214
317.08        95.10891
317.53        95.46394
317.99        96.04518
318.44        96.71915
318.89        97.23929
319.35        97.53677
319.80        97.69547
320.25        97.81223
320.70        98.11481
321.16        98.51923
321.61         99.0563
322.06        99.63478
322.51        100.1912
322.97        100.6621
323.42        101.1045
323.87        101.4506
324.32        101.6094
324.78        101.5714
325.23        101.4043
325.68         101.202
326.13        101.1438
326.59        101.2638
327.04        101.5675
327.49        101.9909
327.94        102.4398
328.39        102.8654
328.85        103.2457
329.30        103.6351
329.75        103.9712
330.20        104.2493
330.66        104.4475
331.11        104.6294
331.56        104.7843
332.01        104.9372
332.46        105.0941
332.92         105.307
333.37        105.7654
333.82        106.4676
334.27        107.3929
334.72        108.3906
335.17        109.1877
335.63        109.6696
336.08        109.9326
336.53        110.1094
336.98        110.4971
337.43         111.169
337.88        112.0378
338.34        112.8842
338.79        113.4312
339.24        113.5642
339.69         113.386
340.14        113.1217
340.59        113.1179
341.05        113.4613
341.50        114.0828
341.95        114.7811
342.40        115.2268
342.85        115.3556
343.30        115.2951
343.75         115.274
344.20        115.6414
344.66        116.4559
345.11        117.5634
345.56        118.7625
346.01        119.7156
346.46        120.3031
346.91        120.6391
347.36        120.7755
347.81        120.7959
348.26        120.7679
348.72        120.6765
349.17        120.6194
349.62        120.8284
350.07        121.3078
350.52        121.9605
350.97        122.5812
351.42        122.8146
351.87        122.5848
352.32        122.0514
352.77        121.2927
353.22        120.4402
353.67         119.583
354.13        118.7008
354.58        117.9669
355.03        117.7622
355.48        118.1096
355.93        118.9329
356.38        119.7565
356.83        119.7722
357.28         118.829
357.73        117.1871
358.18        115.4648
358.63        114.5857
359.08        114.7177
359.53        115.5525
359.98         116.558
360.43        116.8455
360.88        116.1667
361.33        114.8297
361.78        113.2388
362.23        111.9637
362.68         111.159
363.13        110.6424
363.58        110.2184
364.03        109.6068
364.48        108.7249
364.93        107.6693
365.38        106.6084
365.83        105.7618
366.28        105.1672
366.73         104.763
367.18        104.3086
367.63        103.4393
368.08        102.1265
368.53        100.5227
368.98        99.00318
369.43        98.10551
369.88        97.90969
370.33        98.23482
370.78        98.70808
371.23         98.6774
371.68        97.96058
372.13        96.78186
372.58        95.44408
373.03        94.39756
373.48        93.75732
373.93        93.35152
374.38          93.083
374.83        92.81003
375.28        92.46262
375.72        92.09575
376.17        91.66329
376.62        91.01801
377.07        90.16091
377.52        89.12698
377.97        88.09702
378.42        87.36942
378.87        87.00237
379.32        86.90849
379.77         86.8994
380.22        86.67442
380.67        86.16323
381.11        85.46622
381.56        84.71925
382.01        84.16844
382.46        83.88512
382.91        83.78091
383.36         83.7515
383.81        83.64315
384.26        83.40144
384.71         83.0707
385.15        82.67765
385.60        82.30901
386.05        81.97453
386.50        81.65501
386.95         81.3211
387.40        80.93998
387.85        80.51394
388.29        80.01564
388.74        79.58998
389.19        79.25116
389.64        78.99458
390.09        78.78662
390.54        78.56433
390.98        78.21523
391.43        77.78165
391.88        77.29453
392.33        76.80926
392.78        76.42915
393.23        76.17692
393.67          75.905
394.12        75.66563
394.57        75.61714
395.02        75.63538
395.47        75.20956
395.91         74.5009
396.36        74.21265
396.81        74.39646
397.26        74.70402
397.71        74.92469
398.15        74.84885
398.60        74.51263
399.05        73.91605
399.50        73.29196
399.95        73.03893
400.39         73.1896
400.84        73.40878
401.29        73.53536
401.74        73.50288
402.18        73.23112
402.63         72.5872
403.08         71.8011
403.53        71.33352
403.97        71.24534
404.42        71.36913
404.87        71.55421
405.32        71.57448
405.76         71.3567
406.21        71.09195
406.66         70.8228
407.11        70.42219
407.55        70.04811
408.00        70.06792
408.45        70.41402
408.90        70.64053
409.34        70.59496
409.79        70.27053
410.24        69.79272
410.68        69.50967
411.13        69.47638
411.58        69.47268
412.03        69.45676
412.47        69.47728
412.92        69.49054
413.37        69.49487
413.81        69.48588
414.26        69.51301
414.71        69.56071
415.15        69.63371
415.60        69.67787
416.05         69.6619
416.49        69.58414
416.94        69.45112
417.39        69.31691
417.83        69.25445
418.28        69.28294
418.73         69.3828
419.17        69.49868
419.62        69.54576
420.07        69.49772
420.51        69.36695
420.96        69.24623
421.41        69.17054
421.85        69.13749
422.30        69.27075
422.74        69.46544
423.19        69.45181
423.64         69.2751
424.08        69.39958
424.53        69.79239
424.98        70.00135
425.42        69.96837
425.87        70.17432
426.31        70.52263
426.76        70.08155
427.21        69.17234
427.65        69.40732
428.10        70.51391
428.54        70.87051
428.99        70.46295
429.44        69.70205
429.88        68.95955
430.33         69.6091
430.77        71.12887
431.22        70.95673
431.66        69.88526
432.11        69.20086
432.56        69.29305
433.00        69.75952
433.45        70.47688
433.89        70.27083
434.34        70.00902
434.78        71.08279
435.23        70.76097
435.67        70.76847
436.12        70.42709
436.57        70.88548
437.01        71.94881
437.46        72.39968
437.90        72.18272
438.35        71.71321
438.79        71.74721
439.24        71.34732
439.68        70.85476
440.13        70.83231
440.57        71.27455
441.02        71.61971
441.46        71.76247
441.91        72.21847
442.35        72.71156
442.80        72.61953
443.24        72.04372
443.69        71.85496
444.13        72.07956
444.58         72.1701
445.02        72.09095
445.47        72.19483
445.91        72.50719
446.36         72.8027
446.80        73.01381
447.24        73.72283
447.69        73.90562
448.13        74.03192
448.58         73.8735
449.02        73.70531
449.47        73.61575
449.91        73.52106
450.36        73.48112
450.80         73.5665
451.25        73.73356
451.69        73.78464
452.13        73.70386
452.58         73.5868
453.02        73.45544
453.47        73.34278
453.91        73.24825
454.36        73.20448
454.80        73.18092
455.24        73.00994
455.69        72.67731
456.13        72.44322
456.58        72.47981
457.02         71.7788
457.46        72.10848
457.91        72.39212
458.35        72.89555
458.79        72.87835
459.24        72.29978
459.68        71.62072
460.13         71.1972
460.57        70.12898
461.01        70.49718
461.46        70.77726
461.90        71.27278
462.34        71.22832
462.79        70.28597
463.23        70.31085
463.68        71.04152
464.12        71.23256
464.56        70.84727
465.01        70.62811
465.45        70.57616
465.89        70.69809
466.34        70.85059
466.78        70.80325
467.22        70.00962
467.67        69.80999
468.11        69.81822
468.55        69.94093
468.99        70.01661
469.44        70.06322
469.88        70.06538
470.32         70.0312
470.77        69.97618
471.21        69.91958
471.65        69.85576
472.10        69.79469
472.54         69.7131
472.98        69.59257
473.42        69.43363
473.87        69.31351
474.31        69.21107
474.75        69.03298
475.20        68.82916
475.64        68.86518
476.08        69.11467
476.52        69.06065
476.97        68.88891
477.41        69.12244
477.85        68.68589
478.29        68.90399
478.74        68.70588
479.18        68.87148
479.62        68.55386
480.06        68.53951
480.50        68.68088
480.95        67.91679
481.39        68.44267
481.83        67.77422
482.27         68.2254
482.72        68.21204
483.16        68.20448
483.60        68.35519
484.04        68.60523
484.48        68.53515
484.93        68.44569
485.37        69.13898
485.81        68.98729
486.25        70.01791
486.69        69.62074
487.14          67.425
487.58        66.75536
488.02        68.47414
488.46        67.96114
488.90        67.29118
489.34         68.3175
489.79        68.01962
490.23        67.81396
490.67        67.62351
491.11        67.67448
491.55        67.83289
491.99        67.99786
492.43        68.05209
492.88        67.96315
493.32        67.84328
493.76        67.74543
494.20        67.73734
494.64        67.83607
495.08        67.95507
495.52         68.0472
495.96        68.15536
496.41         68.2016
496.85        67.96429
497.29        67.50111
497.73        67.17654
498.17        67.04411
498.61        66.84424
499.05        66.66477
499.49        66.84458
499.93        67.25628
500.37        67.54697
500.82        67.71511
501.26        67.57174
501.70        67.53584
502.14        68.08083
502.58        67.49108
503.02        67.41502
503.46        67.32772
503.90        67.22937
504.34        67.13889
504.78        67.14546
505.22        67.26564
505.66        67.44843
506.10        67.63147
506.54        67.72237
506.98        67.64407
507.42        67.49884
507.86        66.99144
508.30        66.79386
508.74          66.835
509.18        66.96805
509.62        67.14038
510.06        67.32417
510.50        67.48614
510.94        67.62651
511.38        67.72576
511.82        67.75182
512.26        67.70027
512.70        67.57396
513.14        67.40594
513.58        67.25565
514.02        67.14243
514.46        67.05951
514.90        66.99229
515.34        66.91003
515.78        66.81052
516.22        66.71597
516.66        66.64034
517.10        66.59951
517.54        66.59583
517.98        66.61655
518.42        66.66663
518.86        66.74482
519.30        66.84352
519.74        66.98851
520.18        67.13645
520.62        67.15639
521.06        67.06757
521.50        67.02788
521.93         67.0637
522.37        67.07418
522.81        67.06739
523.25        67.12402
523.69        67.18191
524.13        67.10056
524.57          66.874
525.01        66.55566
525.45        66.25816
525.89         66.1551
526.32        66.27968
526.76        66.57004
527.20        66.91049
527.64        67.12743
528.08        67.16907
528.52        67.06004
528.96        66.86978
529.40        66.77934
529.83         66.7823
530.27        66.70285
530.71        66.55785
531.15        66.53002
531.59        66.62657
532.03        66.75377
532.46        66.86665
532.90        66.95152
533.34         66.9913
533.78        66.93211
534.22        66.80927
534.66        66.79816
535.09        66.84885
535.53        66.70724
535.97        66.40137
536.41        66.22355
536.85        66.19592
537.28        66.14216
537.72         66.0657
538.16        66.09111
538.60        66.18243
539.04        66.18481
539.47         66.1031
539.91        66.09743
540.35        66.15462
540.79        66.21484
541.22        66.26165
541.66        66.21178
542.10        66.23041
542.54        66.18369
542.97        66.12883
543.41        66.11115
543.85        66.12601
544.29        66.16024
544.72        66.19536
545.16        66.23729
545.60        66.26691
546.04        66.28478
546.47        66.27612
546.91        66.22709
547.35        66.14923
547.79        66.03757
548.22        65.88572
548.66        65.82288
549.10        65.85624
549.53        65.65456
549.97        65.79462
550.41        65.85492
550.84        65.99542
551.28        66.21474
551.72         66.4484
552.15        66.51508
552.59        66.41528
553.03        66.32716
553.46        66.29746
553.90        66.27512
554.34        66.24187
554.77        66.68048
555.21        66.47711
555.65        66.86288
556.08        66.49079
556.52         66.3122
556.96        66.06535
557.39        65.83432
557.83        65.69944
558.27        65.66566
558.70        65.70277
559.14        65.93053
559.57        65.76198
560.01        65.96409
560.45        66.22933
560.88        66.15155
561.32         65.8399
561.75        65.49043
562.19        65.28778
562.63        65.59313
563.06        66.21867
563.50        66.20659
563.93        65.62408
564.37        65.47662
564.80        65.75682
565.24        65.90832
565.68        65.88081
566.11        65.87278
566.55        65.91285
566.98         65.8823
567.42        65.82902
567.85        65.87384
568.29        66.06136
568.72        65.92648
569.16        66.25046
569.60        66.24372
570.03        66.04327
570.47        66.13898
570.90        66.54269
571.34        65.56777
571.77        66.14809
572.21        66.17088
572.64        66.53041
573.08        66.12085
573.51        66.05438
573.95        66.87161
574.38        66.17606
574.82        66.45531
