SpectraSmart Spectrum 2.9.0.0
--------- Device Information -----------
Spectrum Name :  反射率_0
Saving Time :  2024/05/01 15:56:37
Spectro-Module Model Name : SE2030-DUVN
Spectro-Module Serial Number : OS361AC55029948
Wavelength Start : 200
Wavelength End : 1025
Wavelength Unit : Wavelength(nm)
Spectrum Unit : Reflectance(%)
-----------Spectrum Setting ------------
Integration Time : 20ms
Average : 10
Boxcar : 0
Background removal :  enabled
linearity correction :  enabled
SC :  disabled
Intensity correction :  disabled
DWT denoise :  enabled
savitzky-golay :  disabled
FFT :  disabled
Running average :  disabled
Kalman :  disabled
High pass :  disabled
---------------BEGIN--------------------
Wavelength(nm)             Reflectance(%)
200.29               0
200.75        194.7564
201.21        714.8881
201.67       -248.8009
202.13       -72.01386
202.58       -17.92447
203.04        13.61523
203.50        32.30273
203.96        38.85835
204.42        34.25341
204.88        3.665434
205.34       -812.3828
205.80        160.7603
206.26        91.98294
206.72        23.89581
207.18       -241.5366
207.64        448.2816
208.10        178.4109
208.55        98.71396
209.01        55.54922
209.47        37.51927
209.93        35.64367
210.39        41.10324
210.85        49.29862
211.31        54.43587
211.77        50.64404
212.23        99.60064
212.69        75.49992
213.14        85.20589
213.60         130.791
214.06       -385.6306
214.52       -27.01963
214.98       0.4896137
215.44        14.55511
215.90        39.17092
216.36        356.4035
216.81       -121.2861
217.27       -126.3858
217.73        174.2065
218.19        11.48607
218.65       -12.86257
219.11       -39.82988
219.57       -110.0266
220.02       -387.3455
220.48        -203.637
220.94       -57.85759
221.40       -19.61484
221.86       -5.510478
222.32       0.9776384
222.77        5.355517
223.23        9.737093
223.69        14.84536
224.15        18.60994
224.61        19.28155
225.06        17.99991
225.52        17.11465
225.98        17.96914
226.44        20.61888
226.90        25.02335
227.36        30.41318
227.81        32.67408
228.27        30.31059
228.73        26.22695
229.19        22.57605
229.65        20.17133
230.10        18.62986
230.56         17.5668
231.02        17.04213
231.48        17.47663
231.93        18.76435
232.39        20.52055
232.85        22.28029
233.31        23.72817
233.77        24.86293
234.22        25.83061
234.68        26.54264
235.14        27.11185
235.60        27.64885
236.05        28.17534
236.51        29.00804
236.97        30.62542
237.43        33.00496
237.88        35.73905
238.34        37.87512
238.80        39.11235
239.26        39.55453
239.71        39.29897
240.17        37.84311
240.63        34.83627
241.08        31.50831
241.54        29.43186
242.00        30.06887
242.46        34.73086
242.91        45.13937
243.37        64.27491
243.83        96.23177
244.28         122.896
244.74        119.7902
245.20        102.5761
245.66        86.92091
246.11        77.09429
246.57        70.58267
247.03        63.65344
247.48        52.66307
247.94        34.62374
248.40        13.92778
248.85       -2.718727
249.31       -6.828384
249.77        2.872782
250.22        18.68096
250.68        34.46393
251.14        46.84624
251.59        55.18396
252.05         61.5696
252.51        68.81348
252.96        81.16354
253.42        101.8737
253.88        107.3268
254.33        92.19201
254.79        79.74496
255.25         71.9276
255.70        66.41216
256.16        62.90464
256.62        61.16944
257.07        61.19016
257.53        62.61776
257.99        64.39474
258.44        65.67254
258.90        66.29539
259.35        65.98307
259.81        65.24483
260.27        64.25193
260.72        63.33583
261.18        62.80852
261.63        62.22807
262.09        61.53207
262.55        60.22322
263.00        58.28263
263.46        56.12864
263.91        53.98042
264.37         52.4295
264.83         51.4361
265.28        50.79553
265.74        50.27138
266.19        49.28313
266.65         47.8816
267.11        46.17916
267.56        44.55914
268.02        43.71196
268.47        43.68383
268.93        44.17459
269.38        44.70683
269.84        44.46824
270.30        43.29883
270.75        41.49846
271.21        39.43925
271.66        37.54718
272.12        36.05318
272.57        34.77531
273.03         33.8213
273.48        33.30132
273.94        33.18385
274.39        33.38079
274.85        33.61135
275.31        33.40084
275.76        32.67477
276.22        31.63396
276.67        30.49391
277.13        29.66633
277.58        29.17339
278.04        28.92574
278.49        28.75539
278.95        28.52624
279.40        28.14743
279.86        27.71992
280.31        27.26096
280.77        26.87164
281.22        26.52461
281.68        26.24006
282.13        25.92356
282.59        25.53136
283.04         25.0428
283.50        24.53466
283.95        24.09646
284.41        23.91297
284.86        23.99189
285.32        24.26871
285.77        24.62576
286.22        24.93591
286.68        25.16423
287.13        25.32737
287.59        25.43751
288.04        25.47072
288.50        25.46397
288.95        25.38629
289.41        25.32781
289.86        25.34835
290.32        25.49135
290.77        25.74119
291.22        26.05563
291.68         26.3502
292.13        26.61884
292.59        26.93572
293.04        27.35808
293.50          28.023
293.95        28.93746
294.40        30.05607
294.86        31.33003
295.31        32.68915
295.77        34.08531
296.22        35.51756
296.68        36.93656
297.13        38.25877
297.58        39.50562
298.04        40.72422
298.49        41.99873
298.95        43.50082
299.40        45.22234
299.85        47.09057
300.31        49.03926
300.76        50.96062
301.21        52.84223
301.67        54.73487
302.12        56.56049
302.58        58.22291
303.03        59.66697
303.48        60.93628
303.94        62.22873
304.39        63.74648
304.84        65.58741
305.30        67.68101
305.75        69.84101
306.20        71.80056
306.66        73.48262
307.11        74.90539
307.57        76.20061
308.02        77.46215
308.47        78.76083
308.93        80.06293
309.38        81.27697
309.83        82.35567
310.29         83.3071
310.74        84.15704
311.19        84.96612
311.65        85.79659
312.10        86.64658
312.55        87.49271
313.00        88.35416
313.46         89.2655
313.91         90.2012
314.36        91.14114
314.82        91.95947
315.27        92.47003
315.72        92.62922
316.18        92.53351
316.63        92.30077
317.08        92.17777
317.53        92.23831
317.99        92.42371
318.44        92.69143
318.89        92.94337
319.35        93.14491
319.80        93.35059
320.25        93.54932
320.70        93.72079
321.16        93.85554
321.61        93.95773
322.06        94.08313
322.51        94.35047
322.97        94.74983
323.42        95.27346
323.87        95.77628
324.32        96.04115
324.78         96.0111
325.23         95.7913
325.68        95.49519
326.13        95.33083
326.59        95.34947
327.04        95.53818
327.49        95.84922
327.94        96.22251
328.39        96.61662
328.85        97.00938
329.30        97.43014
329.75        97.77514
330.20        98.02701
330.66        98.17727
331.11        98.29478
331.56         98.3904
332.01        98.49268
332.46         98.5893
332.92        98.73934
333.37        99.14096
333.82        99.79066
334.27        100.6715
334.72        101.5943
335.17         102.216
335.63         102.427
336.08        102.3647
336.53        102.2488
336.98        102.5062
337.43        103.2421
337.88        104.3217
338.34        105.4856
338.79        106.3754
339.24        106.8279
339.69        106.9536
340.14        106.9153
340.59         106.971
341.05        107.2012
341.50        107.5552
341.95        107.9377
342.40        108.2034
342.85         108.328
343.30        108.3845
343.75        108.5066
344.20        108.8844
344.66         109.541
345.11        110.3919
345.56        111.2841
346.01        111.9571
346.46        112.3362
346.91         112.513
347.36        112.5814
347.81        112.6915
348.26        112.9013
348.72        113.1644
349.17        113.4791
349.62        113.9128
350.07        114.4276
350.52        114.9695
350.97        115.4042
351.42        115.5023
351.87        115.2335
352.32        114.7248
352.77        114.0378
353.22        113.2773
353.67        112.5184
354.13         111.752
354.58        111.1474
355.03        111.0656
355.48        111.5277
355.93        112.4618
356.38         113.389
356.83        113.5004
357.28        112.6434
357.73        111.0679
358.18        109.4175
358.63        108.6588
359.08        108.9626
359.53        110.0121
359.98        111.2118
360.43         111.563
360.88        110.8001
361.33        109.2732
361.78        107.4826
362.23          106.14
362.68        105.4313
363.13         105.133
363.58        104.9738
364.03         104.547
364.48        103.7303
364.93        102.6534
365.38        101.5393
365.83        100.6932
366.28        100.1728
366.73        99.88753
367.18        99.54777
367.63        98.71133
368.08        97.33983
368.53        95.62769
368.98        94.00618
369.43        93.09332
369.88         92.9884
370.33        93.47771
370.78        94.16439
371.23        94.35049
371.68        93.81812
372.13        92.79271
372.58        91.54463
373.03        90.47939
373.48         89.7155
373.93        89.10222
374.38        88.59721
374.83        88.15421
375.28        87.73792
375.72        87.38482
376.17        87.03172
376.62        86.49952
377.07        85.77094
377.52        84.88813
377.97        84.00351
378.42         83.3715
378.87        83.04047
379.32        82.92479
379.77        82.87316
380.22        82.64866
380.67        82.19271
381.11         81.5888
381.56         80.9276
382.01        80.37965
382.46        80.00285
382.91        79.73906
383.36        79.54192
383.81        79.34231
384.26        79.10825
384.71        78.86312
385.15         78.5873
385.60        78.29248
386.05        77.96966
386.50         77.6176
386.95         77.2534
387.40         76.9161
387.85        76.61356
388.29        76.28671
388.74          76.017
389.19         75.7382
389.64        75.44138
390.09        75.13288
390.54        74.80204
390.98        74.43758
391.43        74.10038
391.88        73.72732
392.33         73.3604
392.78        73.19861
393.23        73.18674
393.67        72.93964
394.12        72.53653
394.57        72.37578
395.02        72.34972
395.47        71.82373
395.91        70.97285
396.36        70.57655
396.81        70.71188
397.26        71.01357
397.71        71.24167
398.15        71.24537
398.60        71.02432
399.05        70.29383
399.50        69.41698
399.95        69.41553
400.39        70.18354
400.84        70.48926
401.29        70.16732
401.74        69.92677
402.18        69.73386
402.63        69.01917
403.08        68.03947
403.53        67.50084
403.97        67.47535
404.42        67.73138
404.87        68.07834
405.32        68.21155
405.76        68.03603
406.21        67.79218
406.66        67.52969
407.11        67.09697
407.55        66.69001
408.00        66.72493
408.45         67.1265
408.90        67.48998
409.34        67.57748
409.79        67.09792
410.24        66.28333
410.68        65.91216
411.13        66.06635
411.58         66.2929
412.03         66.4761
412.47        66.63041
412.92        66.67822
413.37        66.63783
413.81        66.53906
414.26        66.48175
414.71        66.47169
415.15        66.49274
415.60        66.52229
416.05        66.57996
416.49        66.66162
416.94        66.75851
417.39        66.84092
417.83        66.84502
418.28        66.76656
418.73        66.63306
419.17         66.4801
419.62        66.36974
420.07        66.31873
420.51        66.29616
420.96        66.34454
421.41        66.42097
421.85        66.48729
422.30        66.69299
422.74        66.95038
423.19        66.96375
423.64         66.8215
424.08          67.105
424.53        67.70082
424.98        67.98457
425.42        67.88846
425.87        67.77307
426.31        67.74585
426.76        67.64271
427.21        67.58008
427.65        68.01779
428.10        68.68243
428.54        68.77866
428.99        68.40291
429.44        67.83279
429.88         67.3201
430.33        67.90391
430.77         69.0948
431.22        68.87437
431.66         67.5041
432.11        67.22221
432.56        68.06612
433.00        68.74126
433.45        68.97262
433.89        68.93303
434.34        67.73096
434.78        69.42158
435.23        69.24947
435.67         69.5781
436.12         69.2087
436.57        69.58663
437.01        70.58413
437.46        71.03661
437.90        70.83342
438.35        70.51505
438.79        70.51759
439.24        70.20763
439.68        69.81012
440.13        69.96712
440.57         70.6118
441.02        70.85543
441.46        70.54914
441.91        71.21244
442.35        70.89304
442.80        71.01709
443.24        71.03623
443.69        71.10547
444.13        71.18192
444.58         71.2475
445.02        71.29053
445.47         71.3601
445.91        71.49976
446.36        71.68896
446.80        71.89698
447.24        72.46735
447.69         72.6915
448.13        72.91135
448.58        72.93142
449.02        72.79057
449.47        72.60902
449.91        72.54271
450.36         72.6551
450.80        72.86986
451.25        73.10863
451.69        73.20384
452.13        73.12352
452.58        72.92082
453.02        72.66638
453.47        72.50579
453.91        72.46006
454.36        72.52066
454.80         72.6047
455.24        72.51286
455.69        72.22709
456.13        71.92545
456.58        71.81881
457.02        71.34761
457.46        71.80522
457.91        72.12585
458.35         72.4992
458.79        72.51012
459.24        72.12853
459.68        71.66904
460.13        71.39842
460.57        70.33025
461.01         70.5415
461.46        70.46864
461.90        70.64268
462.34        70.49887
462.79        70.47102
463.23        70.67229
463.68         71.0804
464.12        71.18432
464.56        70.95329
465.01        70.65598
465.45        70.35391
465.89         70.3194
466.34        70.45457
466.78        70.40607
467.22        70.17274
467.67        69.67379
468.11        69.85196
468.55        69.94173
468.99        70.13342
469.44        70.21904
469.88        70.18603
470.32        70.13857
470.77         70.0943
471.21        70.06735
471.65        70.04911
472.10        70.04546
472.54        70.02475
472.98        69.94098
473.42        69.78379
473.87        69.68025
474.31        69.59024
474.75        69.29021
475.20        68.87356
475.64        68.89405
476.08        69.30617
476.52        69.33312
476.97        68.93611
477.41        69.65477
477.85        68.72928
478.29        69.47749
478.74        69.51743
479.18        69.42529
479.62        68.88068
480.06        68.66422
480.50          68.811
480.95        68.50701
481.39        69.26563
481.83        68.26644
482.27        68.58801
482.72        68.75441
483.16        68.80106
483.60        68.40031
484.04        69.04737
484.48        68.99476
484.93        69.01762
485.37        69.70661
485.81        69.57469
486.25        70.42571
486.69        69.85145
487.14        67.52671
487.58        67.06529
488.02        69.10019
488.46         68.6655
488.90        67.76212
489.34         68.7874
489.79        68.60126
490.23        68.67807
490.67        68.44888
491.11        68.19357
491.55        68.33221
491.99        68.74239
492.43          68.858
492.88        68.62752
493.32        68.41984
493.76        68.29681
494.20        68.23044
494.64        68.22552
495.08        68.24744
495.52        68.32438
495.96        68.46168
496.41        68.52332
496.85        68.95872
497.29        68.48246
497.73        68.22221
498.17        67.91899
498.61        67.77782
499.05        67.72736
499.49        67.99136
499.93        68.40161
500.37        68.55455
500.82        68.52951
501.26        68.33135
501.70        68.64328
502.14        68.63896
502.58        68.49323
503.02         68.3173
503.46        68.13255
503.90        67.89587
504.34        67.68937
504.78        67.66691
505.22        67.84381
505.66        68.18565
506.10        68.55619
506.54        68.69788
506.98        68.55263
507.42        68.29529
507.86        67.89091
508.30         67.6667
508.74        67.63187
509.18        67.72858
509.62        67.90363
510.06        68.07348
510.50        68.20107
510.94        68.31013
511.38        68.39011
511.82        68.42214
512.26        68.40564
512.70        68.32376
513.14        68.17745
513.58        68.08294
514.02        68.07504
514.46        67.94964
514.90        67.63544
515.34        68.05383
515.78        67.55249
516.22        67.47424
516.66        67.37309
517.10         67.3546
517.54        67.41762
517.98        67.55441
518.42        67.72658
518.86        67.82493
519.30        67.82933
519.74        67.76883
520.18        67.68397
520.62        67.64424
521.06        67.66441
521.50        67.71041
521.93        67.76869
522.37        67.80766
522.81        67.82064
523.25        67.83073
523.69        67.80651
524.13        67.69432
524.57        67.50194
525.01        67.25016
525.45        67.03584
525.89        67.01185
526.32        67.19746
526.76        67.53619
527.20        67.90538
527.64        68.10741
528.08        68.09029
528.52        67.92036
528.96        67.67528
529.40        67.47864
529.83        67.36772
530.27        67.32226
530.71        67.33333
531.15        67.40374
531.59        67.52325
532.03        67.69224
532.46        67.86262
532.90        67.97434
533.34        68.00821
533.78        67.91912
534.22        67.75263
534.66        67.70235
535.09        67.72362
535.53        67.56096
535.97        67.23895
536.41        67.03681
536.85        66.97631
537.28        66.91003
537.72        66.85477
538.16        66.89664
538.60        67.02519
539.04        67.19998
539.47        67.36336
539.91        67.46582
540.35        67.47466
540.79        67.43938
541.22        67.37112
541.66        67.19688
542.10        67.10584
542.54        66.95588
542.97        66.83945
543.41        66.85301
543.85        66.99256
544.29        67.23373
544.72        67.47427
545.16        67.59002
545.60        67.53773
546.04        67.34757
546.47        67.11168
546.91        66.99661
547.35        67.04708
547.79        67.19465
548.22        67.30805
548.66        67.33119
549.10        67.24036
549.53          66.771
549.97        66.61373
550.41        66.51636
550.84        66.68772
551.28        67.03354
551.72        67.44331
552.15        67.72377
552.59        67.81293
553.03        67.79601
553.46        67.55441
553.90         67.4683
554.34        67.52648
554.77        67.46331
555.21        67.23348
555.65        67.63017
556.08        67.33104
556.52         67.2297
556.96         66.9874
557.39        66.83082
557.83        66.82182
558.27        66.88303
558.70        66.96796
559.14        67.22927
559.57        67.05801
560.01        67.19241
560.45        67.35466
560.88        67.22259
561.32        66.93108
561.75         66.6483
562.19         66.5304
562.63        66.93839
563.06         67.6339
563.50        67.52276
563.93        66.73158
564.37         66.4844
564.80        66.79699
565.24        67.01286
565.68        67.03934
566.11        67.07049
566.55        67.11935
566.98        67.02628
567.42        66.91127
567.85        67.07598
568.29        67.46192
568.72        67.59514
569.16        67.55268
569.60        67.50301
570.03        67.38114
570.47        67.48615
570.90        67.78842
571.34        66.79234
571.77        67.32071
572.21        67.23563
572.64        67.45485
573.08        67.12228
573.51        67.53123
573.95        68.03078
574.38        67.37827
574.82        67.38475
