SpectraSmart Spectrum 2.9.0.0
--------- Device Information -----------
Spectrum Name :  反射率_0
Saving Time :  2024/05/01 15:56:04
Spectro-Module Model Name : SE2030-DUVN
Spectro-Module Serial Number : OS361AC55029948
Wavelength Start : 200
Wavelength End : 1025
Wavelength Unit : Wavelength(nm)
Spectrum Unit : Reflectance(%)
-----------Spectrum Setting ------------
Integration Time : 20ms
Average : 10
Boxcar : 0
Background removal :  enabled
linearity correction :  enabled
SC :  disabled
Intensity correction :  disabled
DWT denoise :  enabled
savitzky-golay :  disabled
FFT :  disabled
Running average :  disabled
Kalman :  disabled
High pass :  disabled
---------------BEGIN--------------------
Wavelength(nm)             Reflectance(%)
200.29               0
200.75        49.98013
201.21         271.257
201.67       -115.9076
202.13       -33.45204
202.58       -2.039788
203.04        18.71086
203.50        32.31888
203.96        38.78889
204.42        39.88752
204.88        33.47967
205.34       -142.7028
205.80        55.81901
206.26        25.30331
206.72       -26.96227
207.18       -281.7266
207.64        441.9664
208.10        184.6886
208.55        119.0096
209.01        86.73074
209.47        73.11458
209.93        70.46534
210.39        72.62318
210.85        77.87852
211.31        85.50015
211.77        104.1774
212.23       -47.01194
212.69        50.92239
213.14        74.71931
213.60        136.2199
214.06       -508.9172
214.52       -58.69735
214.98       -24.85974
215.44       -9.385489
215.90        13.87644
216.36        302.8904
216.81       -138.3173
217.27       -163.5512
217.73        249.6024
218.19        22.21054
218.65       -9.742508
219.11       -40.53654
219.57       -117.3188
220.02        -404.801
220.48       -187.8612
220.94       -37.42581
221.40      0.04065852
221.86        13.86528
222.32         21.1732
222.77        27.15893
223.23        33.98452
223.69         40.1461
224.15        38.26416
224.61        28.91415
225.06        18.87039
225.52         12.3142
225.98          9.8871
226.44        10.55889
226.90        13.77136
227.36        19.37112
227.81        24.37946
228.27        26.13673
228.73        25.80492
229.19        24.76819
229.65        23.94076
230.10        23.41348
230.56        23.06454
231.02        22.82473
231.48        22.86615
231.93        23.21249
232.39        23.75155
232.85        24.76931
233.31         26.6207
233.77        29.06641
234.22        31.87827
234.68        34.27287
235.14        35.47261
235.60        35.42622
236.05         34.1826
236.51        32.25712
236.97        31.92632
237.43        34.79881
237.88        40.35764
238.34        46.19967
238.80        50.03045
239.26        51.53299
239.71        51.16747
240.17        48.32341
240.63        43.72577
241.08        40.03377
241.54        38.51955
242.00        40.15505
242.46        45.95624
242.91        57.80912
243.37        79.29768
243.83           115.3
244.28        145.8477
244.74        143.4024
245.20        125.0957
245.66        108.0166
246.11        96.86605
246.57         88.9264
247.03        79.54935
247.48        65.32949
247.94        46.01588
248.40        28.29185
248.85         17.3766
249.31        17.10193
249.77        24.29377
250.22        33.64905
250.68        42.67128
251.14        49.16719
251.59        52.07507
252.05        51.91504
252.51        48.08578
252.96        37.58158
253.42        28.24516
253.88        42.95956
254.33        62.70175
254.79        71.88905
255.25        74.79202
255.70        74.86784
256.16        74.40194
256.62        73.45808
257.07        72.05711
257.53        70.99621
257.99        70.00567
258.44        68.92007
258.90        68.10646
259.35        67.14122
259.81        66.28867
260.27        65.40192
260.72          64.422
261.18        63.64483
261.63         62.7607
262.09        61.96077
262.55        61.01788
263.00        59.81525
263.46        58.56216
263.91        57.15502
264.37        55.81331
264.83        54.50414
265.28        53.22183
265.74        51.98768
266.19        50.55105
266.65        49.02182
267.11        47.38576
267.56        45.91562
268.02        45.13105
268.47        45.03764
268.93        45.43182
269.38        45.85149
269.84        45.49576
270.30        44.23154
270.75        42.33247
271.21        40.27307
271.66        38.64764
272.12        37.67423
272.57        37.08051
273.03        36.75755
273.48        36.48269
273.94         36.1726
274.39        35.87126
274.85        35.48806
275.31         34.8089
275.76        33.83977
276.22        32.71785
276.67        31.60077
277.13        30.82637
277.58        30.37968
278.04        30.17843
278.49        30.07225
278.95        29.94406
279.40        29.68946
279.86         29.3996
280.31          28.999
280.77         28.4738
281.22        27.80852
281.68        27.08579
282.13        26.37293
282.59        25.85467
283.04        25.53094
283.50        25.39217
283.95        25.36208
284.41        25.36702
284.86        25.36061
285.32        25.37649
285.77        25.42289
286.22        25.55054
286.68        25.76679
287.13        26.02701
287.59        26.28543
288.04        26.42946
288.50        26.46165
288.95        26.37471
289.41        26.28538
289.86        26.28367
290.32        26.42002
290.77        26.66682
291.22        26.94742
291.68        27.13013
292.13        27.20805
292.59        27.27671
293.04        27.46102
293.50        28.00006
293.95        28.92004
294.40         30.1467
294.86        31.54934
295.31        32.92713
295.77         34.2013
296.22        35.40671
296.68        36.57654
297.13        37.75344
297.58        38.98298
298.04        40.27123
298.49        41.61856
298.95        43.06617
299.40        44.58536
299.85        46.15704
300.31         47.8022
300.76        49.54169
301.21        51.38146
301.67        53.31411
302.12        55.20117
302.58        56.85036
303.03        58.18477
303.48         59.2998
303.94         60.3953
304.39        61.67387
304.84        63.24661
305.30        65.03332
305.75        66.93284
306.20        68.81409
306.66        70.60658
307.11         72.2807
307.57        73.81554
308.02        75.07816
308.47         76.1022
308.93        76.93143
309.38        77.62807
309.83         78.3839
310.29        79.26512
310.74        80.22417
311.19        81.20964
311.65        82.10907
312.10        82.87576
312.55        83.54582
313.00        84.21033
313.46        85.01218
313.91        85.95361
314.36        86.96948
314.82        87.88371
315.27        88.43615
315.72         88.5611
316.18        88.38164
316.63        88.05032
317.08        87.85655
317.53        87.89013
317.99        88.08632
318.44        88.38335
318.89        88.65414
319.35        88.85909
319.80        89.05941
320.25        89.27947
320.70        89.55532
321.16        89.87723
321.61         90.2152
322.06        90.55855
322.51        90.91987
322.97        91.26374
323.42        91.61919
323.87        91.88535
324.32        91.92247
324.78        91.71073
325.23        91.33609
325.68        90.93819
326.13        90.75993
326.59        90.85174
327.04        91.19878
327.49        91.68208
327.94         92.1132
328.39        92.42037
328.85        92.60862
329.30        92.79555
329.75         93.0477
330.20        93.38865
330.66        93.75483
331.11        94.12259
331.56        94.34764
332.01        94.41959
332.46        94.39867
332.92        94.38744
333.37        94.64935
333.82        95.21885
334.27         96.0391
334.72         96.9954
335.17        97.87775
335.63        98.56413
336.08        99.12536
336.53        99.56723
336.98        99.97071
337.43        100.3739
337.88         100.764
338.34        101.0784
338.79        101.3027
339.24        101.4111
339.69        101.4275
340.14        101.4985
340.59        101.8401
341.05        102.4739
341.50        103.3559
341.95        104.2453
342.40        104.7498
342.85        104.7984
343.30        104.5276
343.75        104.2286
344.20        104.3596
344.66         105.019
345.11        106.0446
345.56        107.2134
346.01        108.1408
346.46        108.6959
346.91        109.0071
347.36        109.1549
347.81        109.2629
348.26        109.3967
348.72         109.517
349.17        109.6626
349.62        109.9732
350.07        110.4384
350.52        110.9957
350.97         111.507
351.42        111.7281
351.87        111.6119
352.32        111.2782
352.77        110.7674
353.22        110.1519
353.67        109.4966
354.13        108.7981
354.58        108.2244
355.03        108.1377
355.48        108.5677
355.93        109.4445
356.38        110.3247
356.83        110.4562
357.28         109.694
357.73        108.2684
358.18        106.7729
358.63        106.0983
359.08        106.3999
359.53        107.3833
359.98         108.489
360.43        108.7807
360.88        108.0145
361.33        106.5227
361.78        104.7856
362.23        103.4864
362.68        102.8015
363.13        102.5152
363.58        102.3718
364.03        101.9829
364.48        101.2347
364.93        100.2627
365.38        99.26082
365.83        98.49174
366.28        98.01012
366.73        97.72921
367.18        97.42982
367.63        96.78471
368.08        95.75517
368.53        94.47669
368.98        93.25255
369.43        92.51376
369.88        92.32514
370.33         92.5365
370.78         92.8514
371.23        92.75682
371.68        92.11198
372.13        91.09923
372.58        89.95834
373.03        89.04155
373.48        88.43848
373.93        88.01257
374.38        87.69391
374.83         87.3839
375.28        87.02779
375.72        86.66039
376.17        86.23552
376.62        85.61213
377.07        84.79047
377.52        83.81495
377.97         82.8401
378.42        82.11996
378.87        81.70964
379.32        81.53232
379.77        81.45529
380.22        81.26503
380.67         80.9018
381.11        80.43587
381.56        79.92484
382.01        79.48499
382.46        79.15801
382.91        78.89867
383.36        78.68154
383.81        78.47471
384.26        78.25591
384.71        78.03254
385.15        77.78107
385.60        77.50739
386.05          77.198
386.50        76.85793
386.95         76.4894
387.40        76.10696
387.85         75.7209
388.29        75.28475
388.74         74.9133
389.19        74.58948
389.64        74.31436
390.09        74.08193
390.54        73.85137
390.98        73.56675
391.43        73.27437
391.88        72.91182
392.33        72.57753
392.78        72.48947
393.23        72.54551
393.67         72.4407
394.12        72.31948
394.57        71.66428
395.02        72.18335
395.47        71.72308
395.91        70.95277
396.36        70.56411
396.81        70.62939
397.26        70.79922
397.71        70.88841
398.15        70.78389
398.60        70.52295
399.05        70.01333
399.50        69.46925
399.95        69.39692
400.39        69.74972
400.84        69.89671
401.29        69.71831
401.74         69.4855
402.18        69.18064
402.63        68.56995
403.08        67.85142
403.53        67.43315
403.97        67.36381
404.42        67.53049
404.87        67.77801
405.32         67.8381
405.76         67.6349
406.21        67.37257
406.66        67.11729
407.11        66.76265
407.55        66.47829
408.00        66.66293
408.45        67.19341
408.90        67.48323
409.34        67.36105
409.79        66.89124
410.24         66.2585
410.68        65.87858
411.13        65.82718
411.58        65.86453
412.03         65.9293
412.47        66.02904
412.92        66.10306
413.37        66.16548
413.81        66.19843
414.26        66.22774
414.71        66.24041
415.15        66.24016
415.60        66.21446
416.05        66.20707
416.49        66.22604
416.94        66.24896
417.39        66.27353
417.83        66.28204
418.28        66.27975
418.73        66.28838
419.17        66.28394
419.62        66.25655
420.07        66.20927
420.51        66.05457
420.96        65.92355
421.41        66.08652
421.85        66.43629
422.30        66.69499
422.74         66.7872
423.19        66.74448
423.64        66.65305
424.08        66.92276
424.53        67.47735
424.98        67.66685
425.42        67.59868
425.87         67.6504
426.31        67.85442
426.76        67.44807
427.21        66.71872
427.65        67.04489
428.10        68.14387
428.54        68.50307
428.99        68.13306
429.44         67.5379
429.88        67.01311
430.33        67.65822
430.77        68.94166
431.22        68.73144
431.66        67.27021
432.11        66.69228
432.56        67.15911
433.00        67.86457
433.45        68.56395
433.89        68.62547
434.34        67.87577
434.78         69.3417
435.23        68.94827
435.67        69.09755
436.12        68.77593
436.57        69.07771
437.01        69.81987
437.46        70.62603
437.90        70.04639
438.35        69.93053
438.79        69.90546
439.24        69.64023
439.68         69.2527
440.13        69.32277
440.57        69.82776
441.02        70.19462
441.46        70.33409
441.91        70.67129
442.35         71.0135
442.80        71.04136
443.24        70.77946
443.69        70.61685
444.13        70.61768
444.58         70.6732
445.02        70.77882
445.47        71.05171
445.91        71.44524
446.36        71.79615
446.80        72.04709
447.24        72.35358
447.69         72.6448
448.13        72.53736
448.58        72.16995
449.02        72.12205
449.47        72.40678
449.91        72.51089
450.36        72.44506
450.80        72.50745
451.25        72.68602
451.69        72.73818
452.13         72.6633
452.58        72.58245
453.02        72.49181
453.47        72.36433
453.91        72.19289
454.36        72.06232
454.80        71.96028
455.24        71.76541
455.69        71.47834
456.13        71.48341
456.58        71.21067
457.02        71.22697
457.46        71.37268
457.91        71.72816
458.35        72.11463
458.79        72.09813
459.24        71.66004
459.68        71.11169
460.13        70.76203
460.57        69.77776
461.01        70.24199
461.46        70.27103
461.90        70.64468
462.34        70.83833
462.79        69.83047
463.23        70.02417
463.68         70.8585
464.12        71.08365
464.56        70.64311
465.01        70.23846
465.45        69.97698
465.89        70.11993
466.34        70.48997
466.78        70.55676
467.22        69.76807
467.67        69.58902
468.11        69.63857
468.55        69.73794
468.99        69.74905
469.44        69.76334
469.88        69.78192
470.32        69.80371
470.77        69.83334
471.21        69.86349
471.65        69.87384
472.10        69.87776
472.54        69.85812
472.98        69.78371
473.42        69.64532
473.87        69.57963
474.31        69.53189
474.75        69.21741
475.20        68.78023
475.64        68.83027
476.08        69.25631
476.52        69.34498
476.97        69.03016
477.41        68.99493
477.85        68.39365
478.29        68.94025
478.74        68.93303
479.18        69.41421
479.62           68.88
480.06        68.87812
480.50        69.10598
480.95        68.31364
481.39        68.94877
481.83        67.83167
482.27        68.27032
482.72        68.17544
483.16        68.32498
483.60        68.37473
484.04        68.81646
484.48         68.9408
484.93        69.08511
485.37        69.67122
485.81        69.64101
486.25         70.0156
486.69        69.72745
487.14        67.62169
487.58        67.37056
488.02        68.56429
488.46        68.46217
488.90        67.93728
489.34        68.66716
489.79        68.46107
490.23        68.82101
490.67        68.52054
491.11        68.00725
491.55        68.07728
491.99        68.62302
492.43        68.75439
492.88        68.40549
493.32        68.23368
493.76        68.11421
494.20        68.11395
494.64        68.18399
495.08        68.28567
495.52        68.39989
495.96        68.53618
496.41        68.62823
496.85        68.66228
497.29        68.56091
497.73        68.11942
498.17        67.50527
498.61        67.25116
499.05        67.37477
499.49        67.73492
499.93        68.15142
500.37        68.28046
500.82        68.14192
501.26        68.17331
501.70        68.37432
502.14        68.48612
502.58        68.34998
503.02        68.22012
503.46        68.07407
503.90         67.8688
504.34        67.68771
504.78        67.66917
505.22        67.82533
505.66        68.14835
506.10        68.52002
506.54        68.64011
506.98        68.43973
507.42        68.37302
507.86        67.90475
508.30        67.75044
508.74        67.76555
509.18        67.90375
509.62        68.09507
510.06        68.23891
510.50        68.30174
510.94          68.312
511.38        68.28018
511.82        68.21822
512.26        68.13329
512.70        68.01263
513.14        67.87714
513.58        67.75879
514.02         67.6685
514.46        67.62634
514.90        67.60031
515.34        67.49767
515.78        67.35175
516.22        67.20814
516.66        67.28772
517.10        67.30389
517.54        67.31685
517.98        67.38956
518.42         67.5091
518.86        67.61022
519.30        67.67833
519.74        67.73073
520.18        67.76116
520.62        67.76485
521.06        67.74182
521.50        67.68344
521.93        67.61591
522.37        67.57401
522.81        67.57018
523.25        67.60363
523.69        67.62506
524.13        67.55328
524.57        67.38413
525.01        67.14993
525.45        66.93956
525.89        66.89073
526.32        67.02564
526.76        67.29379
527.20        67.59782
527.64        67.78288
528.08        67.80592
528.52        67.71849
528.96        67.57549
529.40        67.46509
529.83        67.40979
530.27        67.39346
530.71        67.40983
531.15        67.46769
531.59        67.55994
532.03         67.6869
532.46        67.79929
532.90        67.83571
533.34        67.78591
533.78        67.61737
534.22        67.39284
534.66        67.32816
535.09        67.37984
535.53         67.2773
535.97         67.0359
536.41        66.92005
536.85        66.93974
537.28        66.95025
537.72        66.93803
538.16        66.94214
538.60        66.95544
539.04        66.96209
539.47          66.965
539.91        67.00816
540.35        67.07579
540.79        67.18093
541.22         67.2922
541.66        67.26553
542.10        67.26144
542.54        67.15811
542.97        67.03738
543.41        66.98096
543.85        66.99521
544.29        67.06374
544.72        67.13641
545.16        67.17136
545.60        67.14197
546.04        67.05763
546.47        66.96169
546.91         66.9354
547.35        66.99834
547.79        67.10554
548.22          67.157
548.66         67.1457
549.10        67.06061
549.53        66.61884
549.97        66.49242
550.41         66.4085
550.84         66.5684
551.28        66.88383
551.72        67.25896
552.15        67.53242
552.59        67.62572
553.03        67.63624
553.46        67.29498
553.90         67.2253
554.34        67.36794
554.77        67.39823
555.21        67.24096
555.65        67.68232
556.08        67.38578
556.52        67.21645
556.96         66.8623
557.39        66.64256
557.83        66.62568
558.27        66.64063
558.70        66.64697
559.14        66.93643
559.57        66.89278
560.01        67.02077
560.45        67.08513
560.88         67.1361
561.32        67.17789
561.75        66.82297
562.19         66.3049
562.63        66.43945
563.06        67.06155
563.50        67.06171
563.93        66.52464
564.37        66.19021
564.80        66.63307
565.24        66.84149
565.68        66.90569
566.11        66.90999
566.55        66.88383
566.98        66.81408
567.42        66.77167
567.85        66.79382
568.29        66.87859
568.72        66.94985
569.16        67.08529
569.60         67.0722
570.03        66.81933
570.47        67.20364
570.90        67.46513
571.34        66.55415
571.77        67.09224
572.21        67.00485
572.64        67.21773
573.08        66.82915
573.51        67.17197
573.95        67.78469
574.38        67.09372
574.82        67.24491
