SpectraSmart Spectrum 2.9.0.0
--------- Device Information -----------
Spectrum Name :  反射率_0
Saving Time :  2024/05/01 15:52:14
Spectro-Module Model Name : SE2030-DUVN
Spectro-Module Serial Number : OS361AC55029948
Wavelength Start : 200
Wavelength End : 1025
Wavelength Unit : Wavelength(nm)
Spectrum Unit : Reflectance(%)
-----------Spectrum Setting ------------
Integration Time : 20ms
Average : 10
Boxcar : 0
Background removal :  enabled
linearity correction :  enabled
SC :  disabled
Intensity correction :  disabled
DWT denoise :  enabled
savitzky-golay :  disabled
FFT :  disabled
Running average :  disabled
Kalman :  disabled
High pass :  disabled
---------------BEGIN--------------------
Wavelength(nm)             Reflectance(%)
200.29               0
200.75        101.8869
201.21        596.6083
201.67        -268.305
202.13       -84.29776
202.58       -14.92307
203.04        30.54359
203.50        60.27242
203.96        74.79206
204.42        78.16309
204.88        67.43143
205.34       -270.0028
205.80        120.2785
206.26        74.68885
206.72        9.707679
207.18       -288.5527
207.64        540.8057
208.10        238.9411
208.55        160.7265
209.01        120.1632
209.47        97.40148
209.93        84.44712
210.39         73.8747
210.85        65.76512
211.31        61.71485
211.77        64.33059
212.23        -6.23218
212.69        36.32524
213.14        50.68005
213.60        95.42465
214.06       -378.6266
214.52       -47.10506
214.98       -20.28138
215.44       -4.263581
215.90        27.11191
216.36        461.6063
216.81       -210.7352
217.27       -267.6352
217.73        487.2931
218.19        77.53773
218.65        37.66052
219.11        24.08907
219.57        13.52602
220.02       -11.92553
220.48       -2.101882
220.94         9.98617
221.40        14.32247
221.86        17.10778
222.32         20.3065
222.77        25.00179
223.23        32.10907
223.69        41.20154
224.15        45.70859
224.61         42.8338
225.06        37.06825
225.52        33.02625
225.98        32.33357
226.44        34.59494
226.90        39.47664
227.36        45.91692
227.81        48.79558
228.27        46.16092
228.73        41.37235
229.19        37.38541
229.65        35.64766
230.10        35.77201
230.56         37.3157
231.02        39.47776
231.48        40.23304
231.93        38.85823
232.39        36.63307
232.85        34.80847
233.31        34.49765
233.77        35.51686
234.22        37.27228
234.68        39.08341
235.14        40.34631
235.60        41.01887
236.05        41.37513
236.51        41.69338
236.97        42.75512
237.43         44.8318
237.88        47.34008
238.34        49.34382
238.80        50.65644
239.26        51.34035
239.71        51.71934
240.17        50.81045
240.63        46.58039
241.08        39.51303
241.54        32.61909
242.00        29.15296
242.46         30.8299
242.91        38.73011
243.37        55.22052
243.83        85.22639
244.28        114.6703
244.74        118.2632
245.20        106.8746
245.66        94.73717
246.11        86.85999
246.57        81.68404
247.03        75.67089
247.48        65.35136
247.94        47.70123
248.40        26.86946
248.85        9.625496
249.31        4.246156
249.77        11.84794
250.22        25.42256
250.68        39.47495
251.14        50.58939
251.59        57.81282
252.05        62.85078
252.51        67.77946
252.96        75.39098
253.42        90.11452
253.88         97.7907
254.33        89.60963
254.79        81.07753
255.25        74.64494
255.70        69.41909
256.16         65.8669
256.62        63.79353
257.07        63.24877
257.53        64.00613
257.99        64.98579
258.44        65.60582
258.90        65.90379
259.35        65.54773
259.81         65.0424
260.27        64.15981
260.72        62.72986
261.18        61.19118
261.63        59.38188
262.09        57.87009
262.55        56.85448
263.00        56.14127
263.46        55.69455
263.91        55.04981
264.37        53.95217
264.83        52.36769
265.28        50.51677
265.74        48.68888
266.19        47.00067
266.65        45.61725
267.11        44.38552
267.56        43.42526
268.02        43.03014
268.47         43.1335
268.93        43.59277
269.38        44.01053
269.84        43.68394
270.30        42.50247
270.75        40.69663
271.21        38.67776
271.66        36.95697
272.12        35.75571
272.57        34.86658
273.03        34.27608
273.48        33.89721
273.94        33.67446
274.39        33.59995
274.85        33.51708
275.31        33.12953
275.76        32.39785
276.22        31.45226
276.67        30.45276
277.13        29.73634
277.58         29.2987
278.04        29.07712
278.49        28.89138
278.95         28.5831
279.40        28.07126
279.86        27.47017
280.31        26.83802
280.77        26.33539
281.22        25.94287
281.68         25.6573
282.13        25.36089
282.59        24.97215
283.04        24.46072
283.50        23.91705
283.95        23.42635
284.41        23.16761
284.86        23.15348
285.32        23.31794
285.77        23.57293
286.22        23.83011
286.68        24.05928
287.13        24.27233
287.59        24.43656
288.04        24.45619
288.50        24.35632
288.95        24.12679
289.41        23.92502
289.86        23.91035
290.32        24.13128
290.77         24.5353
291.22        24.99249
291.68        25.28636
292.13        25.39058
292.59        25.42869
293.04        25.54629
293.50        26.01669
293.95        26.88141
294.40        28.04976
294.86        29.41289
295.31        30.80657
295.77        32.15198
296.22        33.47911
296.68        34.76609
297.13         35.9695
297.58        37.12579
298.04        38.27342
298.49        39.48693
298.95        40.92487
299.40        42.58348
299.85        44.40158
300.31        46.34285
300.76        48.34277
301.21        50.39312
301.67        52.53308
302.12         54.6438
302.58        56.55611
303.03        58.20332
303.48        59.65702
303.94        61.15768
304.39        62.97861
304.84        65.23068
305.30         67.8085
305.75         70.5059
306.20        73.02005
306.66        75.24586
307.11        77.20494
307.57        78.99239
308.02        80.64787
308.47        82.24841
308.93        83.78286
309.38         85.2274
309.83        86.64434
310.29        88.06394
310.74        89.47567
311.19        90.88026
311.65        92.24456
312.10        93.53239
312.55        94.73888
313.00         95.9141
313.46        97.14384
313.91        98.41764
314.36        99.70416
314.82         100.835
315.27        101.5586
315.72        101.8226
316.18        101.7514
316.63        101.5435
317.08        101.5737
317.53        101.9402
317.99        102.5497
318.44        103.2606
318.89        103.8008
319.35        104.0929
319.80        104.2459
320.25         104.356
320.70        104.5778
321.16        104.9454
321.61        105.4093
322.06        105.9375
322.51        106.5068
322.97        107.0613
323.42        107.6409
323.87        108.1531
324.32        108.4702
324.78        108.5598
325.23        108.4939
325.68        108.3507
326.13        108.2891
326.59        108.3461
327.04         108.543
327.49        108.8456
327.94        109.2145
328.39        109.6194
328.85        110.0207
329.30        110.4788
329.75        110.9235
330.20        111.3377
330.66        111.7013
331.11        112.0291
331.56        112.2193
332.01        112.2837
332.46        112.2499
332.92        112.2587
333.37        112.6601
333.82        113.4912
334.27        114.6908
334.72        116.0191
335.17        117.0387
335.63        117.5806
336.08        117.7942
336.53        117.8745
336.98        118.2227
337.43        118.9523
337.88        119.9477
338.34        120.9711
338.79        121.7206
339.24        122.0645
339.69        122.1149
340.14        122.0949
340.59        122.3478
341.05        122.9459
341.50        123.7937
341.95        124.6716
342.40        125.2307
342.85        125.3971
343.30        125.3108
343.75        125.1877
344.20        125.3538
344.66        125.8853
345.11        126.6595
345.56        127.5506
346.01        128.3401
346.46        128.9362
346.91        129.4127
347.36        129.7644
347.81        129.9821
348.26        130.0975
348.72        130.1165
349.17         130.121
349.62         130.325
350.07        130.7371
350.52        131.2594
350.97        131.7407
351.42        131.9193
351.87        131.7412
352.32        131.3468
352.77        130.7504
353.22        129.9799
353.67        129.1011
354.13        128.1243
354.58         127.283
355.03        127.0584
355.48        127.4949
355.93        128.4872
356.38        129.4847
356.83         129.557
357.28        128.5247
357.73         126.685
358.18        124.7539
358.63        123.7973
359.08        124.0107
359.53        125.0492
359.98        126.2712
360.43        126.6043
360.88        125.7617
361.33        124.1131
361.78        122.2038
362.23        120.8109
362.68        120.1238
363.13        119.8872
363.58        119.7662
364.03        119.2558
364.48         118.218
364.93        116.8276
365.38         115.372
365.83        114.2517
366.28        113.5539
366.73          113.16
367.18        112.7642
367.63        111.8991
368.08        110.5039
368.53         108.771
368.98        107.1088
369.43        106.0969
369.88        105.8261
370.33        106.0961
370.78        106.5157
371.23        106.4101
371.68         105.593
372.13        104.3013
372.58        102.8585
373.03        101.7414
373.48         101.068
373.93        100.6562
374.38        100.3859
374.83        100.0792
375.28        99.65724
375.72        99.18494
376.17        98.64017
376.62        97.90721
377.07        96.99468
377.52        95.92706
377.97         94.8692
378.42        94.09598
378.87        93.65929
379.32         93.4794
379.77        93.38224
380.22        93.08591
380.67        92.52711
381.11        91.80736
381.56        91.04555
382.01        90.46239
382.46        90.12549
382.91        89.94952
383.36        89.86816
383.81        89.78602
384.26        89.65076
384.71        89.48296
385.15        89.23551
385.60        88.88524
386.05        88.42122
386.50         87.8599
386.95        87.25307
387.40        86.69765
387.85        86.22103
388.29        85.74603
388.74        85.36158
389.19        84.98774
389.64        84.61031
390.09         84.2413
390.54        83.84824
390.98        83.40246
391.43        82.97625
391.88        82.45543
392.33        81.93275
392.78        81.80113
393.23        81.93623
393.67        81.65268
394.12        81.09299
394.57        80.83907
395.02        81.04335
395.47        80.64429
395.91        79.85126
396.36         79.5127
396.81        79.68214
397.26        79.91009
397.71        80.02731
398.15        80.00007
398.60         79.8113
399.05        79.22591
399.50         78.4827
399.95        78.12137
400.39        78.21239
400.84        78.41648
401.29         78.5649
401.74        78.58336
402.18        78.33927
402.63        77.55923
403.08        76.51662
403.53        75.89503
403.97        75.76579
404.42        75.82194
404.87        75.93076
405.32        75.93219
405.76        75.75655
406.21        75.65234
406.66        75.56571
407.11        75.11641
407.55        74.53002
408.00        74.37868
408.45         74.6826
408.90        75.26355
409.34        75.75082
409.79        75.27428
410.24        74.09703
410.68        73.53845
411.13        73.69588
411.58        73.78266
412.03        73.69706
412.47          73.667
412.92        73.64028
413.37        73.57698
413.81        73.49405
414.26        73.47596
414.71        73.51295
415.15        73.59901
415.60        73.68762
416.05        73.75875
416.49        73.79862
416.94        73.80289
417.39        73.77403
417.83        73.69753
418.28         73.5874
418.73        73.47208
419.17        73.34771
419.62        73.21163
420.07        73.05936
420.51        72.86958
420.96         72.7673
421.41        72.77573
421.85         72.8608
422.30        73.29778
422.74         73.8372
423.19        73.62253
423.64        72.84647
424.08        72.88113
424.53        73.66507
424.98        73.90101
425.42        73.48705
425.87        73.46449
426.31        73.80984
426.76        73.28404
427.21        72.27285
427.65        72.84801
428.10        74.55051
428.54        74.93197
428.99        74.05048
429.44        73.08012
429.88         72.4368
430.33        73.15231
430.77        74.61592
431.22        74.48753
431.66        72.95895
432.11        72.23238
432.56        72.45898
433.00        72.95773
433.45        73.58006
433.89         73.3429
434.34        72.31587
434.78        74.44752
435.23        74.06531
435.67        74.19848
436.12        73.45335
436.57        73.82248
437.01        75.09602
437.46        75.60007
437.90        75.31649
438.35        74.60384
438.79        74.78796
439.24        74.43613
439.68        74.02737
440.13        74.07583
440.57        74.58669
441.02        74.94918
441.46        75.02893
441.91        75.52415
442.35        76.20927
442.80        75.60999
443.24        75.42928
443.69        75.17078
444.13        75.34167
444.58         75.4522
445.02        75.45594
445.47        75.53104
445.91        75.69262
446.36        75.92339
446.80        76.17669
447.24        76.64346
447.69        76.95069
448.13        76.91911
448.58        76.58054
449.02        76.46997
449.47        76.62714
449.91        76.64065
450.36        76.53755
450.80        76.54906
451.25        76.66629
451.69        76.69124
452.13        76.61677
452.58        76.51309
453.02        76.35944
453.47        76.19057
453.91        76.00928
454.36        75.73915
454.80        75.43391
455.24        75.37125
455.69         75.4533
456.13        75.28828
456.58        74.99644
457.02        74.66787
457.46        74.45739
457.91        75.19284
458.35        75.81016
458.79        75.94228
459.24        75.30115
459.68        74.55699
460.13        74.06322
460.57        72.91602
461.01        73.32744
461.46        73.24409
461.90        73.47478
462.34        73.83527
462.79        72.53439
463.23        72.69173
463.68        73.52365
464.12        73.77389
464.56        73.38308
465.01        73.00269
465.45        72.85802
465.89        72.97843
466.34        73.24116
466.78        73.11181
467.22        72.16795
467.67        71.94271
468.11         72.0666
468.55        72.24273
468.99        72.29248
469.44        72.33397
469.88        72.35149
470.32        72.30943
470.77        72.22845
471.21        72.16013
471.65        72.10213
472.10        72.04968
472.54         71.9961
472.98        71.93802
473.42        71.86108
473.87        71.87143
474.31        71.90698
474.75        71.65327
475.20        71.18196
475.64         71.1761
476.08        71.62484
476.52        71.21872
476.97        70.90321
477.41        71.33375
477.85        70.34084
478.29        70.90494
478.74         71.3036
479.18         71.3125
479.62        70.71395
480.06        70.51076
480.50        70.76131
480.95        69.97424
481.39        70.65977
481.83        69.57996
482.27        70.05418
482.72         70.2114
483.16        70.18073
483.60        70.23168
484.04        70.73308
484.48        70.75661
484.93        70.65314
485.37        71.52915
485.81        71.12272
486.25        71.69635
486.69         71.5718
487.14        69.36749
487.58        68.67465
488.02        70.51711
488.46        70.23862
488.90        69.29437
489.34        69.97269
489.79        70.30035
490.23        69.87716
490.67        69.61727
491.11        69.27699
491.55        69.40382
491.99        69.85046
492.43        69.96795
492.88        69.71246
493.32        69.48724
493.76         69.3745
494.20        69.32979
494.64        69.36433
495.08        69.46896
495.52         69.6094
495.96        69.64964
496.41        69.56683
496.85        69.59478
497.29        69.67918
497.73        69.22021
498.17        69.02048
498.61        68.64015
499.05        68.45518
499.49        68.84314
499.93        69.58199
500.37        69.77688
500.82        69.46074
501.26        69.33105
501.70        69.48875
502.14        69.98164
502.58        69.48855
503.02         69.4414
503.46        69.50649
503.90        68.91325
504.34        68.99973
504.78        68.90327
505.22        69.01046
505.66         69.3086
506.10        69.68044
506.54        69.68328
506.98        69.21415
507.42        69.21424
507.86        68.41566
508.30        68.22409
508.74           68.28
509.18        68.53567
509.62        68.87648
510.06        69.14189
510.50        69.28021
510.94        69.32217
511.38        69.29638
511.82        69.24697
512.26        69.19048
512.70         69.1018
513.14        68.98575
513.58        68.85959
514.02        68.73178
514.46        68.61584
514.90        68.51054
515.34        68.40432
515.78        68.30168
516.22        68.21219
516.66        68.15613
517.10        68.16128
517.54        68.22874
517.98        68.34397
518.42        68.47729
518.86        68.57895
519.30        68.62978
519.74        68.64288
520.18        68.63134
520.62        68.59908
521.06        68.56244
521.50        68.56186
521.93        68.57248
522.37        68.50018
522.81        68.34667
523.25         68.1683
523.69        68.00028
524.13         67.8779
524.57        67.81844
525.01        67.81293
525.45        67.85474
525.89        67.93349
526.32        68.03452
526.76        68.14878
527.20        68.25591
527.64        68.32819
528.08        68.35678
528.52        68.35346
528.96        68.31135
529.40        68.22356
529.83        68.09415
530.27        67.94788
530.71        67.83321
531.15        67.84034
531.59        67.98119
532.03        68.22227
532.46        68.47665
532.90        68.62538
533.34        68.63573
533.78        68.49112
534.22         68.2602
534.66        68.16891
535.09        68.18134
535.53        68.02251
535.97        67.72192
536.41        67.57053
536.85        67.58403
537.28        67.61174
537.72        67.63192
538.16        67.66694
538.60        67.70142
539.04        67.72431
539.47        67.73415
539.91        67.76181
540.35        67.79539
540.79        67.86814
541.22        67.95027
541.66        67.88403
542.10        67.83698
542.54        67.70113
542.97        67.56383
543.41        67.50913
543.85        67.53992
544.29         67.6312
544.72         67.7348
545.16        67.80254
545.60        67.80274
546.04        67.77769
546.47        67.73676
546.91        67.64104
547.35        67.54201
547.79        67.56002
548.22         67.6232
548.66        67.64474
549.10        67.61234
549.53        67.29527
549.97        67.32479
550.41        67.29605
550.84        67.39231
551.28        67.59972
551.72        67.84042
552.15        67.91877
552.59        67.84359
553.03        67.75862
553.46         67.6814
553.90        67.68279
554.34        67.77462
554.77        67.79893
555.21        67.69001
555.65        68.10493
556.08        67.71674
556.52        67.60558
556.96        67.41535
557.39        67.14112
557.83        66.86079
558.27        66.98546
558.70         66.9356
559.14        67.26859
559.57        67.19187
560.01         67.4297
560.45        67.68158
560.88        67.62522
561.32        67.36765
561.75        67.09435
562.19         66.9741
562.63        67.23983
563.06        67.65041
563.50         67.7833
563.93        66.76282
564.37        66.56371
564.80         66.8972
565.24        67.17368
565.68        67.26892
566.11        67.30359
566.55        67.28955
566.98        67.13066
567.42        66.95313
567.85        66.97174
568.29        67.19846
568.72        67.34949
569.16        67.45434
569.60        67.55987
570.03        67.59526
570.47        67.60877
570.90         67.8707
571.34        67.21632
571.77        67.43556
572.21        67.32554
572.64        67.49166
573.08         67.1096
573.51        67.30161
573.95         68.1159
574.38        67.34521
574.82        67.62374
