SpectraSmart Spectrum 2.9.0.0
--------- Device Information -----------
Spectrum Name :  反射率_0
Saving Time :  2024/05/01 16:28:47
Spectro-Module Model Name : SE2030-DUVN
Spectro-Module Serial Number : OS361AC55029948
Wavelength Start : 200
Wavelength End : 1025
Wavelength Unit : Wavelength(nm)
Spectrum Unit : Reflectance(%)
-----------Spectrum Setting ------------
Integration Time : 20ms
Average : 10
Boxcar : 0
Background removal :  enabled
linearity correction :  enabled
SC :  disabled
Intensity correction :  disabled
DWT denoise :  enabled
savitzky-golay :  disabled
FFT :  disabled
Running average :  disabled
Kalman :  disabled
High pass :  disabled
---------------BEGIN--------------------
Wavelength(nm)             Reflectance(%)
200.29               0
200.75        14.97346
201.21        193.6223
201.67       -91.76395
202.13       -21.06839
202.58        9.841894
203.04         31.8943
203.50        46.89709
203.96        54.25039
204.42        55.97601
204.88        51.04063
205.34       -87.85719
205.80        63.64994
206.26        33.39464
206.72       -20.30596
207.18       -288.2087
207.64        485.0393
208.10        215.3998
208.55        150.4924
209.01        117.7771
209.47        97.47639
209.93        83.31654
210.39        70.19803
210.85        60.40048
211.31        60.13251
211.77        88.15318
212.23       -199.6821
212.69       -29.92539
213.14       -16.58755
213.60       -14.87242
214.06        28.59459
214.52        3.544831
214.98         6.60741
215.44        16.21285
215.90         46.4064
216.36        503.6309
216.81        -196.895
217.27       -231.0248
217.73        410.0031
218.19        65.35423
218.65        30.26699
219.11        14.72274
219.57       -8.643188
220.02       -77.87556
220.48       -11.64146
220.94        22.89238
221.40        30.80266
221.86        33.52348
222.32        34.67454
222.77        35.37473
223.23        35.90132
223.69        35.24992
224.15        31.66104
224.61        26.92064
225.06        23.00356
225.52        21.10768
225.98        21.16338
226.44        22.79189
226.90        26.03306
227.36        30.42084
227.81        32.90204
228.27        31.96442
228.73        29.43101
229.19         26.9468
229.65        25.26109
230.10        24.17007
230.56        23.50472
231.02        23.17128
231.48        23.24129
231.93        23.67904
232.39        24.35148
232.85        25.44192
233.31        27.23474
233.77        29.51698
234.22        32.08585
234.68        34.27036
235.14        35.43957
235.60        35.58673
236.05        34.81702
236.51        33.64273
236.97        34.01882
237.43        37.24688
237.88        42.78342
238.34        48.57743
238.80         53.0938
239.26        56.41478
239.71        59.30099
240.17        61.44224
240.63        61.80144
241.08        59.89171
241.54        56.78617
242.00        55.14589
242.46        57.33091
242.91         64.9697
243.37        80.13169
243.83        106.9583
244.28        131.8644
244.74        132.6878
245.20        120.6331
245.66        108.6987
246.11        100.8809
246.57        95.50471
247.03        89.35265
247.48        78.52454
247.94        58.57721
248.40        33.80782
248.85        11.95327
249.31        4.660439
249.77        15.67819
250.22        35.38606
250.68        55.89166
251.14        72.20653
251.59        83.10986
252.05        91.37833
252.51        100.8202
252.96        118.6154
253.42        153.4977
253.88        171.3656
254.33        151.6473
254.79        131.1928
255.25        116.2923
255.70        104.3225
256.16        95.59657
256.62        89.34713
257.07        85.49052
257.53        83.99209
257.99        83.40928
258.44        82.95482
258.90        82.69411
259.35        82.03352
259.81        81.37874
260.27        80.43931
260.72        78.99624
261.18         77.4709
261.63        75.61665
262.09        73.89961
262.55        72.27987
263.00        70.62221
263.46        69.10776
263.91        67.47171
264.37        65.80592
264.83        64.06133
265.28        62.29053
265.74        60.65044
266.19        59.02612
266.65        57.54797
267.11        56.12671
267.56        54.90792
268.02        54.23471
268.47        54.05956
268.93        54.21885
269.38        54.34773
269.84        53.81379
270.30        52.51155
270.75        50.64733
271.21        48.57967
271.66        46.71882
272.12        45.26863
272.57        44.04723
273.03        43.07469
273.48        42.30914
273.94        41.72645
274.39        41.29584
274.85        40.89704
275.31        40.25831
275.76         39.3424
276.22        38.30313
276.67         37.2268
277.13        36.37004
277.58        35.70833
278.04         35.1936
278.49        34.75966
278.95        34.43835
279.40        34.14706
279.86        33.93073
280.31        33.62819
280.77        33.12312
281.22        32.36642
281.68        31.48031
282.13        30.57506
282.59        29.90318
283.04        29.48044
283.50        29.30014
283.95        29.23612
284.41        29.14899
284.86        28.99202
285.32        28.82678
285.77        28.76501
286.22        29.01348
286.68        29.58122
287.13        30.35244
287.59        31.11398
288.04        31.47957
288.50        31.39819
288.95        30.96276
289.41         30.4527
289.86        30.17583
290.32          30.247
290.77        30.57551
291.22        31.02959
291.68        31.38938
292.13        31.62097
292.59        31.85903
293.04        32.25574
293.50        33.08654
293.95        34.38069
294.40         36.0391
294.86        37.89382
295.31         39.6919
295.77        41.33939
296.22        42.87772
296.68        44.37548
297.13        45.92591
297.58         47.5919
298.04        49.36894
298.49        51.21822
298.95        53.12315
299.40          55.035
299.85        56.95089
300.31        58.95357
300.76        61.14201
301.21        63.55375
301.67        66.17891
302.12        68.79052
302.58        71.05889
303.03        72.86703
303.48        74.33762
303.94        75.82938
304.39        77.75774
304.84        80.26668
305.30        83.19875
305.75        86.22163
306.20         88.8503
306.66        90.95744
307.11        92.63302
307.57        94.11554
308.02         95.6285
308.47        97.29453
308.93        99.03477
309.38        100.7246
309.83        102.2853
310.29        103.7063
310.74        105.0176
311.19        106.2647
311.65        107.4778
312.10        108.6413
312.55        109.7352
313.00        110.8003
313.46        111.9119
313.91        113.0579
314.36        114.2173
314.82         115.244
315.27        115.9178
315.72        116.1881
316.18        116.1728
316.63        116.0209
317.08         116.047
317.53        116.3368
317.99         116.808
318.44        117.3727
318.89        117.8442
319.35         118.166
319.80        118.4266
320.25        118.6536
320.70        118.8967
321.16        119.1592
321.61        119.4121
322.06        119.7039
322.51        120.1472
322.97        120.7119
323.42        121.4113
323.87        122.0272
324.32        122.2265
324.78        121.9445
325.23        121.3373
325.68        120.6608
326.13        120.3552
326.59        120.5246
327.04        121.1098
327.49        121.9233
327.94        122.6663
328.39        123.2166
328.85        123.5894
329.30        123.9359
329.75        124.3263
330.20        124.7914
330.66        125.2529
331.11        125.6776
331.56        125.8775
332.01         125.845
332.46        125.6514
332.92        125.4905
333.37        125.8002
333.82        126.6415
334.27        127.9307
334.72        129.3838
335.17        130.4911
335.63        131.0449
336.08        131.1994
336.53        131.1761
336.98         131.429
337.43        132.0819
337.88        133.0143
338.34        133.9092
338.79        134.3501
339.24        134.1982
339.69        133.6182
340.14        133.0103
340.59        132.9851
341.05        133.6707
341.50        134.9043
341.95        136.2584
342.40         137.044
342.85        137.0993
343.30        136.6487
343.75        136.1142
344.20        136.1517
344.66        136.9009
345.11        138.1273
345.56        139.4845
346.01        140.3958
346.46        140.7009
346.91        140.6255
347.36         140.383
347.81        140.2876
348.26        140.4454
348.72        140.7344
349.17        141.1274
349.62        141.6731
350.07        142.3033
350.52        142.9712
350.97        143.4728
351.42        143.4609
351.87        142.8943
352.32        141.9433
352.77        140.7727
353.22        139.6486
353.67         138.687
354.13         137.841
354.58        137.2076
355.03        137.0552
355.48        137.3723
355.93         138.113
356.38        138.8164
356.83        138.7058
357.28        137.6412
357.73        135.8571
358.18        133.9877
358.63        132.9851
359.08         133.014
359.53        133.7663
359.98        134.6581
360.43        134.7151
360.88        133.6878
361.33        131.9253
361.78        129.9262
362.23        128.3923
362.68        127.4999
363.13        127.0238
363.58        126.6842
364.03        126.0651
364.48         125.042
364.93        123.7438
365.38        122.3988
365.83        121.3191
366.28        120.5647
366.73        120.0469
367.18        119.4702
367.63        118.3883
368.08        116.7647
368.53        114.7926
368.98        112.9236
369.43         111.799
369.88        111.5163
370.33        111.8624
370.78        112.3931
371.23        112.3348
371.68        111.4702
372.13        110.0597
372.58        108.4732
373.03        107.2603
373.48        106.5577
373.93        106.1606
374.38        105.9149
374.83          105.59
375.28        105.0924
375.72         104.501
376.17        103.8314
376.62        103.0196
377.07        102.0807
377.52        101.0189
377.97        99.95303
378.42         99.0863
378.87        98.46551
379.32        98.04932
379.77        97.71506
380.22        97.25612
380.67        96.62814
381.11        95.90257
381.56        95.18469
382.01        94.67353
382.46        94.41507
382.91        94.32433
383.36        94.29582
383.81        94.17358
384.26        93.90302
384.71        93.53074
385.15         93.0657
385.60        92.57701
386.05        92.08105
386.50        91.57008
386.95        91.07411
387.40        90.65086
387.85        90.30533
388.29        89.96231
388.74        89.69737
389.19        89.40228
389.64        89.05711
390.09        88.67987
390.54        88.25045
390.98        87.73933
391.43         87.2253
391.88        86.66072
392.33        86.13316
392.78        85.86807
393.23        85.81506
393.67        85.66171
394.12        85.43422
394.57        85.23888
395.02        85.02973
395.47        84.59492
395.91        84.04399
396.36         83.7095
396.81        83.63805
397.26        83.71809
397.71        83.80032
398.15        83.66639
398.60        83.36832
399.05        82.86136
399.50         82.3344
399.95        82.18053
400.39        82.38812
400.84        82.50759
401.29        82.40677
401.74        82.16409
402.18         81.7506
402.63         81.0342
403.08        80.24624
403.53        79.78942
403.97        79.71532
404.42        79.91309
404.87        80.18034
405.32        80.19338
405.76        79.87196
406.21        79.39694
406.66        78.89223
407.11        78.47672
407.55        78.29472
408.00        78.39774
408.45        78.68853
408.90         78.9847
409.34         79.0687
409.79        78.59085
410.24        77.75272
410.68        77.27582
411.13        77.24445
411.58         77.2543
412.03        77.23967
412.47        77.27959
412.92        77.30983
413.37        77.32572
413.81        77.29377
414.26        77.23445
414.71        77.12984
415.15        76.97002
415.60        76.73495
416.05        76.60973
416.49        76.38406
416.94        76.23437
417.39        76.10924
417.83        76.02334
418.28        75.97711
418.73        75.97643
419.17         75.9881
419.62        75.95568
420.07        75.86121
420.51        75.70087
420.96        75.56449
421.41         75.4702
421.85        75.39763
422.30        75.51131
422.74        75.71645
423.19        75.58414
423.64        75.18445
424.08        75.37952
424.53        76.12122
424.98        75.77936
425.42        75.84962
425.87        75.60993
426.31        75.60693
426.76        75.15933
427.21        74.56181
427.65        75.21006
428.10        76.61013
428.54        76.76733
428.99         75.8082
429.44        74.78152
429.88        74.06451
430.33         74.7612
430.77        76.11978
431.22        75.79379
431.66        74.05865
432.11        73.52103
432.56        74.25863
433.00        74.99278
433.45        75.49349
433.89        74.74018
434.34        74.31377
434.78        75.38812
435.23        75.01118
435.67        75.08632
436.12        74.77431
436.57        75.16748
437.01        76.08069
437.46        76.50269
437.90        76.40125
438.35         75.7773
438.79        75.89041
439.24         75.4397
439.68        74.91902
440.13        74.90988
440.57         75.4118
441.02        75.69752
441.46        75.63181
441.91        76.01781
442.35        76.69296
442.80        75.94698
443.24        76.05038
443.69        75.81718
444.13        75.91966
444.58        75.93597
445.02        75.85679
445.47        75.95522
445.91        76.21099
446.36         76.4295
446.80        76.55309
447.24        77.04762
447.69        77.12897
448.13        77.30067
448.58        77.34666
449.02        77.27799
449.47         77.1696
449.91        77.11111
450.36        77.14973
450.80        77.22759
451.25        77.30157
451.69         77.2531
452.13        77.07259
452.58        76.81052
453.02        76.50851
453.47        76.28253
453.91         76.1487
454.36        76.05781
454.80        75.97057
455.24         75.9183
455.69        75.84652
456.13        75.58225
456.58         75.2575
457.02        74.99896
457.46        74.93036
457.91        75.28484
458.35        75.82573
458.79        75.80299
459.24        75.17509
459.68        74.48329
460.13        74.07638
460.57        72.98225
461.01        73.37709
461.46        73.50605
461.90        73.76184
462.34        73.99438
462.79        73.46806
463.23          73.383
463.68        73.48813
464.12        73.44739
464.56        73.24786
465.01        73.04214
465.45        72.81654
465.89        72.88644
466.34         73.1143
466.78         72.9449
467.22        72.21033
467.67        72.06038
468.11        72.19165
468.55        72.41125
468.99        72.53852
469.44        72.62599
469.88        72.65076
470.32        72.59634
470.77        72.49045
471.21         72.3951
471.65        72.31413
472.10        72.24516
472.54        72.17141
472.98        72.07465
473.42        71.94664
473.87        71.89309
474.31         71.8607
474.75        71.64018
475.20        71.33395
475.64        71.37247
476.08        71.69215
476.52        71.73103
476.97        71.42879
477.41        71.35486
477.85        71.07885
478.29        70.94569
478.74        71.42763
479.18        71.45102
479.62         70.8372
480.06        70.69986
480.50        70.92846
480.95        70.23706
481.39        71.13168
481.83        69.91019
482.27        70.35162
482.72          70.683
483.16        70.39466
483.60        70.20982
484.04        70.76804
484.48        70.86626
484.93        71.00387
485.37        71.36348
485.81        71.04259
486.25        71.54121
486.69        71.06458
487.14        68.75621
487.58        68.43246
488.02        70.33836
488.46        69.71987
488.90        69.61559
489.34        70.69179
489.79        70.10545
490.23        70.60504
490.67        70.15968
491.11        69.66612
491.55        69.75613
491.99        70.31898
492.43        70.47012
492.88        70.12852
493.32        69.87265
493.76        69.76447
494.20        69.69088
494.64         69.6683
495.08        69.64482
495.52        69.64163
495.96        69.78336
496.41        69.98909
496.85        70.09515
497.29        70.01498
497.73        69.65677
498.17        69.17088
498.61        68.96222
499.05        69.10083
499.49        69.39049
499.93        69.67986
500.37        69.76563
500.82        69.69991
501.26        69.43813
501.70        69.76518
502.14        69.77485
502.58        69.66219
503.02        69.51966
503.46        69.36311
503.90        69.14565
504.34         68.9604
504.78        68.97643
505.22        69.20048
505.66        69.62275
506.10        70.08943
506.54        70.19461
506.98        69.90297
507.42        69.73286
507.86        69.07022
508.30        68.80897
508.74        68.78506
509.18        68.94033
509.62         69.1813
510.06        69.37003
510.50        69.46075
510.94        69.49063
511.38        69.48372
511.82        69.47342
512.26         69.4685
512.70        69.44007
513.14        69.38673
513.58        69.31725
514.02        69.23456
514.46        69.15098
514.90        69.05504
515.34        68.92236
515.78        68.75946
516.22        68.58281
516.66        68.43893
517.10        68.39593
517.54        68.46382
517.98        68.61803
518.42        68.80488
518.86        68.93497
519.30        68.98025
519.74        68.96077
520.18        68.90691
520.62        68.87219
521.06        68.86959
521.50        68.87504
521.93        68.87702
522.37        68.84892
522.81        68.79092
523.25        68.72411
523.69        68.64452
524.13        68.53891
524.57        68.41771
525.01        68.29126
525.45        68.20228
525.89        68.21822
526.32        68.34315
526.76        68.54431
527.20         68.7662
527.64        68.92234
528.08        68.98355
528.52        68.97762
528.96          68.911
529.40         68.7976
529.83        68.64864
530.27        68.48054
530.71        68.33804
531.15        68.30775
531.59        68.40307
532.03        68.59759
532.46        68.81092
532.90        68.93237
533.34        68.93065
533.78        68.78336
534.22        68.55786
534.66        68.47845
535.09        68.50632
535.53        68.36744
535.97        68.07922
536.41        67.91499
536.85        67.89096
537.28        67.86272
537.72        67.83494
538.16        67.87421
538.60        67.97068
539.04        68.09097
539.47        68.20435
539.91        68.30453
540.35         68.3643
540.79         68.4162
541.22        68.44352
541.66        68.32629
542.10        68.24307
542.54        68.06433
542.97        67.89282
543.41        67.84154
543.85        67.91508
544.29         68.0836
544.72        68.25764
545.16        68.33319
545.60        68.26943
546.04        68.09592
546.47        67.88306
546.91        67.75811
547.35        67.76188
547.79        67.84174
548.22         67.8944
548.66         67.9088
549.10        67.86481
549.53        67.47038
549.97        67.40419
550.41        67.37161
550.84        67.56374
551.28        67.93674
551.72        68.36213
552.15        68.51895
552.59        68.35756
553.03        68.30275
553.46        67.87556
553.90        67.77402
554.34        67.87314
554.77        67.97732
555.21        67.96273
555.65        68.40811
556.08        67.99929
556.52        67.85117
556.96        67.63576
557.39        67.50343
557.83        67.49706
558.27        67.48027
558.70        67.44163
559.14        67.70014
559.57        67.63609
560.01         67.8314
560.45         67.9883
560.88         67.8765
561.32        67.61243
561.75        67.26086
562.19         67.0047
562.63        67.33322
563.06        68.01056
563.50        67.84866
563.93        66.98725
564.37        66.72441
564.80        67.06969
565.24        67.32877
565.68        67.39661
566.11        67.43176
566.55        67.43644
566.98        67.34254
567.42        67.25339
567.85        67.26092
568.29        67.40331
568.72        67.62112
569.16        67.92538
569.60        68.02448
570.03        67.82317
570.47        67.88481
570.90        68.20689
571.34        67.11024
571.77        67.62292
572.21        67.50053
572.64        67.68969
573.08         67.2567
573.51        67.54274
573.95         67.9197
574.38        67.23324
574.82        67.37882
