SpectraSmart Spectrum 2.9.0.0
--------- Device Information -----------
Spectrum Name :  反射率_0
Saving Time :  2024/05/01 16:10:39
Spectro-Module Model Name : SE2030-DUVN
Spectro-Module Serial Number : OS361AC55029948
Wavelength Start : 200
Wavelength End : 1025
Wavelength Unit : Wavelength(nm)
Spectrum Unit : Reflectance(%)
-----------Spectrum Setting ------------
Integration Time : 20ms
Average : 10
Boxcar : 0
Background removal :  enabled
linearity correction :  enabled
SC :  disabled
Intensity correction :  disabled
DWT denoise :  enabled
savitzky-golay :  disabled
FFT :  disabled
Running average :  disabled
Kalman :  disabled
High pass :  disabled
---------------BEGIN--------------------
Wavelength(nm)             Reflectance(%)
200.29               0
200.75        64.92676
201.21        470.8027
201.67       -238.5861
202.13       -88.63419
202.58        -32.5395
203.04        3.528634
203.50        26.91733
203.96        38.17319
204.42        40.26359
204.88        29.99474
205.34       -308.3542
205.80        98.09375
206.26        71.37233
206.72         51.4761
207.18       -14.50665
207.64        152.9991
208.10        86.94633
208.55         69.1946
209.01        58.81127
209.47        52.11398
209.93        47.16266
210.39        41.22602
210.85         35.1861
211.31        30.39496
211.77        24.48555
212.23        41.96627
212.69        33.65378
213.14        46.25177
213.60        99.68972
214.06       -487.5987
214.52       -80.24644
214.98       -52.50632
215.44       -44.71257
215.90       -43.47384
216.36       -81.64836
216.81       -24.03646
217.27       -33.66818
217.73       -9.958062
218.19       -27.10942
218.65       -33.11894
219.11       -42.56379
219.57       -68.39283
220.02       -143.5171
220.48       -36.39825
220.94        2.664465
221.40        10.04768
221.86          13.154
222.32        16.78994
222.77        22.29667
223.23        30.47502
223.69        40.58495
224.15        44.68573
224.61        40.05931
225.06        32.64354
225.52         27.2871
225.98        25.36167
226.44        26.16187
226.90        28.92264
227.36        33.07267
227.81        35.58629
228.27        34.85061
228.73         32.7679
229.19        30.66518
229.65        29.01982
230.10        27.69054
230.56        26.56964
231.02        25.83639
231.48        26.23465
231.93        27.85655
232.39        30.15846
232.85        32.86028
233.31        35.91779
233.77        39.17591
234.22        42.51586
234.68        45.59918
235.14         48.2972
235.60        50.88289
236.05        53.86125
236.51        57.78192
236.97        63.03789
237.43        68.78605
237.88        73.75337
238.34        76.84097
238.80         78.9119
239.26        80.69765
239.71         82.6381
240.17        83.67703
240.63        81.42806
241.08        75.35731
241.54        68.27455
242.00        64.71367
242.46         67.7575
242.91        79.13777
243.37        102.2483
243.83        140.6421
244.28        168.1359
244.74         157.054
245.20        130.7591
245.66        109.0557
246.11        96.33324
246.57        88.87726
247.03        82.44268
247.48        72.76458
247.94        53.79013
248.40         28.2014
248.85        4.251883
249.31       -4.630627
249.77        7.056206
250.22        28.78908
250.68        51.41565
251.14         69.0431
251.59        79.72144
252.05        86.16582
252.51        91.69923
252.96        102.1817
253.42        134.3019
253.88        170.3448
254.33        167.8399
254.79        154.7095
255.25        143.6656
255.70        134.0079
256.16        126.8058
256.62         120.533
257.07        114.4868
257.53        110.1024
257.99        106.8797
258.44        104.7126
258.90        104.4471
259.35        105.1356
259.81        106.7063
260.27          108.39
260.72        109.2907
261.18        109.5893
261.63        108.9737
262.09        108.0282
262.55        106.6365
263.00        104.7123
263.46        102.6655
263.91        100.2449
264.37        97.79874
264.83        95.31098
265.28        92.81982
265.74        90.61244
266.19        88.58791
266.65        86.91161
267.11        85.43602
267.56        84.23863
268.02        83.58125
268.47        83.36654
268.93        83.46185
269.38        83.46711
269.84        82.71991
270.30        81.11848
270.75        78.86008
271.21        76.40812
271.66        74.30389
272.12        72.77129
272.57        71.55175
273.03        70.54629
273.48        69.48631
273.94        68.34901
274.39        67.17367
274.85        65.98985
275.31        64.66861
275.76        63.19829
276.22        61.71354
276.67        60.24201
277.13        59.04093
277.58        58.02801
278.04        57.19034
278.49        56.39762
278.95        55.64308
279.40        54.83049
279.86        54.06181
280.31        53.22336
280.77         52.3309
281.22         51.3192
281.68         50.3089
282.13        49.31243
282.59        48.50661
283.04        47.86456
283.50        47.42029
283.95        47.10095
284.41        46.88694
284.86         46.7321
285.32        46.67463
285.77        46.71156
286.22        46.92939
286.68        47.31774
287.13        47.79465
287.59        48.25344
288.04        48.47218
288.50        48.43717
288.95        48.15344
289.41        47.80529
289.86        47.52299
290.32          47.411
290.77        47.42957
291.22        47.51933
291.68        47.55672
292.13         47.5365
292.59        47.57183
293.04        47.80686
293.50        48.52283
293.95        49.72792
294.40        51.30916
294.86         53.0719
295.31        54.71431
295.77        56.12796
296.22        57.36015
296.68        58.46486
297.13        59.49951
297.58        60.54321
298.04        61.61376
298.49        62.75003
298.95        64.07022
299.40         65.5505
299.85        67.14938
300.31         68.8688
300.76        70.66665
301.21        72.53777
301.67        74.49474
302.12        76.35526
302.58        77.88377
303.03        78.99619
303.48        79.80469
303.94        80.62353
304.39        81.77834
304.84        83.40829
305.30        85.39867
305.75        87.50414
306.20        89.38375
306.66        90.94257
307.11        92.21427
307.57        93.36172
308.02        94.49106
308.47        95.68822
308.93        96.91568
309.38        98.06354
309.83        99.07371
310.29        99.96059
310.74        100.7548
311.19        101.5449
311.65        102.4336
312.10        103.4111
312.55        104.4239
313.00        105.4609
313.46        106.5111
313.91        107.5302
314.36        108.5173
314.82        109.3197
315.27        109.7149
315.72        109.6718
316.18        109.3153
316.63         108.854
317.08        108.6834
317.53        108.9019
317.99        109.4081
318.44        110.0552
318.89        110.5581
319.35        110.8265
319.80        110.9624
320.25        111.0377
320.70         111.175
321.16        111.3973
321.61        111.6591
322.06        111.9472
322.51        112.2745
322.97        112.5986
323.42        112.9617
323.87        113.2597
324.32        113.3449
324.78        113.1857
325.23        112.8678
325.68        112.4998
326.13        112.2838
326.59        112.2629
327.04        112.4477
327.49        112.7582
327.94        113.0787
328.39        113.3599
328.85        113.5778
329.30        113.8476
329.75        114.1916
330.20        114.6129
330.66        115.0518
331.11        115.4683
331.56        115.6675
332.01        115.6285
332.46        115.4075
332.92        115.1621
333.37        115.2722
333.82        115.7981
334.27        116.6808
334.72        117.7126
335.17        118.5146
335.63        118.9341
336.08        119.1058
336.53        119.2042
336.98        119.5894
337.43        120.3488
337.88         121.371
338.34        122.3722
338.79        122.9828
339.24         123.066
339.69        122.7536
340.14         122.358
340.59        122.3664
341.05        122.8854
341.50        123.7849
341.95        124.7612
342.40        125.3232
342.85        125.3586
343.30        125.0478
343.75        124.6726
344.20        124.6633
344.66        125.1152
345.11        125.8598
345.56        126.7146
346.01        127.3747
346.46        127.7306
346.91        127.8997
347.36        127.9138
347.81        127.8107
348.26        127.6434
348.72        127.4067
349.17         127.193
349.62        127.2358
350.07        127.5365
350.52        127.9797
350.97        128.3871
351.42        128.4513
351.87         128.105
352.32        127.5083
352.77        126.6654
353.22        125.5906
353.67        124.3642
354.13        123.0061
354.58        121.8211
355.03        121.3929
355.48        121.7776
355.93        122.8376
356.38        123.9359
356.83        123.9947
357.28         122.801
357.73        120.7017
358.18        118.4819
358.63        117.3116
359.08        117.4052
359.53        118.3667
359.98         119.529
360.43        119.7851
360.88        118.8272
361.33         117.044
361.78        114.9473
362.23         113.252
362.68        112.1566
363.13         111.445
363.58        110.8666
364.03        110.0577
364.48        108.9208
364.93         107.584
365.38        106.2938
365.83        105.3832
366.28        104.8965
366.73        104.7181
367.18        104.4865
367.63        103.6464
368.08        102.1266
368.53        100.1461
368.98        98.18824
369.43         96.9499
369.88        96.55594
370.33        96.78197
370.78        97.21282
371.23        97.12527
371.68        96.30868
372.13        95.00918
372.58        93.55139
373.03        92.40837
373.48        91.69998
373.93        91.25111
374.38        90.92345
374.83        90.51515
375.28        89.95787
375.72         89.3323
376.17        88.68924
376.62        88.02809
377.07        87.36331
377.52        86.66949
377.97        85.99696
378.42        85.44302
378.87        85.01636
379.32          84.689
379.77        84.37116
380.22        83.91424
380.67        83.29251
381.11        82.56821
381.56        81.82198
382.01           81.21
382.46        80.78709
382.91        80.50703
383.36        80.33202
383.81        80.20018
384.26        80.07182
384.71        79.95247
385.15        79.79457
385.60        79.57233
386.05        79.26457
386.50        78.87946
386.95          78.444
387.40        78.01523
387.85        77.61273
388.29        77.17651
388.74        76.79762
389.19        76.41968
389.64        76.02796
390.09        75.62257
390.54        75.18902
390.98         74.6906
391.43        74.19187
391.88        73.70356
392.33        73.25217
392.78        72.89845
393.23        72.65166
393.67        72.37873
394.12        72.14088
394.57        72.10652
395.02        72.15664
395.47        71.79145
395.91        71.14286
396.36        70.85135
396.81        70.96616
397.26         71.1707
397.71        71.28608
398.15        71.16345
398.60        70.84618
399.05        70.26298
399.50         69.6377
399.95        69.46542
400.39        69.71404
400.84        69.80692
401.29        69.62826
401.74        69.39648
402.18        69.08664
402.63        68.49572
403.08        67.80382
403.53        67.37349
403.97        67.25175
404.42        67.34295
404.87        67.50197
405.32         67.4961
405.76        67.25942
406.21        66.92947
406.66        66.59406
407.11        66.29784
407.55        66.14763
408.00        66.28048
408.45        66.58591
408.90        66.68494
409.34        66.47416
409.79        66.04777
410.24        65.53886
410.68        65.18745
411.13        65.05282
411.58        65.01014
412.03          65.014
412.47         65.0436
412.92        65.04784
413.37        65.04674
413.81        65.03536
414.26        65.05526
414.71        65.09271
415.15        65.15029
415.60        65.17838
416.05         65.1554
416.49        65.07984
416.94           64.95
417.39        64.82153
417.83        64.77197
418.28        64.81821
418.73         64.9406
419.17         65.0621
419.62        65.06998
420.07        64.94367
420.51        64.69083
420.96        64.44347
421.41        64.36707
421.85        64.43637
422.30        64.59324
422.74         64.7581
423.19        64.82248
423.64        64.82986
424.08        65.13924
424.53         65.6381
424.98        65.84376
425.42        65.68376
425.87        65.51023
426.31        65.40251
426.76        64.99353
427.21        64.51038
427.65         64.8906
428.10        65.80283
428.54        65.97856
428.99        65.47791
429.44        64.72531
429.88        64.08359
430.33        64.82657
430.77         66.3764
431.22        66.33768
431.66        64.92539
432.11        64.47685
432.56        65.08871
433.00        65.63958
433.45        65.94127
433.89        65.63931
434.34        64.93798
434.78        66.28069
435.23        65.55805
435.67         65.7804
436.12        65.79202
436.57        66.25323
437.01        66.98926
437.46        67.50237
437.90        67.17803
438.35        66.98025
438.79         66.8017
439.24        66.43387
439.68        66.00003
440.13        66.00095
440.57        66.43718
441.02        66.76476
441.46        66.88152
441.91        67.34946
442.35        67.86623
442.80        67.61281
443.24        66.75236
443.69        66.52963
444.13        66.94353
444.58        67.03899
445.02        66.76609
445.47        66.83521
445.91        67.26773
446.36        67.44379
446.80        67.24906
447.24        68.25642
447.69        67.87051
448.13        68.09586
448.58        68.17837
449.02        68.15891
449.47        68.07193
449.91        67.99283
450.36        67.97973
450.80         67.9693
451.25         67.9566
451.69        67.88823
452.13        67.76144
452.58        67.59871
453.02          67.409
453.47        67.24992
453.91        67.12263
454.36        67.01236
454.80        66.91109
455.24         66.7924
455.69        66.60061
456.13        66.35889
456.58        66.26881
457.02         65.6385
457.46        66.06908
457.91         66.5282
458.35        66.95258
458.79        67.00837
459.24        66.57483
459.68        66.04727
460.13        65.71298
460.57        64.74004
461.01        65.05828
461.46        65.10361
461.90        65.31376
462.34        65.40592
462.79        65.43583
463.23        65.37996
463.68        65.24737
464.12        65.14552
464.56        65.07311
465.01        64.84679
465.45        64.52171
465.89        64.70063
466.34        65.11269
466.78        65.22339
467.22        63.93914
467.67        63.64757
468.11        63.82631
468.55        64.00106
468.99        63.98384
469.44        63.95039
469.88        63.89147
470.32        63.75342
470.77        63.58831
471.21        63.48917
471.65        63.46571
472.10        63.50864
472.54        63.56291
472.98        63.55443
473.42        63.46254
473.87        63.37259
474.31        63.27773
474.75        63.11024
475.20        62.95411
475.64        63.03296
476.08        63.25319
476.52        63.27811
476.97        63.08136
477.41        62.73117
477.85        62.34409
478.29        62.40101
478.74        62.63754
479.18        62.67818
479.62        62.44057
480.06        62.44739
480.50        62.71442
480.95        62.00896
481.39        62.54953
481.83        61.77951
482.27        62.35619
482.72        62.21849
483.16        61.99231
483.60        62.03397
484.04        62.30845
484.48        62.31186
484.93        62.29178
485.37        62.99584
485.81         62.7176
486.25        63.77372
486.69        63.82158
487.14        61.54994
487.58        60.34289
488.02        62.35727
488.46        61.40834
488.90        61.26202
489.34         61.7678
489.79        61.49258
490.23        61.34212
490.67        60.99461
491.11        60.76609
491.55        61.01721
491.99        61.58924
492.43        61.78897
492.88        61.53677
493.32        61.25824
493.76         61.0542
494.20         60.9137
494.64        60.87148
495.08        60.91625
495.52        61.02178
495.96        61.09118
496.41        61.08367
496.85        61.12529
497.29        61.20031
497.73        60.79892
498.17        60.82037
498.61        60.45216
499.05        60.10748
499.49        60.08836
499.93        60.31322
500.37        60.50774
500.82         60.6903
501.26        60.32205
501.70        60.64911
502.14        60.97218
502.58         60.7121
503.02        60.66273
503.46        60.56252
503.90        60.39583
504.34        60.21531
504.78        60.16608
505.22        60.27345
505.66        60.49948
506.10        60.74401
506.54        60.81616
506.98        60.67498
507.42        60.44613
507.86        60.12514
508.30        59.94577
508.74        59.91976
509.18        59.99931
509.62        60.14237
510.06        60.28336
510.50        60.39066
510.94        60.48067
511.38        60.53797
511.82        60.53636
512.26        60.47231
512.70        60.34438
513.14        60.18256
513.58        60.04091
514.02        59.93729
514.46        59.86901
514.90        59.81424
515.34        59.73233
515.78        59.61969
516.22        59.49522
516.66        59.39747
517.10        59.38247
517.54         59.4572
517.98        59.59691
518.42        59.75497
518.86        59.85613
519.30        59.87889
519.74        59.84431
520.18        59.77996
520.62        59.73344
521.06        59.71708
521.50        59.70862
521.93        59.70733
522.37        59.70273
522.81         59.6962
523.25        59.70437
523.69        59.69868
524.13        59.62984
524.57        59.49981
525.01        59.32329
525.45        59.17768
525.89        59.18567
526.32        59.36087
526.76        59.65707
527.20          59.966
527.64        60.11446
528.08        60.06151
528.52        59.86805
528.96        59.61683
529.40        59.43826
529.83          59.367
530.27        59.37633
530.71        59.44076
531.15        59.53466
531.59        59.64025
532.03        59.76571
532.46        59.87624
532.90        59.93074
533.34        59.92196
533.78         59.8131
534.22        59.64668
534.66        59.59731
535.09        59.62412
535.53        59.49364
535.97        59.23612
536.41        59.11086
536.85        59.13159
537.28        59.16269
537.72        59.17396
538.16        59.17113
538.60        59.14218
539.04        59.08452
539.47        59.01831
539.91        59.00803
540.35        59.04754
540.79         59.1426
541.22        59.25607
541.66        59.24504
542.10        59.24698
542.54        59.15947
542.97         59.0625
543.41        59.04079
543.85        59.09791
544.29        59.20844
544.72        59.31656
545.16        59.36495
545.60        59.32621
546.04        59.22902
546.47        59.10377
546.91        59.01307
547.35         59.0078
547.79        59.05909
548.22        59.05861
548.66        59.26427
549.10        59.08815
549.53        58.75679
549.97        58.69888
550.41        58.69886
550.84        58.90604
551.28        59.20958
551.72        59.51433
552.15        59.63476
552.59        59.55707
553.03        59.51043
553.46        59.31269
553.90        59.28563
554.34        59.38494
554.77        59.47344
555.21        59.44994
555.65        59.80649
556.08        59.39887
556.52        59.22104
556.96        58.98846
557.39        58.82182
557.83        58.76675
558.27        58.73064
558.70        58.71387
559.14        58.97818
559.57        58.97957
560.01        59.24904
560.45        59.48404
560.88        59.38692
561.32         59.0647
561.75        58.64895
562.19        58.35639
562.63        58.62862
563.06        59.26321
563.50        59.28075
563.93        58.75946
564.37        58.42408
564.80        58.83839
565.24         58.9515
565.68        58.89214
566.11        58.87109
566.55        58.91087
566.98        58.91898
567.42        58.93557
567.85        58.97236
568.29        59.04112
568.72        59.15866
569.16        59.37871
569.60        59.42236
570.03        59.20092
570.47        59.58475
570.90        59.72728
571.34         59.0621
571.77        59.53559
572.21        59.54988
572.64         59.7352
573.08        59.56815
573.51        59.29665
573.95        60.01158
574.38        59.34349
574.82        59.82008
