SpectraSmart Spectrum 2.9.0.0
--------- Device Information -----------
Spectrum Name :  反射率_0
Saving Time :  2024/05/01 15:50:14
Spectro-Module Model Name : SE2030-DUVN
Spectro-Module Serial Number : OS361AC55029948
Wavelength Start : 200
Wavelength End : 1025
Wavelength Unit : Wavelength(nm)
Spectrum Unit : Reflectance(%)
-----------Spectrum Setting ------------
Integration Time : 20ms
Average : 10
Boxcar : 0
Background removal :  enabled
linearity correction :  enabled
SC :  disabled
Intensity correction :  disabled
DWT denoise :  enabled
savitzky-golay :  disabled
FFT :  disabled
Running average :  disabled
Kalman :  disabled
High pass :  disabled
---------------BEGIN--------------------
Wavelength(nm)             Reflectance(%)
200.29               0
200.75       -91.34509
201.21       -89.96092
201.67       -18.02375
202.13      0.02141147
202.58        21.39123
203.04        40.70541
203.50        55.58259
203.96        64.67548
204.42        71.02467
204.88         82.6917
205.34        365.5243
205.80        8.587625
206.26         6.03292
206.72       -29.31473
207.18       -247.3532
207.64        425.0586
208.10        206.9106
208.55        162.6908
209.01        141.7446
209.47        123.2459
209.93        103.5579
210.39        80.58385
210.85        59.43551
211.31        49.36356
211.77        65.19537
212.23       -160.6193
212.69        -31.5522
213.14       -21.21994
213.60       -16.63591
214.06       -11.82341
214.52       -10.80325
214.98       -7.259212
215.44       0.2376177
215.90        22.47175
216.36         363.831
216.81       -169.3043
217.27       -222.9073
217.73        439.4023
218.19        81.77841
218.65        52.48369
219.11        54.29145
219.57        87.61219
220.02        237.7523
220.48        131.5412
220.94        50.89052
221.40        30.75476
221.86        24.81721
222.32        24.78992
222.77        28.35715
223.23        35.31109
223.69        44.31561
224.15        47.04539
224.61        41.30259
225.06        33.28307
225.52        27.78409
225.98        26.08518
226.44        27.43513
226.90        31.14826
227.36        36.48609
227.81         39.5459
228.27        38.36443
228.73        35.35802
229.19        32.45721
229.65        30.47721
230.10        29.15547
230.56        28.18991
231.02        27.43094
231.48        27.00427
231.93        27.02205
232.39        27.46406
232.85        28.44695
233.31        30.15515
233.77         32.3496
234.22        34.80311
234.68        36.94385
235.14        38.27726
235.60        38.81211
236.05         38.6884
236.51        38.19862
236.97         38.4694
237.43        40.21889
237.88        43.16515
238.34        46.06409
238.80        48.08115
239.26        49.18075
239.71        49.65619
240.17        49.47377
240.63        49.20454
241.08        49.76527
241.54        51.53912
242.00        54.24466
242.46        58.32233
242.91         65.4409
243.37        76.89116
243.83        97.09607
244.28         120.093
244.74        127.3789
245.20        123.4195
245.66        116.5936
246.11        109.8929
246.57        102.4468
247.03        90.66593
247.48        70.98357
247.94        45.71926
248.40        26.05407
248.85        16.79771
249.31        20.87873
249.77         33.1756
250.22         46.8298
250.68        59.45243
251.14        68.93211
251.59         75.0446
252.05        79.32204
252.51        82.81682
252.96        87.17998
253.42        96.24484
253.88        101.5805
254.33        95.75194
254.79        88.09262
255.25        79.62435
255.70        71.09606
256.16        64.32011
256.62        59.82503
257.07        58.24721
257.53        58.92826
257.99        60.20339
258.44        61.01793
258.90        61.02016
259.35        59.92056
259.81        58.32199
260.27        56.40334
260.72        54.52534
261.18        53.09952
261.63        51.79647
262.09        50.63071
262.55        49.24846
263.00        47.58653
263.46        45.89861
263.91        44.30906
264.37        43.22772
264.83        42.58544
265.28        42.21736
265.74        41.87845
266.19        41.02135
266.65        39.69836
267.11         38.0285
267.56        36.41447
268.02        35.56632
268.47        35.55946
268.93        36.11661
269.38        36.77391
269.84        36.72993
270.30        35.81563
270.75        34.29253
271.21        32.55101
271.66        31.05996
272.12        30.02453
272.57        29.24507
273.03        28.67062
273.48          28.183
273.94        27.74692
274.39        27.39767
274.85        27.09315
275.31        26.70792
275.76        26.21624
276.22        25.66781
276.67        25.09835
277.13         24.6546
277.58        24.30451
278.04        24.03271
278.49        23.74906
278.95        23.41932
279.40        22.99563
279.86        22.54304
280.31        22.05784
280.77        21.59931
281.22        21.15363
281.68         20.7612
282.13        20.38535
282.59        20.03883
283.04        19.70504
283.50        19.41669
283.95        19.20348
284.41        19.14983
284.86        19.24128
285.32        19.44036
285.77        19.66938
286.22        19.84615
286.68         19.9553
287.13        20.00783
287.59        20.02024
288.04        19.98139
288.50        19.92826
288.95        19.83246
289.41        19.77671
289.86        19.82092
290.32        19.99193
290.77        20.27078
291.22         20.5891
291.68        20.82849
292.13        20.98217
292.59        21.13691
293.04        21.37711
293.50        21.87671
293.95        22.66283
294.40          23.689
294.86        24.90468
295.31         26.2372
295.77        27.62896
296.22         29.0705
296.68         30.5143
297.13        31.88648
297.58        33.19956
298.04        34.49878
298.49        35.82311
298.95        37.27017
299.40         38.8405
299.85        40.50467
300.31        42.29193
300.76        44.24054
301.21        46.36812
301.67        48.68817
302.12        51.05472
302.58        53.24397
303.03        55.16058
303.48        56.87768
303.94        58.62527
304.39         60.6729
304.84        63.13221
305.30         65.8987
305.75        68.76714
306.20        71.43607
306.66        73.80566
307.11        75.90412
307.57        77.84664
308.02        79.70439
308.47        81.55726
308.93        83.38097
309.38        85.12688
309.83        86.81724
310.29        88.46826
310.74        90.07809
311.19        91.65607
311.65        93.18359
312.10        94.63303
312.55        95.99953
313.00        97.33435
313.46        98.72719
313.91        100.1687
314.36        101.6242
314.82        102.9344
315.27        103.8587
315.72         104.338
316.18        104.4901
316.63        104.4775
317.08        104.6268
317.53        105.0339
317.99        105.6241
318.44        106.3049
318.89        106.8842
319.35        107.3032
319.80         107.645
320.25        107.9604
320.70        108.3335
321.16        108.7718
321.61        109.2381
322.06         109.723
322.51        110.2418
322.97        110.7525
323.42        111.2955
323.87         111.751
324.32         111.948
324.78        111.8583
325.23        111.5815
325.68        111.2714
326.13         111.202
326.59         111.429
327.04         111.933
327.49        112.5889
327.94        113.2031
328.39        113.6929
328.85        114.0508
329.30        114.3896
329.75        114.7311
330.20        115.0951
330.66        115.4337
331.11        115.7512
331.56         115.926
332.01        115.9619
332.46        115.9008
332.92        115.8857
333.37        116.2659
333.82        117.0748
334.27        118.2469
334.72        119.5311
335.17        120.4768
335.63        120.9135
336.08        120.9984
336.53        120.9455
336.98         121.185
337.43        121.8409
337.88        122.7971
338.34        123.7995
338.79        124.5206
339.24        124.8184
339.69        124.8041
340.14        124.7286
340.59        124.9793
341.05        125.6334
341.50        126.5865
341.95        127.5545
342.40        128.0868
342.85        128.0973
343.30        127.7616
343.75        127.4015
344.20        127.5064
344.66        128.1837
345.11        129.2593
345.56        130.4917
346.01         131.471
346.46        132.0518
346.91        132.3623
347.36        132.4932
347.81        132.5836
348.26        132.7006
348.72        132.8012
349.17        132.8899
349.62        133.0645
350.07        133.3022
350.52        133.5387
350.97        133.6985
351.42        133.6385
351.87        133.3353
352.32        132.8995
352.77        132.2585
353.22        131.3057
353.67        130.0909
354.13        128.6807
354.58        127.4209
355.03        126.9598
355.48        127.3737
355.93        128.5012
356.38        129.6907
356.83        129.8444
357.28        128.7364
357.73        126.7177
358.18        124.5739
358.63        123.4754
359.08         123.638
359.53        124.6666
359.98        125.8858
360.43         126.176
360.88        125.2312
361.33        123.4482
361.78        121.3625
362.23        119.7245
362.68        118.7357
363.13        118.1618
363.58        117.7273
364.03         117.027
364.48        115.9467
364.93        114.6246
365.38        113.3051
365.83        112.3201
366.28        111.7211
366.73        111.3954
367.18        111.0096
367.63        110.0579
368.08        108.4819
368.53        106.4913
368.98        104.5417
369.43        103.2807
369.88         102.823
370.33        102.9629
370.78        103.3054
371.23        103.1637
371.68        102.3416
372.13        101.0698
372.58        99.66856
373.03        98.60876
373.48        97.99712
373.93        97.64541
374.38        97.38943
374.83        96.98717
375.28        96.35754
375.72        95.59339
376.17        94.75594
376.62        93.85566
377.07        92.92792
377.52        91.96445
377.97        91.05213
378.42        90.34048
378.87        89.84973
379.32        89.53325
379.77         89.2821
380.22        88.91505
380.67        88.38655
381.11        87.76006
381.56        87.08517
382.01        86.47285
382.46        85.97129
382.91        85.54366
383.36        85.19864
383.81        84.95036
384.26         84.7754
384.71        84.65908
385.15        84.51439
385.60        84.25233
386.05        83.83853
386.50        83.30841
386.95        82.72026
387.40        82.17847
387.85        81.71606
388.29        81.25342
388.74        80.87585
389.19        80.51208
389.64        80.14533
390.09        79.78182
390.54        79.39594
390.98        78.95567
391.43        78.52548
391.88        78.03283
392.33        77.53203
392.78        77.28663
393.23        77.22215
393.67        76.84215
394.12        76.27109
394.57        76.05268
395.02        76.07796
395.47        75.64406
395.91        74.87789
396.36        74.46635
396.81        74.45118
397.26        74.69593
397.71        74.68593
398.15        74.54558
398.60        74.22152
399.05        73.65429
399.50        73.06632
399.95        72.94419
400.39        73.26443
400.84        73.46986
401.29        73.42206
401.74        73.27286
402.18        72.98579
402.63        72.38646
403.08        71.65894
403.53         71.1666
403.97        70.96147
404.42        70.94493
404.87         71.0115
405.32        70.97148
405.76        70.76213
406.21        70.56929
406.66        70.39908
407.11        70.03542
407.55        69.63294
408.00        69.64422
408.45        69.98705
408.90        70.14143
409.34        69.95148
409.79        69.42551
410.24        68.74535
410.68        68.35802
411.13        68.33147
411.58         68.4041
412.03        68.49511
412.47        68.59028
412.92        68.62273
413.37        68.61279
413.81        68.56821
414.26         68.5586
414.71        68.57703
415.15        68.61072
415.60        68.62943
416.05        68.64652
416.49        68.65797
416.94        68.65363
417.39        68.62378
417.83        68.53503
418.28         68.3956
418.73        68.23875
419.17        68.07659
419.62        67.93075
420.07        67.80677
420.51        67.67824
420.96        67.64427
421.41        67.72202
421.85        67.87978
422.30        68.31222
422.74        68.81396
423.19        68.78697
423.64         68.3466
424.08        68.38994
424.53        68.90363
424.98        69.14593
425.42        69.02982
425.87        69.13312
426.31        69.40171
426.76        68.95581
427.21        68.11597
427.65        68.48804
428.10        69.76048
428.54        70.13014
428.99        69.63374
429.44        69.02705
429.88         68.5798
430.33        69.25269
430.77        70.51008
431.22         70.1706
431.66        68.51157
432.11        67.99464
432.56        68.70766
433.00        69.21481
433.45        69.30852
433.89        69.47499
434.34        68.60719
434.78        70.48727
435.23        69.71415
435.67        69.87138
436.12        69.61742
436.57         69.9779
437.01        70.78787
437.46        71.42548
437.90        70.98322
438.35        70.86155
438.79         70.8394
439.24        70.55439
439.68        70.11855
440.13        70.13895
440.57        70.64088
441.02        70.91732
441.46         70.8481
441.91        71.29781
442.35         72.1055
442.80        71.18807
443.24        71.33203
443.69        71.17596
444.13        71.49254
444.58         71.6114
445.02        71.50628
445.47        71.59203
445.91         71.8727
446.36        72.04354
446.80        72.03369
447.24        72.75159
447.69        72.70951
448.13        72.88602
448.58        72.89192
449.02        72.92323
449.47        73.01046
449.91        73.04652
450.36        73.06858
450.80        73.11712
451.25        73.17439
451.69        73.12206
452.13        72.95859
452.58        72.73476
453.02        72.48923
453.47         72.2925
453.91         72.1441
454.36        72.07978
454.80        72.09482
455.24        71.84687
455.69        71.90455
456.13        71.69895
456.58        71.22667
457.02        70.91846
457.46        70.97303
457.91        71.31763
458.35        71.78384
458.79        71.79374
459.24        71.30132
459.68        70.71162
460.13        70.33718
460.57        69.34693
461.01        69.43542
461.46        69.50478
461.90        69.86647
462.34        69.40861
462.79        68.71985
463.23        68.84141
463.68        69.69988
464.12        69.94814
464.56        69.52991
465.01        69.10841
465.45        68.78381
465.89        68.92287
466.34        69.30395
466.78        69.21021
467.22        68.13412
467.67         67.8148
468.11        67.91643
468.55        68.15332
468.99        68.31743
469.44        68.40042
469.88        68.37013
470.32        68.26591
470.77        68.12805
471.21        67.99648
471.65        67.88311
472.10         67.8004
472.54         67.7188
472.98        67.61138
473.42        67.47109
473.87        67.35752
474.31        67.26199
474.75        67.13885
475.20         67.0247
475.64        67.13833
476.08        67.38844
476.52        67.37116
476.97        67.02087
477.41        67.26469
477.85        66.06194
478.29        66.96081
478.74        66.73777
479.18        66.95853
479.62         66.1869
480.06        66.08676
480.50        66.48073
480.95        65.93588
481.39        66.73038
481.83        65.90402
482.27        66.33356
482.72        66.20748
483.16        66.17778
483.60        66.26739
484.04        66.45071
484.48        66.40836
484.93        66.35502
485.37        67.10557
485.81        66.74196
486.25        67.55946
486.69        68.26876
487.14        66.09038
487.58         64.5117
488.02         66.7371
488.46        65.71762
488.90        65.15225
489.34        65.63375
489.79        65.37959
490.23        65.37424
490.67        65.34169
491.11        65.42115
491.55        65.62148
491.99        65.83812
492.43        65.88081
492.88        65.72034
493.32        65.48476
493.76        65.23669
494.20        65.07632
494.64        65.03031
495.08        64.98363
495.52        64.95885
495.96        65.10773
496.41        65.35052
496.85        65.46214
497.29        65.34001
497.73        65.03349
498.17        64.64812
498.61         64.1957
499.05        63.87675
499.49        64.24201
499.93        65.05583
500.37        65.24202
500.82        64.82018
501.26        64.71009
501.70        64.91336
502.14        65.18166
502.58        64.77227
503.02        64.63946
503.46        64.61412
503.90         64.2879
504.34        64.29899
504.78        64.28906
505.22         64.4502
505.66        64.70378
506.10         64.9658
506.54        65.15373
506.98        65.18304
507.42        64.92881
507.86        64.50889
508.30        64.26991
508.74        64.26748
509.18        64.34658
509.62        64.45744
510.06        64.56975
510.50        64.65223
510.94        64.71422
511.38        64.75459
511.82        64.76881
512.26        64.75272
512.70        64.69483
513.14        64.59892
513.58        64.47685
514.02        64.33743
514.46         64.1936
514.90         64.0434
515.34        63.87781
515.78        63.70884
516.22        63.55222
516.66        63.44542
517.10        63.44064
517.54        63.53616
517.98        63.70346
518.42        63.89612
518.86        64.01451
519.30        64.02711
519.74        64.02798
520.18        64.01501
520.62        63.82689
521.06        63.55449
521.50        63.56018
521.93        63.80474
522.37         63.8849
522.81        63.77908
523.25        63.72405
523.69        63.71647
524.13        63.64618
524.57        63.52047
525.01         63.3714
525.45        63.25251
525.89        63.24968
526.32        63.37315
526.76        63.58666
527.20        63.82045
527.64        63.96561
528.08        63.99147
528.52        63.93416
528.96        63.82881
529.40        63.73399
529.83        63.66521
530.27        63.61669
530.71        63.59597
531.15        63.63184
531.59        63.72149
532.03        63.85609
532.46        63.97861
532.90        64.01439
533.34        63.95064
533.78        63.76682
534.22        63.52617
534.66        63.43686
535.09        63.46219
535.53        63.34522
535.97        63.11193
536.41        63.02998
536.85        63.10749
537.28         63.1979
537.72        63.26351
538.16         63.3026
538.60         63.2984
539.04        63.24691
539.47        63.16783
539.91        63.13259
540.35        63.13827
540.79         63.1886
541.22        63.25067
541.66         63.2123
542.10         63.1767
542.54        63.07381
542.97        62.97238
543.41        62.95921
543.85        63.03502
544.29        63.17043
544.72         63.3061
545.16        63.38507
545.60        63.37562
546.04        63.29383
546.47        63.16957
546.91        63.06347
547.35        63.00217
547.79        62.95659
548.22        62.87484
548.66        62.80979
549.10        62.75829
549.53        62.43657
549.97        62.43357
550.41        62.41478
550.84        62.54857
551.28        62.80009
551.72        63.09682
552.15         63.2617
552.59        63.27013
553.03        63.29271
553.46        63.15776
553.90        63.13514
554.34         63.1847
554.77        63.18025
555.21        63.00662
555.65        63.32712
556.08        62.92978
556.52        62.82944
556.96        62.68158
557.39         62.5641
557.83        62.50848
558.27        62.41317
558.70        62.30742
559.14        62.55503
559.57        62.59086
560.01        62.89508
560.45        63.15843
560.88        63.15942
561.32        62.96555
561.75         62.5817
562.19        62.20469
562.63        62.35915
563.06         62.8867
563.50        62.74957
563.93        62.06477
564.37        61.97051
564.80        62.39655
565.24         62.5973
565.68        62.55986
566.11        62.36718
566.55        62.65353
566.98        62.69285
567.42        62.70295
567.85        62.72393
568.29        62.77414
568.72        62.85571
569.16        63.03356
569.60        63.02564
570.03        62.74314
570.47        63.12668
570.90        63.32509
571.34        62.54499
571.77        63.14442
572.21        63.18795
572.64          63.418
573.08        63.29506
573.51        63.09907
573.95        63.77795
574.38        63.28492
574.82        63.73817
