SpectraSmart Spectrum 2.9.0.0
--------- Device Information -----------
Spectrum Name :  反射率_0
Saving Time :  2024/05/01 16:34:24
Spectro-Module Model Name : SE2030-DUVN
Spectro-Module Serial Number : OS361AC55029948
Wavelength Start : 200
Wavelength End : 1025
Wavelength Unit : Wavelength(nm)
Spectrum Unit : Reflectance(%)
-----------Spectrum Setting ------------
Integration Time : 20ms
Average : 10
Boxcar : 0
Background removal :  enabled
linearity correction :  enabled
SC :  disabled
Intensity correction :  disabled
DWT denoise :  enabled
savitzky-golay :  disabled
FFT :  disabled
Running average :  disabled
Kalman :  disabled
High pass :  disabled
---------------BEGIN--------------------
Wavelength(nm)             Reflectance(%)
200.29               0
200.75        90.28603
201.21        283.0962
201.67       -74.96085
202.13       -8.843754
202.58         11.9449
203.04        24.18148
203.50        31.58191
203.96        34.57877
204.42        34.09718
204.88        27.35421
205.34       -137.7436
205.80        48.87296
206.26        21.96059
206.72       -22.43353
207.18       -243.2312
207.64        398.5284
208.10        176.8969
208.55        124.1124
209.01        97.05811
209.47        79.45244
209.93         66.1038
210.39         52.8991
210.85        41.60435
211.31        35.89213
211.77        41.48285
212.23       -62.15925
212.69       -2.170577
213.14        7.940219
213.60         31.4345
214.06       -202.3235
214.52       -37.38808
214.98       -22.47795
215.44       -11.36898
215.90        12.60802
216.36        344.7586
216.81       -160.3093
217.27       -179.1197
217.73        242.6086
218.19        13.52955
218.65       -16.93449
219.11       -44.14108
219.57       -111.1211
220.02       -354.6685
220.48       -155.9467
220.94       -28.62363
221.40        2.745807
221.86        14.31102
222.32        20.48207
222.77        25.79915
223.23        32.12755
223.69        38.97223
224.15        40.79668
224.61        36.44719
225.06        30.26792
225.52        26.21263
225.98        25.51539
226.44        27.62741
226.90         32.1526
227.36        38.20756
227.81        41.13264
228.27        38.97287
228.73        34.83376
229.19        30.94995
229.65        28.13993
230.10         25.9962
230.56        24.03043
231.02        22.40108
231.48        22.09368
231.93        23.31067
232.39        25.43667
232.85        27.70568
233.31        29.51627
233.77        30.81967
234.22         31.8421
234.68        32.52526
235.14        32.95705
235.60        33.23841
236.05        33.35794
236.51        33.52553
236.97        34.31565
237.43         35.8797
237.88        37.85707
238.34        39.45292
238.80        40.33296
239.26        40.45368
239.71        40.05217
240.17         37.9333
240.63        31.79167
241.08         22.7443
241.54        14.50022
242.00        10.80582
242.46        13.74414
242.91        24.50393
243.37        46.09038
243.83        84.18327
244.28        119.4394
244.74        120.9751
245.20         104.607
245.66        87.38454
246.11         73.9654
246.57        61.41332
247.03        44.04913
247.48        17.66127
247.94       -11.55146
248.40       -28.54886
248.85       -30.24842
249.31       -17.19858
249.77        1.319571
250.22        17.77766
250.68        31.04366
251.14        39.31048
251.59         41.6027
252.05        38.21853
252.51        25.74751
252.96       -5.443336
253.42       -42.90309
253.88       -21.50738
254.33        28.73738
254.79        54.48493
255.25        61.04152
255.70        59.63044
256.16        56.44705
256.62        53.62622
257.07         52.5817
257.53        53.19489
257.99        54.15826
258.44        54.79216
258.90         54.9903
259.35        54.49387
259.81        53.79575
260.27        52.90397
260.72        51.90155
261.18        51.09428
261.63        50.19491
262.09        49.34956
262.55        48.37996
263.00        47.20214
263.46        45.98943
263.91        44.69491
264.37        43.51276
264.83        42.41906
265.28        41.40331
265.74        40.43373
266.19        39.24747
266.65         37.9317
267.11        36.49018
267.56        35.20567
268.02        34.60301
268.47        34.69427
268.93        35.26257
269.38        35.84869
269.84        35.65419
270.30        34.54184
270.75        32.78594
271.21        30.84511
271.66        29.29862
272.12        28.36958
272.57        27.81925
273.03        27.55445
273.48        27.38676
273.94          27.233
274.39        27.12662
274.85        26.98013
275.31        26.61148
275.76        26.00428
276.22         25.2434
276.67        24.43207
277.13        23.80721
277.58        23.36425
278.04        23.07225
278.49        22.82539
278.95        22.55729
279.40        22.20703
279.86        21.84084
280.31        21.45653
280.77        21.11448
281.22        20.79088
281.68        20.50866
282.13        20.21101
282.59        19.88566
283.04        19.51739
283.50        19.15778
283.95        18.85254
284.41        18.70975
284.86        18.73162
285.32        18.87988
285.77        19.09429
286.22        19.31483
286.68        19.52258
287.13        19.71619
287.59        19.87992
288.04        19.94713
288.50        19.93853
288.95        19.84259
289.41        19.75795
289.86        19.77023
290.32          19.917
290.77        20.17101
291.22         20.4747
291.68        20.72737
292.13        20.91987
292.59        21.13071
293.04        21.41756
293.50        21.91211
293.95        22.63002
294.40        23.53423
294.86        24.59555
295.31        25.77721
295.77        27.03671
296.22        28.36472
296.68        29.70212
297.13        30.95328
297.58        32.13176
298.04         33.2961
298.49        34.51473
298.95        35.92841
299.40        37.53848
299.85        39.28535
300.31        41.15422
300.76        43.12546
301.21        45.19051
301.67        47.36399
302.12        49.50684
302.58        51.41467
303.03         53.0076
303.48        54.36652
303.94        55.71635
304.39        57.31407
304.84        59.27697
305.30        61.52045
305.75        63.88351
306.20        66.13135
306.66        68.17662
307.11        70.02215
307.57        71.74499
308.02         73.3658
308.47         74.9385
308.93        76.45045
309.38        77.84305
309.83        79.12042
310.29        80.30603
310.74        81.41002
311.19        82.48607
311.65        83.58723
312.10        84.70583
312.55        85.82232
313.00        86.94841
313.46        88.10374
313.91        89.26339
314.36        90.41552
314.82        91.43766
315.27        92.14977
315.72        92.50817
316.18        92.59866
316.63        92.55769
317.08        92.66426
317.53        92.99489
317.99        93.48584
318.44        94.04266
318.89        94.47636
319.35        94.73718
319.80        94.91084
320.25        95.06336
320.70        95.30052
321.16        95.64058
321.61         96.0437
322.06        96.50087
322.51        97.02311
322.97        97.56284
323.42        98.14668
323.87        98.64591
324.32        98.87243
324.78        98.79012
325.23        98.49676
325.68        98.13378
326.13        97.95831
326.59        98.02869
327.04        98.32288
327.49        98.76082
327.94        99.21935
328.39        99.63937
328.85        100.0204
329.30        100.4037
329.75        100.7054
330.20        100.9219
330.66        101.0323
331.11        101.1469
331.56        101.3396
332.01        101.6499
332.46        102.0606
332.92        102.5443
333.37        103.1552
333.82        103.8545
334.27        104.6504
334.72        105.4738
335.17        106.1988
335.63        106.7565
336.08        107.2042
336.53        107.5933
336.98        108.0857
337.43        108.7255
337.88        109.4739
338.34        110.1972
338.79        110.7555
339.24        111.0667
339.69        111.1765
340.14        111.2339
340.59         111.469
341.05         111.933
341.50        112.5972
341.95        113.2791
342.40        113.6824
342.85        113.7599
343.30        113.6185
343.75        113.5288
344.20        113.9077
344.66         114.823
345.11        116.1184
345.56        117.5007
346.01        118.4735
346.46        118.8969
346.91         118.939
347.36        118.7998
347.81        118.7896
348.26        119.0136
348.72        119.3755
349.17         119.821
349.62        120.3401
350.07        120.8701
350.52        121.3847
350.97        121.7836
351.42        121.8852
351.87         121.668
352.32        121.2382
352.77        120.6167
353.22        119.8492
353.67        119.0075
354.13         118.117
354.58        117.3932
355.03        117.2706
355.48        117.7882
355.93        118.8462
356.38        119.9428
356.83        120.2287
357.28         119.522
357.73        118.0707
358.18        116.4975
358.63        115.7423
359.08        115.9744
359.53        116.8837
359.98        117.8985
360.43        118.0664
360.88         117.151
361.33        115.5108
361.78        113.6477
362.23        112.2667
362.68        111.5497
363.13        111.2705
363.58        111.1733
364.03         110.871
364.48        110.2351
364.93        109.3853
365.38        108.4812
365.83        107.7369
366.28        107.1951
366.73        106.7815
367.18        106.2977
367.63        105.4566
368.08        104.2432
368.53         102.795
368.98        101.4241
369.43        100.5658
369.88        100.2853
370.33        100.4376
370.78        100.7245
371.23        100.6266
371.68        99.99643
372.13         99.0075
372.58        97.89465
373.03        97.00784
373.48        96.43033
373.93        96.02126
374.38        95.69569
374.83        95.33244
375.28        94.88148
375.72        94.39713
376.17        93.86276
376.62         93.1751
377.07        92.34483
377.52        91.39917
377.97        90.49626
378.42        89.89377
378.87        89.63197
379.32        89.62428
379.77        89.68593
380.22        89.52619
380.67        89.07483
381.11        88.42583
381.56        87.69958
382.01        87.12071
382.46        86.76277
382.91        86.55394
383.36        86.42171
383.81        86.25717
384.26         86.0182
384.71          85.738
385.15        85.42208
385.60        85.12424
386.05        84.83818
386.50         84.5449
386.95         84.2224
387.40        83.85068
387.85        83.43393
388.29        82.94215
388.74        82.50342
389.19        82.10168
389.64        81.73776
390.09        81.39529
390.54        81.06019
390.98        80.70065
391.43        80.37047
391.88        80.04638
392.33        79.73127
392.78        79.49317
393.23        79.31652
393.67         78.9939
394.12        78.62391
394.57        78.49253
395.02        78.49612
395.47        78.07281
395.91        77.36293
396.36        77.05653
396.81        77.20215
397.26        77.46049
397.71        77.65779
398.15         77.6334
398.60        77.42278
399.05        76.99578
399.50        76.52834
399.95        76.34268
400.39        76.45638
400.84        76.56318
401.29        76.54801
401.74        76.38414
402.18         76.0384
402.63        75.45811
403.08        74.82013
403.53        74.40521
403.97        74.25582
404.42        74.30058
404.87        74.41507
405.32        74.39054
405.76        74.16851
406.21        73.90798
406.66        73.66508
407.11        73.38697
407.55        73.21277
408.00        73.38239
408.45        73.78407
408.90        74.05702
409.34        74.00072
409.79        73.40537
410.24        72.52094
410.68        72.06264
411.13        72.12408
411.58        72.32258
412.03        72.53796
412.47        72.72643
412.92        72.79475
413.37        72.77726
413.81        72.69421
414.26         72.6345
414.71        72.59819
415.15         72.5668
415.60        72.51774
416.05        72.48035
416.49        72.45994
416.94        72.45551
417.39        72.44338
417.83        72.36279
418.28        72.21622
418.73        72.03544
419.17        71.86796
419.62        71.79341
420.07        71.81515
420.51        71.87908
420.96        72.00709
421.41        72.09086
421.85        72.08009
422.30        72.24218
422.74        72.46282
423.19        72.22362
423.64        71.71008
424.08        71.92332
424.53        72.73639
424.98        73.14018
425.42        72.98045
425.87        72.78788
426.31        72.67316
426.76        72.28252
427.21         71.8615
427.65        72.34786
428.10        73.38805
428.54          73.604
428.99        73.03341
429.44        72.28831
429.88        71.68224
430.33        72.09527
430.77        73.11354
431.22        73.10263
431.66         72.1759
432.11        71.83155
432.56        72.10474
433.00        72.49144
433.45         72.8757
433.89        72.52161
434.34        71.46579
434.78        73.34021
435.23        72.96173
435.67         73.1926
436.12        72.72122
436.57        73.28262
437.01        74.63069
437.46         75.2467
437.90        74.66491
438.35        74.20116
438.79        73.88683
439.24        73.40411
439.68        72.91911
440.13        73.01482
440.57        73.61964
441.02        74.05643
441.46        74.19866
441.91        74.56142
442.35         74.9397
442.80        74.85727
443.24         74.4739
443.69        74.28285
444.13        74.35571
444.58        74.37288
445.02        74.31949
445.47        74.48275
445.91        74.82783
446.36        75.06757
446.80        75.13364
447.24        75.56451
447.69        75.52321
448.13        75.65559
448.58        75.73167
449.02        75.74379
449.47        75.72504
449.91        75.70454
450.36        75.71883
450.80         75.7319
451.25        75.74542
451.69        75.71003
452.13        75.62677
452.58        75.51878
453.02        75.38511
453.47        75.25981
453.91        75.13316
454.36         75.0261
454.80        74.92773
455.24        74.75719
455.69        74.51628
456.13        74.38252
456.58        74.42637
457.02        74.04467
457.46        73.85445
457.91        74.27571
458.35        75.14147
458.79        75.25638
459.24         74.5788
459.68        73.78607
460.13        73.22478
460.57        72.29445
461.01        72.60685
461.46        72.54634
461.90        72.95375
462.34        73.19442
462.79        72.60278
463.23        72.70967
463.68        73.10947
464.12        73.21873
464.56        73.05522
465.01        72.25658
465.45        72.25017
465.89        72.25249
466.34        72.54868
466.78        72.42479
467.22        71.92829
467.67        71.83871
468.11        71.89119
468.55        71.94736
468.99        71.88788
469.44        71.85918
469.88        71.86337
470.32        71.85031
470.77        71.82662
471.21        71.82148
471.65        71.82323
472.10        71.84319
472.54        71.84008
472.98        71.77279
473.42        71.63494
473.87        71.48727
474.31        71.33489
474.75        71.17588
475.20        71.06889
475.64        71.16821
476.08        71.39851
476.52        71.43977
476.97        71.24196
477.41         71.2182
477.85        70.62165
478.29        70.86156
478.74        71.26344
479.18        71.14221
479.62        70.48554
480.06        70.28317
480.50        70.56908
480.95        69.87196
481.39        70.71532
481.83         69.6861
482.27        70.44546
482.72        70.89707
483.16        70.34475
483.60        70.45346
484.04        70.70222
484.48        70.56672
484.93         70.3774
485.37        70.93171
485.81        70.73998
486.25        71.94246
486.69        71.41962
487.14        69.04344
487.58        68.29359
488.02        70.48664
488.46        70.20944
488.90         69.7177
489.34        70.42905
489.79        70.18494
490.23        70.00248
490.67        69.80959
491.11        69.75072
491.55        69.90083
491.99        70.14296
492.43        70.21574
492.88        70.07417
493.32        69.88239
493.76        69.72521
494.20        69.67483
494.64        69.74498
495.08        69.93909
495.52         70.1919
495.96        70.19063
496.41        69.93939
496.85        69.95959
497.29        70.22074
497.73        69.64613
498.17        69.58405
498.61        69.16018
499.05         68.9059
499.49        69.13642
499.93        69.70061
500.37        69.80087
500.82        69.46709
501.26        69.48161
501.70        69.85559
502.14        70.12209
502.58        70.17753
503.02        70.09268
503.46        69.86206
503.90        69.46677
504.34        69.07414
504.78        68.95937
505.22        69.16878
505.66         69.6442
506.10        70.18948
506.54         70.4027
506.98        70.18736
507.42        69.92693
507.86         69.3379
508.30        69.03973
508.74        68.97485
509.18        69.06863
509.62        69.25546
510.06        69.44101
510.50        69.58188
510.94        69.70542
511.38        69.79094
511.82        69.79758
512.26        69.72083
512.70        69.56062
513.14        69.36009
513.58        69.19779
514.02        69.09952
514.46        69.05842
514.90        69.04581
515.34        69.00893
515.78        68.93726
516.22        68.84793
516.66        68.78276
517.10        68.80342
517.54        68.91584
517.98        69.09389
518.42        69.27316
518.86        69.35011
519.30        69.30439
519.74        69.17249
520.18        69.01752
520.62        68.94218
521.06         68.9678
521.50        69.04809
521.93        69.15417
522.37        69.22849
522.81        69.25262
523.25        69.25562
523.69        69.20267
524.13        69.03442
524.57        68.76522
525.01        68.42547
525.45         68.1277
525.89        68.04945
526.32        68.21752
526.76         68.5666
527.20        68.97878
527.64        69.26109
528.08        69.35274
528.52        69.31342
528.96        69.18232
529.40        69.02602
529.83        68.87238
530.27        68.71578
530.71         68.5942
531.15        68.58823
531.59        68.70494
532.03        68.92242
532.46        69.15149
532.90        69.26295
533.34        69.22588
533.78        69.02898
534.22        68.75089
534.66        68.63336
535.09        68.64422
535.53         68.5022
535.97        68.23347
536.41        68.12643
536.85        68.19036
537.28        68.26697
537.72        68.32903
538.16        68.39265
538.60        68.44031
539.04        68.46341
539.47        68.45262
539.91        68.43481
540.35        68.40049
540.79        68.37478
541.22         68.3679
541.66        68.30082
542.10        68.34875
542.54        68.36371
542.97         68.3873
543.41        68.43641
543.85        68.49474
544.29        68.56026
544.72        68.59433
545.16        68.57549
545.60        68.48722
546.04        68.33576
546.47        68.16797
546.91        68.07359
547.35        68.07895
547.79        68.14305
548.22         68.1754
548.66        68.18091
549.10        68.14785
549.53        67.78257
549.97        67.74545
550.41        67.72803
550.84        67.93114
551.28        68.24484
551.72        68.58556
552.15        68.89449
552.59        69.09012
553.03        68.99231
553.46        68.67216
553.90        68.55274
554.34        68.67216
554.77        68.69789
555.21        68.53204
555.65        68.86553
556.08        68.38329
556.52        68.16603
556.96        67.88509
557.39        67.71545
557.83        67.70091
558.27        67.69319
558.70        67.68139
559.14        68.00402
559.57         68.0361
560.01        68.30965
560.45          68.515
560.88         68.5106
561.32        68.36887
561.75        67.92832
562.19        67.43929
562.63        67.74831
563.06        68.61292
563.50        68.49474
563.93        67.54942
564.37        67.39687
564.80        67.99624
565.24        68.31834
565.68        68.26254
566.11        68.25369
566.55        68.30634
566.98        68.15996
567.42        67.93732
567.85        67.94913
568.29        68.19282
568.72          68.266
569.16        68.31694
569.60        68.31729
570.03        68.23352
570.47        68.24361
570.90        68.55949
571.34        67.71929
571.77        68.13886
572.21        68.05462
572.64         68.2335
573.08        67.96311
573.51        68.22089
573.95        68.89274
574.38        68.23351
574.82        68.50232
