SpectraSmart Spectrum 2.9.0.0
--------- Device Information -----------
Spectrum Name :  反射率_0
Saving Time :  2024/05/01 16:33:33
Spectro-Module Model Name : SE2030-DUVN
Spectro-Module Serial Number : OS361AC55029948
Wavelength Start : 200
Wavelength End : 1025
Wavelength Unit : Wavelength(nm)
Spectrum Unit : Reflectance(%)
-----------Spectrum Setting ------------
Integration Time : 20ms
Average : 10
Boxcar : 0
Background removal :  enabled
linearity correction :  enabled
SC :  disabled
Intensity correction :  disabled
DWT denoise :  enabled
savitzky-golay :  disabled
FFT :  disabled
Running average :  disabled
Kalman :  disabled
High pass :  disabled
---------------BEGIN--------------------
Wavelength(nm)             Reflectance(%)
200.29               0
200.75       -7.477732
201.21        303.9466
201.67       -207.8188
202.13       -80.50243
202.58       -23.95471
203.04        15.08938
203.50        41.70485
203.96        56.17243
204.42         62.9722
204.88        67.52857
205.34        108.3069
205.80        53.08374
206.26        45.11628
206.72        27.04713
207.18       -74.95572
207.64        246.7966
208.10        146.7243
208.55        130.3774
209.01        123.3686
209.47        114.1714
209.93        101.5973
210.39        84.55566
210.85        68.69135
211.31        64.49229
211.77        93.86034
212.23       -228.2136
212.69       -36.75845
213.14       -14.35102
213.60        15.73369
214.06       -239.7754
214.52       -56.88317
214.98        -40.2427
215.44       -27.95873
215.90      -0.8021473
216.36        383.6974
216.81       -208.0986
217.27        -249.828
217.73        362.0807
218.19        30.10984
218.65       -4.483914
219.11       -20.84486
219.57       -45.55319
220.02       -123.4023
220.48        -59.4393
220.94       -19.41339
221.40       -8.705176
221.86        -3.45528
222.32        1.651179
222.77         8.70609
223.23        19.18082
223.69        32.93661
224.15        41.00438
224.61        38.65754
225.06        31.88887
225.52        26.82499
225.98        26.01084
226.44        28.98918
226.90         35.0819
227.36        43.02821
227.81        46.64418
228.27        43.47321
228.73        37.74387
229.19        32.62798
229.65        29.37336
230.10        27.44304
230.56        26.17197
231.02        25.35315
231.48         25.0506
231.93        25.21893
232.39        25.81167
232.85         26.6923
233.31        27.76099
233.77         28.8943
234.22        30.09213
234.68        30.95031
235.14        31.12196
235.60        30.56236
236.05        29.14336
236.51          27.179
236.97        26.32061
237.43        27.77538
237.88        31.22481
238.34        34.88195
238.80        36.77826
239.26        36.40767
239.71        34.04032
240.17        28.44981
240.63        19.30499
241.08        10.40318
241.54         4.93669
242.00        5.401569
242.46        13.62164
242.91        32.04727
243.37        66.85894
243.83        125.6134
244.28         175.157
244.74        171.1132
245.20        140.7988
245.66        113.0378
246.11        96.33308
246.57        86.41623
247.03        77.33483
247.48        63.86069
247.94        39.65506
248.40        9.146603
248.85        -17.4235
249.31       -25.76135
249.77       -11.21026
250.22         13.7905
250.68        39.00977
251.14        57.84705
251.59        67.63155
252.05        70.23234
252.51        65.81361
252.96        48.80134
253.42        24.35442
253.88        29.66147
254.33        52.13942
254.79        64.84656
255.25        68.20051
255.70         67.2049
256.16        65.81908
256.62        64.17663
257.07        62.27298
257.53        60.84544
257.99        59.49141
258.44        58.30569
258.90        57.85335
259.35        57.64808
259.81         57.7563
260.27        57.66798
260.72        56.80725
261.18        55.50411
261.63        53.81894
262.09        52.28434
262.55        51.08824
263.00        50.11001
263.46        49.30263
263.91        48.42032
264.37        47.45265
264.83        46.33871
265.28        45.16801
265.74        43.96243
266.19        42.49799
266.65        40.89957
267.11        39.15971
267.56        37.60602
268.02        36.84322
268.47        36.89327
268.93        37.51625
269.38        38.20811
269.84        38.09034
270.30        36.99431
270.75        35.21109
271.21        33.19666
271.66        31.52725
272.12        30.43801
272.57        29.69262
273.03        29.23533
273.48        28.93742
273.94        28.72738
274.39        28.61694
274.85        28.49774
275.31        28.14524
275.76        27.53787
276.22        26.79158
276.67        25.99186
277.13        25.35951
277.58        24.88623
278.04        24.52352
278.49         24.2342
278.95        24.06201
279.40        23.93497
279.86         23.8752
280.31        23.71788
280.77        23.30467
281.22        22.60809
281.68        21.75966
282.13        20.89781
282.59        20.28548
283.04        19.94792
283.50        19.83757
283.95        19.85635
284.41        19.88899
284.86        19.88355
285.32        19.88892
285.77        19.92822
286.22        20.05541
286.68         20.2855
287.13        20.57627
287.59        20.88694
288.04        21.11793
288.50        21.26292
288.95        21.30207
289.41         21.3418
289.86        21.47322
290.32        21.73518
290.77        22.10524
291.22        22.47381
291.68        22.66315
292.13         22.6679
292.59        22.59815
293.04        22.64009
293.50        23.12548
293.95        24.09903
294.40        25.45786
294.86        27.00787
295.31        28.44494
295.77        29.66957
296.22        30.76255
296.68         31.8103
297.13        32.93895
297.58        34.21873
298.04        35.62967
298.49        37.15956
298.95        38.82651
299.40        40.58452
299.85        42.41254
300.31        44.31784
300.76        46.30477
301.21        48.38122
301.67        50.55582
302.12        52.68641
302.58         54.5727
303.03        56.14143
303.48        57.48165
303.94        58.84835
304.39        60.53188
304.84        62.64944
305.30        65.09791
305.75         67.6674
306.20        70.04868
306.66        72.13865
307.11        73.96239
307.57        75.63627
308.02        77.23521
308.47        78.83259
308.93        80.40081
309.38        81.86967
309.83        83.22859
310.29        84.49442
310.74        85.68155
311.19        86.84301
311.65        88.02739
312.10        89.22388
312.55        90.41151
313.00        91.59951
313.46        92.80688
313.91        94.00884
314.36        95.19345
314.82         96.2441
315.27        96.99014
315.72        97.38945
316.18        97.52879
316.63        97.53259
317.08        97.66598
317.53        98.00353
317.99         98.4828
318.44        99.02552
318.89         99.4691
319.35        99.76479
319.80        99.98565
320.25        100.1719
320.70        100.3888
321.16        100.6477
321.61        100.9319
322.06         101.253
322.51        101.6542
322.97        102.1071
323.42        102.6384
323.87        103.1359
324.32        103.4374
324.78        103.5007
325.23        103.4035
325.68        103.2532
326.13        103.2538
326.59        103.4432
327.04        103.8162
327.49        104.2771
327.94        104.6842
328.39        104.9862
328.85         105.183
329.30        105.3944
329.75        105.6638
330.20        106.0125
330.66        106.3832
331.11        106.7797
331.56        107.0835
332.01        107.2832
332.46        107.4186
332.92        107.5524
333.37        107.8984
333.82        108.4726
334.27        109.2391
334.72        110.0988
335.17        110.8725
335.63        111.4604
336.08        111.9392
336.53        112.3464
336.98        112.8162
337.43        113.3908
337.88        114.0395
338.34         114.637
338.79        115.0715
339.24        115.2761
339.69        115.2909
340.14        115.2981
340.59        115.5785
341.05        116.1769
341.50         117.038
341.95        117.9034
342.40        118.3528
342.85         118.315
343.30        117.9462
343.75         117.575
344.20        117.7111
344.66        118.4575
345.11        119.6307
345.56        120.9613
346.01        121.9869
346.46        122.5577
346.91        122.8319
347.36        122.9189
347.81        122.9891
348.26        123.1213
348.72        123.2495
349.17        123.4207
349.62        123.7974
350.07        124.3542
350.52        125.0128
350.97        125.5678
351.42         125.664
351.87        125.2463
352.32        124.4937
352.77        123.5265
353.22        122.5366
353.67        121.6319
354.13        120.7805
354.58         120.146
355.03        120.0915
355.48        120.6221
355.93        121.6546
356.38         122.677
356.83        122.8217
357.28        121.9184
357.73        120.2364
358.18        118.4231
358.63        117.4539
359.08        117.5113
359.53        118.2755
359.98        119.2093
360.43         119.414
360.88        118.6446
361.33        117.2283
361.78        115.5702
362.23        114.2327
362.68        113.3731
363.13        112.8092
363.58         112.366
364.03        111.7998
364.48        111.0241
364.93        110.1091
365.38        109.1832
365.83        108.4065
366.28        107.8024
366.73        107.3344
367.18        106.7717
367.63        105.7693
368.08        104.3211
368.53        102.5825
368.98        100.9739
369.43        100.0985
369.88        100.0445
370.33        100.6158
370.78        101.3721
371.23         101.535
371.68        100.8751
372.13        99.63387
372.58        98.17702
373.03        97.06021
373.48        96.42191
373.93        96.06139
374.38        95.81359
374.83        95.42798
375.28        94.82184
375.72         94.1028
376.17        93.32696
376.62        92.49055
377.07        91.62605
377.52        90.72408
377.97        89.87797
378.42        89.25119
378.87        88.86224
379.32        88.65434
379.77        88.50726
380.22        88.22358
380.67        87.75646
381.11         87.1803
381.56        86.54557
382.01        85.96562
382.46        85.49022
382.91        85.07447
383.36        84.75151
383.81        84.57292
384.26        84.51797
384.71        84.56634
385.15        84.57017
385.60        84.34449
386.05        83.84357
386.50        83.13504
386.95        82.37563
387.40        81.81776
387.85        81.51978
388.29         81.3546
388.74          81.295
389.19        81.10856
389.64        80.74743
390.09        80.26582
390.54        79.74527
390.98        79.30016
391.43        79.01521
391.88        78.81979
392.33        78.64269
392.78        78.41685
393.23        78.13437
393.67        77.71648
394.12        77.27613
394.57        77.06301
395.02        76.97349
395.47        76.44043
395.91        75.64973
396.36        75.35602
396.81        75.62099
397.26        76.09902
397.71        76.47032
398.15        76.42941
398.60        76.01691
399.05        75.06136
399.50         74.0015
399.95        73.99939
400.39        74.90598
400.84        75.19028
401.29        74.71766
401.74        74.53062
402.18        74.59029
402.63        74.07907
403.08        73.17528
403.53        72.60662
403.97         72.4363
404.42         72.4193
404.87        72.45442
405.32         72.4079
405.76        72.22517
406.21        72.07055
406.66         71.9338
407.11        71.64564
407.55         71.3308
408.00        71.24557
408.45        71.38928
408.90        71.64825
409.34        71.82928
409.79        71.51857
410.24        70.85962
410.68        70.52345
411.13         70.5713
411.58        70.60472
412.03        70.57592
412.47        70.60823
412.92        70.65948
413.37         70.7085
413.81        70.74565
414.26        70.81657
414.71        70.90209
415.15        71.00292
415.60        71.07472
416.05        71.10191
416.49        71.08032
416.94        71.01089
417.39        70.90939
417.83        70.78829
418.28        70.66255
418.73        70.53976
419.17        70.42803
419.62        70.34134
420.07        70.27952
420.51        70.22765
420.96        70.23102
421.41         70.2475
421.85        70.24844
422.30        70.38087
422.74        70.56836
423.19        70.56634
423.64         70.4447
424.08        70.70414
424.53        71.25332
424.98         71.5313
425.42         71.4594
425.87        71.47321
426.31        71.59376
426.76        71.24108
427.21        70.66993
427.65        71.05747
428.10        72.06505
428.54        72.25383
428.99        71.67619
429.44        70.79375
429.88        70.01057
430.33        70.70934
430.77        72.29348
431.22        72.25334
431.66        70.77071
432.11        70.27589
432.56        70.94425
433.00        71.45223
433.45        71.53791
433.89        71.83854
434.34        71.30276
434.78        71.96374
435.23        72.12109
435.67        71.83039
436.12        71.21771
436.57         71.7802
437.01        73.35511
437.46        74.01979
437.90        73.59303
438.35        73.26712
438.79        73.12766
439.24        72.71243
439.68        72.16143
440.13        72.13518
440.57        72.67014
441.02        72.98393
441.46        72.92375
441.91         73.8069
442.35        74.52602
442.80        73.82961
443.24        73.86723
443.69        73.59927
444.13        73.74767
444.58        73.77502
445.02        73.69758
445.47        73.84437
445.91        74.16951
446.36        74.45097
446.80        74.63332
447.24         74.9575
447.69        75.13789
448.13        75.24638
448.58        75.25011
449.02        75.29443
449.47        75.39642
449.91        75.41323
450.36        75.36653
450.80        75.32106
451.25        75.29552
451.69        75.19572
452.13        75.02814
452.58        74.89171
453.02        74.80054
453.47         74.5153
453.91         74.5748
454.36         74.4555
454.80        74.30859
455.24        74.37802
455.69        74.55383
456.13        74.22855
456.58        73.60532
457.02        73.38187
457.46        73.61356
457.91        73.94195
458.35        74.18027
458.79        74.07905
459.24         73.6167
459.68        73.04719
460.13        72.65405
460.57        71.59093
461.01        71.99971
461.46        71.80687
461.90        71.97039
462.34         72.1976
462.79        71.42208
463.23        71.48837
463.68        71.90051
464.12        71.99089
464.56        71.73591
465.01        71.46407
465.45        71.21918
465.89        71.44657
466.34        71.94446
466.78        71.67794
467.22        70.76477
467.67        70.46468
468.11        70.58724
468.55        70.73088
468.99        70.72627
469.44         70.7336
469.88        70.73692
470.32        70.69455
470.77        70.63682
471.21          70.628
471.65           70.66
472.10        70.72054
472.54        70.76836
472.98        70.74125
473.42          70.622
473.87        70.54704
474.31        70.47277
474.75        70.15653
475.20        69.70441
475.64        69.68417
476.08        70.04794
476.52        70.01059
476.97        69.46092
477.41        70.08871
477.85        69.12543
478.29        69.74435
478.74        69.38534
479.18        69.74611
479.62        69.15559
480.06        69.15918
480.50        69.45249
480.95        68.78281
481.39         69.5533
481.83        68.69297
482.27        69.16378
482.72        69.02547
483.16        68.93166
483.60        69.02514
484.04        69.29018
484.48        69.15397
484.93        68.91678
485.37        69.92474
485.81        70.08907
486.25        70.70805
486.69        70.86496
487.14         68.3561
487.58        67.26131
488.02        69.25726
488.46        68.32136
488.90        68.46205
489.34         69.0687
489.79        68.85715
490.23        68.57496
490.67        68.20052
491.11        68.02388
491.55        68.16667
491.99        68.52509
492.43        68.65923
492.88        68.52113
493.32        68.43229
493.76        68.41907
494.20        68.39995
494.64        68.37773
495.08        68.33021
495.52        68.32398
495.96         68.3809
496.41        68.43573
496.85        68.66409
497.29        69.00629
497.73        68.13179
498.17        68.14795
498.61        67.74715
499.05         67.6491
499.49         67.8466
499.93        68.23275
500.37        68.40096
500.82        68.31487
501.26        68.33651
501.70        68.44537
502.14        68.50981
502.58        68.28261
503.02        68.12891
503.46        67.99696
503.90        67.83987
504.34        67.71365
504.78        67.70345
505.22         67.7946
505.66        68.05011
506.10        68.39643
506.54        68.40294
506.98         67.9717
507.42        68.31525
507.86        67.64777
508.30        67.47728
508.74        67.62579
509.18        67.80435
509.62        68.02676
510.06        68.17841
510.50        68.23646
510.94        68.21281
511.38        68.13207
511.82        68.03889
512.26        67.94946
512.70        67.84872
513.14         67.7424
513.58        67.64342
514.02        67.55801
514.46        67.49493
514.90        67.45194
515.34        67.41964
515.78         67.3956
516.22        67.37873
516.66        67.37824
517.10        67.40785
517.54        67.46647
517.98        67.54865
518.42        67.62595
518.86        67.65318
519.30        67.62326
519.74        67.54853
520.18        67.46954
520.62        67.45274
521.06        67.50742
521.50        67.60531
521.93        67.70592
522.37        67.73275
522.81          67.673
523.25        67.56004
523.69        67.41134
524.13         67.2513
524.57        67.10207
525.01        66.96236
525.45         66.8698
525.89        66.88403
526.32        67.00443
526.76        67.20232
527.20        67.41734
527.64        67.55246
528.08        67.57906
528.52        67.53094
528.96         67.4222
529.40        67.27941
529.83        67.11815
530.27        66.94938
530.71        66.82186
531.15        66.82777
531.59          66.977
532.03        67.23953
532.46        67.51576
532.90        67.66302
533.34        67.64581
533.78        67.45509
534.22        67.17938
534.66        67.07463
535.09        67.10991
535.53        67.00018
535.97        66.75452
536.41        66.62876
536.85        66.63043
537.28        66.62405
537.72        66.59522
538.16        66.57745
538.60        66.56534
539.04        66.54515
539.47        66.52908
539.91        66.57593
540.35         66.6709
540.79        66.81969
541.22        66.97981
541.66         66.9895
542.10        67.00291
542.54        66.90439
542.97        66.77717
543.41        66.70654
543.85        66.70103
544.29         66.7416
544.72        66.78875
545.16        66.81304
545.60        66.79062
546.04        66.74239
546.47        66.69166
546.91        66.66202
547.35        66.68192
547.79        66.76614
548.22        66.83202
548.66        66.86721
549.10        66.85151
549.53         66.4828
549.97        66.41669
550.41        66.35507
550.84        66.48764
551.28        66.77431
551.72         67.1084
552.15        67.21118
552.59        67.06685
553.03         67.0153
553.46        66.78573
553.90        66.73611
554.34        66.79821
554.77        66.82886
555.21         66.7377
555.65        67.12621
556.08        66.71181
556.52         66.5666
556.96        66.34834
557.39        66.19207
557.83        66.13482
558.27        66.03934
558.70        65.93121
559.14        66.18375
559.57        66.20078
560.01        66.53497
560.45         66.8332
560.88        66.77946
561.32        66.47968
561.75         66.0096
562.19        65.62102
562.63        65.96505
563.06        66.79598
563.50        66.74746
563.93        65.92493
564.37        65.70693
564.80        66.09344
565.24         66.3285
565.68        66.32893
566.11         66.3274
566.55        66.33702
566.98         66.2622
567.42        66.20036
567.85        66.24002
568.29        66.40502
568.72        66.64921
569.16        66.99329
569.60        67.06983
570.03        66.76994
570.47        66.93443
570.90        67.30313
571.34        65.99416
571.77        66.75666
572.21        66.70844
572.64        67.00974
573.08        66.63538
573.51        66.96604
573.95        67.33595
574.38        67.13458
574.82        67.10217
