SpectraSmart Spectrum 2.9.0.0
--------- Device Information -----------
Spectrum Name :  反射率_0
Saving Time :  2024/05/01 15:50:40
Spectro-Module Model Name : SE2030-DUVN
Spectro-Module Serial Number : OS361AC55029948
Wavelength Start : 200
Wavelength End : 1025
Wavelength Unit : Wavelength(nm)
Spectrum Unit : Reflectance(%)
-----------Spectrum Setting ------------
Integration Time : 20ms
Average : 10
Boxcar : 0
Background removal :  enabled
linearity correction :  enabled
SC :  disabled
Intensity correction :  disabled
DWT denoise :  enabled
savitzky-golay :  disabled
FFT :  disabled
Running average :  disabled
Kalman :  disabled
High pass :  disabled
---------------BEGIN--------------------
Wavelength(nm)             Reflectance(%)
200.29               0
200.75       -26.00593
201.21        90.07755
201.67       -71.86507
202.13       -12.98724
202.58        20.66341
203.04        46.34743
203.50        64.65721
203.96        75.11785
204.42        81.05061
204.88         88.3844
205.34         250.257
205.80         39.2459
206.26          28.491
206.72       -13.22271
207.18       -245.1322
207.64        437.0526
208.10        203.5797
208.55        150.3954
209.01        125.4439
209.47        111.1314
209.93        101.9278
210.39        93.11881
210.85        88.16581
211.31        96.69928
211.77        153.6541
212.23       -359.9599
212.69       -49.39645
213.14       -17.64295
213.60        9.290964
214.06       -172.5068
214.52       -39.17793
214.98       -26.12745
215.44       -15.84048
215.90        7.278437
216.36        349.6502
216.81       -190.3225
217.27       -261.3147
217.73        519.8921
218.19        90.44405
218.65        43.33585
219.11        16.96055
219.57       -36.41366
220.02       -243.8296
220.48        -121.216
220.94       -13.12386
221.40        16.50965
221.86        27.77785
222.32        32.75771
222.77        35.75118
223.23        38.40469
223.69        40.56559
224.15        40.40799
224.61         38.0197
225.06        34.81522
225.52        32.88319
225.98        32.70403
226.44        34.00304
226.90        36.82751
227.36        40.30839
227.81        40.97168
228.27        38.05308
228.73         34.0066
229.19        30.89584
229.65        29.65575
230.10        29.94803
230.56        31.59688
231.02         33.9839
231.48        35.31299
231.93        34.79991
232.39        33.40529
232.85        32.26386
233.31        32.49469
233.77        33.91535
234.22         35.9089
234.68         37.8276
235.14        39.11037
235.60         39.6981
236.05        39.83529
236.51        39.55229
236.97        39.12068
237.43        38.73938
237.88        38.31242
238.34        37.69746
238.80        36.98496
239.26        36.10721
239.71        35.43756
240.17        34.67516
240.63        32.97564
241.08        30.85911
241.54        29.33886
242.00        30.46764
242.46        36.97955
242.91        51.29029
243.37        77.30157
243.83         119.001
244.28        148.9816
244.74        137.8198
245.20        110.4033
245.66        87.51445
246.11         73.6074
246.57         64.6729
247.03        56.06736
247.48          43.903
247.94         25.5463
248.40        5.699363
248.85       -9.474051
249.31       -11.52973
249.77       0.6214526
250.22        18.59179
250.68         36.0851
251.14        49.15322
251.59        56.54679
252.05        59.97249
252.51         60.3824
252.96        58.00813
253.42        63.20947
253.88        82.50496
254.33        91.56051
254.79        89.92496
255.25        83.61729
255.70        75.79101
256.16        69.06038
256.62        64.04049
257.07         61.3916
257.53        60.86968
257.99        61.06785
258.44        61.15391
258.90        60.94838
259.35        60.08091
259.81        59.00945
260.27        57.73167
260.72        56.36208
261.18        55.23631
261.63        54.04879
262.09        52.92245
262.55         51.6177
263.00        50.05272
263.46        48.43862
263.91        46.78283
264.37        45.36341
264.83        44.15213
265.28        43.10646
265.74        42.12755
266.19        40.85217
266.65        39.36604
267.11        37.71273
267.56         36.2535
268.02        35.63554
268.47        35.88749
268.93        36.73528
269.38        37.64211
269.84        37.68979
270.30        36.69225
270.75        34.94658
271.21        32.92873
271.66        31.24543
272.12        30.14314
272.57        29.38725
273.03        28.90333
273.48        28.53216
273.94        28.20978
274.39        27.97164
274.85        27.75657
275.31        27.40646
275.76         26.8968
276.22        26.30069
276.67         25.6564
277.13        25.11839
277.58        24.66782
278.04        24.28924
278.49        23.94715
278.95         23.6892
279.40        23.45968
279.86        23.27745
280.31        23.03815
280.77        22.66697
281.22        22.13125
281.68         21.5241
282.13        20.88833
282.59        20.34827
283.04        19.91722
283.50        19.60595
283.95        19.40376
284.41        19.33223
284.86        19.36965
285.32        19.50561
285.77        19.71564
286.22        19.99134
286.68         20.3196
287.13        20.67239
287.59        20.99075
288.04        21.14274
288.50        21.13352
288.95        20.97407
289.41        20.80695
289.86        20.77497
290.32        20.93326
290.77        21.24339
291.22        21.62031
291.68        21.92014
292.13        22.12704
292.59        22.33469
293.04         22.6432
293.50        23.24941
293.95        24.17583
294.40        25.36017
294.86        26.71101
295.31        28.09246
295.77        29.44501
296.22         30.7971
296.68        32.15319
297.13        33.51295
297.58        34.91699
298.04        36.39217
298.49        37.97525
298.95        39.75797
299.40        41.71288
299.85        43.78657
300.31        45.96737
300.76        48.23532
301.21         50.5959
301.67        53.07967
302.12        55.53516
302.58        57.74032
303.03        59.61514
303.48        61.24418
303.94        62.92614
304.39        65.01756
304.84        67.64401
305.30          70.678
305.75        73.83183
306.20        76.67267
306.66        79.07294
307.11        81.09475
307.57        82.93397
308.02        84.77799
308.47        86.72861
308.93        88.71547
309.38         90.6168
309.83        92.34824
310.29        93.90554
310.74        95.33057
311.19        96.68544
311.65        98.03028
312.10         99.3589
312.55        100.6363
313.00        101.9031
313.46        103.2329
313.91        104.6043
314.36        105.9951
314.82        107.2155
315.27        107.9742
315.72        108.2126
316.18        108.0695
316.63        107.7705
317.08        107.7407
317.53        108.0909
317.99        108.7137
318.44        109.4558
318.89        110.0201
319.35         110.321
319.80        110.4787
320.25        110.5869
320.70        110.7969
321.16        111.1402
321.61        111.5594
322.06        112.0381
322.51        112.5828
322.97        113.1401
323.42        113.7517
323.87        114.2798
324.32        114.5225
324.78        114.4396
325.23        114.1316
325.68        113.7572
326.13        113.6054
326.59        113.7387
327.04        114.1391
327.49        114.6882
327.94        115.2018
328.39        115.6077
328.85        115.9115
329.30        116.2298
329.75        116.5822
330.20        116.9874
330.66         117.386
331.11        117.8034
331.56        118.1503
332.01        118.4255
332.46        118.6573
332.92        118.9077
333.37        119.3997
333.82        120.1398
334.27        121.0917
334.72        122.1188
335.17        122.9761
335.63        123.5479
336.08         123.935
336.53        124.2281
336.98        124.6548
337.43        125.2867
337.88        126.0762
338.34        126.8543
338.79          127.44
339.24        127.7382
339.69         127.803
340.14        127.8547
340.59        128.2358
341.05        128.9972
341.50        130.0551
341.95        131.0894
342.40        131.5859
342.85        131.4578
343.30        130.9007
343.75        130.3093
344.20        130.2937
344.66        130.9825
345.11        132.1588
345.56        133.5275
346.01        134.5807
346.46        135.1503
346.91        135.4198
347.36        135.4813
347.81        135.4721
348.26        135.4807
348.72         135.458
349.17        135.5119
349.62        135.9086
350.07        136.6364
350.52        137.5686
350.97         138.436
351.42        138.7808
351.87        138.5008
352.32        137.7939
352.77        136.7678
353.22        135.6011
353.67        134.4222
354.13        133.2246
354.58        132.2316
355.03        131.9058
355.48        132.2824
355.93        133.2638
356.38        134.3142
356.83        134.5168
357.28        133.6727
357.73        132.0479
358.18         130.283
358.63        129.3455
359.08        129.4122
359.53          130.16
359.98        131.0226
360.43        131.0661
360.88        130.0495
361.33        128.3134
361.78        126.3436
362.23        124.8136
362.68        123.8975
363.13        123.3927
363.58        123.0173
364.03        122.3491
364.48        121.2739
364.93        119.9234
365.38        118.5717
365.83        117.6051
366.28         117.084
366.73        116.8817
367.18        116.6243
367.63        115.7355
368.08        114.1425
368.53        112.0811
368.98        110.0485
369.43        108.7567
369.88        108.3329
370.33        108.5442
370.78        108.9727
371.23        108.8894
371.68        108.0817
372.13        106.8027
372.58        105.3628
373.03        104.2132
373.48        103.4707
373.93        102.9547
374.38        102.5618
374.83        102.1545
375.28        101.6617
375.72        101.1264
376.17        100.5321
376.62        99.76463
377.07        98.83051
377.52        97.77211
377.97        96.69923
378.42        95.79902
378.87        95.12397
379.32        94.61998
379.77        94.24316
380.22        93.91311
380.67        93.58758
381.11        93.29371
381.56        92.97012
382.01        92.54134
382.46        92.00541
382.91        91.37779
383.36        90.75423
383.81        90.28884
384.26         90.0039
384.71        89.85098
385.15        89.71006
385.60        89.44158
386.05        88.99653
386.50        88.43268
386.95        87.83344
387.40        87.33527
387.85        86.96895
388.29        86.62678
388.74        86.36162
389.19        86.05244
389.64        85.67852
390.09        85.26257
390.54         84.8043
390.98        84.33706
391.43        83.94247
391.88         83.4517
392.33        82.91989
392.78        82.76479
393.23         82.8252
393.67        82.28243
394.12         81.3485
394.57        80.94249
395.02        81.00513
395.47         80.6704
395.91        80.02029
396.36        79.75606
396.81        79.90244
397.26        80.14112
397.71        80.30141
398.15        80.21222
398.60        79.91962
399.05        79.39277
399.50        78.83357
399.95        78.60741
400.39        78.73011
400.84        78.86591
401.29        78.87302
401.74        78.69318
402.18        78.28822
402.63        77.61869
403.08        76.88801
403.53        76.42393
403.97        76.26396
404.42        76.29762
404.87        76.41874
405.32        76.40007
405.76        76.17158
406.21        76.05688
406.66        75.98386
407.11        75.37626
407.55          74.525
408.00        74.41238
408.45        74.99387
408.90        75.53654
409.34        75.69257
409.79        75.07978
410.24        73.97469
410.68        73.42341
411.13        73.52579
411.58        73.62722
412.03        73.63967
412.47         73.7483
412.92        73.88454
413.37        74.00578
413.81        74.07114
414.26        74.08585
414.71        74.03069
415.15        73.92083
415.60        73.77493
416.05        73.69183
416.49        73.69482
416.94        73.74857
417.39        73.80952
417.83        73.78709
418.28        73.66943
418.73        73.50723
419.17        73.32027
419.62        73.14108
420.07        72.98432
420.51        72.82051
420.96        72.75221
421.41        72.80568
421.85        72.94288
422.30        73.34259
422.74        73.81419
423.19        73.78773
423.64        73.37805
424.08        73.49587
424.53        74.05849
424.98        74.20477
425.42        73.86484
425.87        73.66856
426.31         73.7086
426.76        73.38287
427.21        72.93993
427.65        73.64771
428.10        75.03458
428.54        75.20962
428.99        74.29179
429.44        73.32418
429.88         72.7228
430.33        73.38212
430.77        74.74877
431.22          74.885
431.66        73.88358
432.11        73.28322
432.56        73.25826
433.00        73.79533
433.45        74.70406
433.89        74.23028
434.34        73.13129
434.78        74.46635
435.23        74.63293
435.67        74.77265
436.12        74.02119
436.57        74.42204
437.01        75.75891
437.46        76.46734
437.90        75.90087
438.35        75.60043
438.79        75.48475
439.24        75.11394
439.68        74.62946
440.13        74.65581
440.57        75.18816
441.02        75.58154
441.46        75.71671
441.91        76.25717
442.35        76.91544
442.80        76.60619
443.24        76.01264
443.69        75.91797
444.13        76.43977
444.58        76.61888
445.02        76.40382
445.47        76.46594
445.91        76.84776
446.36        77.03586
446.80        76.93211
447.24        77.93097
447.69         77.6743
448.13        77.86946
448.58        77.83838
449.02        77.63972
449.47         77.3772
449.91        77.21889
450.36        77.24471
450.80        77.36621
451.25         77.5131
451.69        77.52126
452.13        77.36341
452.58        77.09988
453.02        76.81428
453.47        76.63801
453.91        76.57062
454.36        76.68566
454.80        76.91226
455.24        76.68411
455.69        76.39326
456.13        76.36475
456.58        75.99991
457.02        75.60564
457.46        75.73616
457.91        76.06787
458.35        76.58102
458.79         76.5901
459.24        76.05847
459.68        75.45371
460.13        75.10445
460.57        74.00813
461.01        74.35582
461.46        74.45672
461.90        74.71156
462.34        74.78815
462.79        73.96104
463.23        74.13988
463.68        74.88371
464.12        75.06181
464.56        74.61339
465.01        74.13649
465.45        73.79526
465.89        73.93572
466.34        74.23204
466.78          74.506
467.22        73.16533
467.67        72.39784
468.11        73.01286
468.55        73.20987
468.99        73.22329
469.44        73.23505
469.88        73.24467
470.32        73.16279
470.77        73.01509
471.21        72.90373
471.65        72.83215
472.10        72.79254
472.54        72.76501
472.98        72.71589
473.42        72.62619
473.87        72.62276
474.31        72.64195
474.75         72.3952
475.20        72.00294
475.64         72.0747
476.08        72.50766
476.52        72.51643
476.97        72.02764
477.41        72.10355
477.85        71.21691
478.29        71.61378
478.74        72.16571
479.18        72.14301
479.62        71.45373
480.06        71.26643
480.50        71.63144
480.95        70.90237
481.39        71.57948
481.83        70.63299
482.27        70.95541
482.72        71.20303
483.16        71.04221
483.60        71.21085
484.04         71.3155
484.48        71.28063
484.93        71.44079
485.37        71.79841
485.81        71.17931
486.25        73.03391
486.69        72.76321
487.14        70.48141
487.58        69.62975
488.02        71.50775
488.46        70.72355
488.90        69.84764
489.34        70.63917
489.79        70.80648
490.23        70.44268
490.67        70.32425
491.11        70.30353
491.55        70.48483
491.99         70.7336
492.43        70.74378
492.88        70.48929
493.32         70.1853
493.76        69.93978
494.20        69.82809
494.64        69.86798
495.08        70.05288
495.52        70.31586
495.96        70.38829
496.41        70.27441
496.85        70.42189
497.29        70.67767
497.73        70.37857
498.17        69.64793
498.61        69.22393
499.05        69.10828
499.49        69.46021
499.93        70.03144
500.37        70.25946
500.82        70.14969
501.26        70.01611
501.70        70.28983
502.14        70.44001
502.58        70.09173
503.02         69.8815
503.46        69.69872
503.90        69.48203
504.34        69.29263
504.78        69.28342
505.22        69.47475
505.66        69.75938
506.10        70.04562
506.54        70.32057
506.98         70.4488
507.42         70.1841
507.86        69.52942
508.30        69.19141
508.74        69.19978
509.18        69.27446
509.62        69.35681
510.06        69.46276
510.50        69.55869
510.94        69.64119
511.38        69.70042
511.82        69.71486
512.26        69.67829
512.70        69.58863
513.14        69.45794
513.58        69.31338
514.02        69.17476
514.46        69.03711
514.90        68.90083
515.34        68.80757
515.78        68.77328
516.22        68.61646
516.66        68.67493
517.10        68.71462
517.54        68.82581
517.98        68.98727
518.42        69.15628
518.86        69.25173
519.30        69.25085
519.74        69.19366
520.18         69.1198
520.62        69.05106
521.06         69.0242
521.50        69.11713
521.93        69.27493
522.37        69.30261
522.81        69.18206
523.25        69.01688
523.69        68.83791
524.13        68.65977
524.57        68.50772
525.01        68.38098
525.45        68.31153
525.89        68.34901
526.32        68.49164
526.76         68.7177
527.20        68.96279
527.64        69.12474
528.08        69.17359
528.52        69.13571
528.96        69.04616
529.40        68.96651
529.83        68.91073
530.27        68.87662
530.71        68.86013
531.15        68.87083
531.59         68.9081
532.03        68.97417
532.46        69.03594
532.90        69.06011
533.34        69.03851
533.78        68.92438
534.22        68.76279
534.66        68.74385
535.09        68.81516
535.53        68.71305
535.97        68.44909
536.41         68.2884
536.85        68.24588
537.28        68.17229
537.72        68.08838
538.16        68.09014
538.60        68.17451
539.04        68.30508
539.47        68.42706
539.91         68.4951
540.35        68.47749
540.79        68.42043
541.22        68.34634
541.66        68.19631
542.10        68.16045
542.54        68.09002
542.97        68.04053
543.41        68.05218
543.85         68.1126
544.29         68.2123
544.72        68.30653
545.16        68.36083
545.60        68.34964
546.04        68.28088
546.47        68.17936
546.91        68.09943
547.35        68.06565
547.79        68.05005
548.22        67.99834
548.66        67.97132
549.10        67.96265
549.53        67.65644
549.97        67.68647
550.41        67.68197
550.84         67.8255
551.28        68.09159
551.72        68.38808
552.15        68.49762
552.59         68.4212
553.03        68.30637
553.46        68.19156
553.90        68.16566
554.34        68.24801
554.77        68.31285
555.21        68.26717
555.65        68.62287
556.08        68.19485
556.52        68.01454
556.96        67.79465
557.39        67.62598
557.83         67.5403
558.27        67.66292
558.70        67.52697
559.14        67.82111
559.57        67.79322
560.01        67.98985
560.45        68.11962
560.88        68.08829
561.32        67.97053
561.75         67.5593
562.19        67.09618
562.63        67.44135
563.06        68.34442
563.50        68.24234
563.93        67.28517
564.37        67.11203
564.80        67.67867
565.24        67.92879
565.68        67.78793
566.11         67.7383
566.55        67.79974
566.98        67.70924
567.42        67.56788
567.85        67.59949
568.29        67.79807
568.72        67.94572
569.16        68.10583
569.60        68.11506
570.03        67.87488
570.47        68.09953
570.90        68.52675
571.34        67.28295
571.77        68.07282
572.21        68.03296
572.64        68.28857
573.08        67.94545
573.51        68.22665
573.95        68.55743
574.38        67.87125
574.82        68.25079
