SpectraSmart Spectrum 2.9.0.0
--------- Device Information -----------
Spectrum Name :  反射率_0
Saving Time :  2024/05/01 15:56:21
Spectro-Module Model Name : SE2030-DUVN
Spectro-Module Serial Number : OS361AC55029948
Wavelength Start : 200
Wavelength End : 1025
Wavelength Unit : Wavelength(nm)
Spectrum Unit : Reflectance(%)
-----------Spectrum Setting ------------
Integration Time : 20ms
Average : 10
Boxcar : 0
Background removal :  enabled
linearity correction :  enabled
SC :  disabled
Intensity correction :  disabled
DWT denoise :  enabled
savitzky-golay :  disabled
FFT :  disabled
Running average :  disabled
Kalman :  disabled
High pass :  disabled
---------------BEGIN--------------------
Wavelength(nm)             Reflectance(%)
200.29               0
200.75        57.72759
201.21        343.6812
201.67       -160.9456
202.13       -50.70667
202.58       -6.861852
203.04        21.87836
203.50        41.32156
203.96        53.09121
204.42        61.74142
204.88         76.9509
205.34        437.9306
205.80       -16.63833
206.26       -19.00891
206.72       -64.94334
207.18       -337.8457
207.64        472.0567
208.10        195.6776
208.55        131.3428
209.01        100.5414
209.47        83.27592
209.93        72.64188
210.39        63.99764
210.85         57.2524
211.31        52.68614
211.77        48.86937
212.23        43.09461
212.69        47.71993
213.14        59.42674
213.60        105.6643
214.06       -399.8596
214.52       -47.59373
214.98       -20.15638
215.44       -5.590193
215.90        19.85772
216.36        352.4781
216.81       -154.2824
217.27       -178.6113
217.73        272.6723
218.19        27.64937
218.65       -1.716496
219.11       -23.13046
219.57       -70.63594
220.02       -236.1314
220.48       -94.90364
220.94       -9.169981
221.40        11.50749
221.86        18.87145
222.32         22.3791
222.77        24.99803
223.23         27.8326
223.69        30.20003
224.15        29.06303
224.61        24.89058
225.06        20.28012
225.52        17.65298
225.98        17.71752
226.44        20.01079
226.90        24.42156
227.36        29.79522
227.81        31.18904
228.27        27.32414
228.73        21.84002
229.19        17.21565
229.65        14.26687
230.10        12.54081
230.56          11.699
231.02        11.97619
231.48        13.92197
231.93        17.01848
232.39        20.34044
232.85        23.41847
233.31        26.10364
233.77        28.41144
234.22         30.4841
234.68        31.93258
235.14        32.45028
235.60        32.06596
236.05        30.63432
236.51        28.82935
236.97        29.22692
237.43        33.49744
237.88        41.09343
238.34        48.68602
238.80        52.87285
239.26          53.032
239.71        49.00586
240.17        40.17661
240.63        31.21502
241.08        29.10726
241.54        34.00691
242.00        42.75386
242.46        53.37977
242.91        68.16851
243.37        92.00249
243.83        129.4596
244.28        158.5921
244.74        152.4444
245.20        130.3087
245.66        110.9319
246.11        99.21917
246.57        92.00526
247.03        85.05619
247.48        74.60432
247.94        56.34462
248.40        33.87387
248.85        14.64185
249.31        7.994267
249.77         15.8833
250.22        30.60934
250.68        45.99253
251.14        58.02348
251.59        65.38123
252.05        69.77439
252.51        73.03062
252.96        77.23338
253.42        89.55353
253.88        102.9358
254.33        100.4859
254.79        94.04784
255.25        87.98631
255.70        82.20185
256.16        77.80579
256.62        74.23546
257.07        71.29714
257.53        69.48492
257.99        68.14985
258.44        66.99661
258.90        66.31879
259.35         65.6005
259.81        65.03132
260.27        64.32477
260.72        63.23818
261.18        62.09428
261.63         60.7286
262.09        59.44662
262.55        58.14184
263.00        56.72775
263.46        55.36932
263.91        53.96819
264.37        52.73336
264.83        51.61351
265.28        50.58026
265.74        49.62543
266.19        48.47145
266.65        47.20992
267.11        45.83204
267.56        44.57535
268.02        43.90985
268.47        43.83559
268.93        44.15224
269.38        44.46458
269.84        44.08588
270.30        42.89816
270.75        41.13752
271.21        39.18853
271.66        37.50401
272.12         36.2919
272.57        35.36245
273.03        34.69532
273.48        34.20152
273.94        33.83652
274.39        33.59002
274.85        33.36653
275.31         32.9545
275.76         32.3172
276.22        31.55957
276.67        30.74251
277.13        30.06464
277.58        29.50979
278.04        29.06145
278.49        28.66013
278.95        28.33068
279.40        28.01153
279.86        27.73713
280.31        27.42718
280.77        27.05596
281.22         26.5779
281.68        26.06428
282.13        25.50674
282.59        24.97415
283.04        24.46794
283.50        24.03451
283.95        23.68817
284.41        23.49755
284.86        23.45988
285.32        23.56046
285.77        23.78129
286.22        24.13274
286.68        24.59557
287.13        25.12806
287.59        25.63842
288.04        25.93576
288.50        26.00449
288.95        25.85824
289.41        25.65893
289.86         25.5695
290.32        25.66209
290.77        25.89483
291.22        26.18539
291.68        26.39009
292.13         26.4984
292.59        26.61582
293.04        26.86158
293.50        27.46074
293.95        28.43694
294.40        29.71545
294.86        31.17537
295.31         32.6339
295.77        34.01337
296.22         35.3401
296.68        36.62941
297.13        37.90001
297.58         39.1905
298.04          40.509
298.49        41.87162
298.95        43.34639
299.40        44.90726
299.85        46.52788
300.31         48.2094
300.76        49.93708
301.21        51.72618
301.67        53.60683
302.12        55.46655
302.58        57.15368
303.03         58.5959
303.48        59.84603
303.94        61.13287
304.39        62.70583
304.84        64.65896
305.30        66.89499
305.75        69.16399
306.20        71.10378
306.66        72.62571
307.11        73.79014
307.57        74.80357
308.02        75.87067
308.47         77.0892
308.93         78.3941
309.38        79.65119
309.83        80.74349
310.29         81.6571
310.74        82.43819
311.19        83.16864
311.65        83.94225
312.10         84.7647
312.55        85.59894
313.00         86.4411
313.46        87.29337
313.91        88.12624
314.36        88.93329
314.82        89.62228
315.27        90.06062
315.72        90.21556
316.18        90.16286
316.63        89.98861
317.08        89.88753
317.53        89.92311
317.99        90.06104
318.44        90.27386
318.89        90.48811
319.35        90.68389
319.80         90.9068
320.25        91.16363
320.70        91.46523
321.16        91.79582
321.61        92.13679
322.06        92.49732
322.51        92.91974
322.97        93.37089
323.42        93.86477
323.87        94.26894
324.32        94.39413
324.78        94.20613
325.23        93.80641
325.68        93.35476
326.13        93.12971
326.59         93.1936
327.04        93.52025
327.49         93.9918
327.94        94.42155
328.39        94.73488
328.85        94.94162
329.30         95.1407
329.75        95.35854
330.20        95.61504
330.66        95.85959
331.11        96.10644
331.56        96.27634
332.01        96.36904
332.46        96.41068
332.92        96.47615
333.37        96.78316
333.82        97.34659
334.27        98.13715
334.72        99.00224
335.17         99.6693
335.63        100.0275
336.08        100.1738
336.53        100.2556
336.98        100.5794
337.43        101.2211
337.88         102.099
338.34         102.971
338.79        103.5123
339.24        103.6074
339.69        103.3711
340.14        103.0832
340.59        103.1809
341.05        103.7578
341.50        104.6978
341.95        105.7194
342.40        106.3679
342.85        106.5378
343.30        106.3899
343.75        106.1907
344.20        106.3505
344.66        106.9608
345.11        107.8641
345.56        108.8723
346.01        109.6686
346.46        110.1469
346.91        110.4282
347.36        110.5726
347.81        110.6669
348.26        110.7672
348.72        110.8428
349.17        110.9565
349.62        111.2854
350.07        111.8199
350.52        112.4781
350.97        113.0711
351.42        113.2784
351.87        113.0378
352.32        112.4955
352.77        111.7529
353.22        110.9727
353.67        110.2489
354.13        109.5664
354.58        109.0435
355.03        108.9646
355.48        109.3424
355.93        110.1204
356.38        110.9297
356.83        111.1396
357.28        110.6135
357.73         109.528
358.18        108.3406
358.63        107.7465
359.08        107.8715
359.53        108.4871
359.98        109.1738
360.43        109.2366
360.88        108.4999
361.33         107.218
361.78        105.7623
362.23        104.6512
362.68        104.0159
363.13        103.6981
363.58        103.4789
364.03        103.0285
364.48         102.254
364.93        101.2573
365.38        100.2395
365.83        99.48279
366.28        99.03857
366.73        98.82398
367.18         98.5765
367.63        97.89153
368.08        96.72437
368.53        95.24213
368.98        93.81794
369.43        92.98801
369.88        92.83849
370.33        93.18463
370.78        93.67805
371.23         93.7113
371.68          93.104
372.13        92.06084
372.58        90.84197
373.03        89.83077
373.48        89.13483
373.93        88.61777
374.38        88.21261
374.83        87.82791
375.28        87.41948
375.72        87.02654
376.17        86.62975
376.62        86.12603
377.07        85.50389
377.52        84.77307
377.97        84.02657
378.42        83.42527
378.87        83.00362
379.32        82.72311
379.77        82.47813
380.22        82.09676
380.67        81.54864
381.11        80.90059
381.56        80.25925
382.01        79.82062
382.46        79.62819
382.91        79.59878
383.36        79.62973
383.81         79.5663
384.26        79.35448
384.71        79.04367
385.15         78.6318
385.60        78.16441
386.05        77.66042
386.50        77.12129
386.95        76.61159
387.40        76.23814
387.85        76.01478
388.29        75.85973
388.74        75.78804
389.19        75.63716
389.64        75.37041
390.09        75.01128
390.54        74.59278
390.98        74.15951
391.43        73.78857
391.88         73.4567
392.33        73.15509
392.78        72.88144
393.23        72.63701
393.67        72.34798
394.12        72.10557
394.57        71.96787
395.02        72.07205
395.47        71.70332
395.91        71.07165
396.36        70.81845
396.81        70.99651
397.26        71.29453
397.71        71.49048
398.15          71.399
398.60        71.06631
399.05        70.36735
399.50        69.61456
399.95        69.58303
400.39        70.18852
400.84        70.45871
401.29        70.24638
401.74        70.06704
402.18        69.89025
402.63         69.3025
403.08        68.50925
403.53        68.02313
403.97        67.91067
404.42        68.04278
404.87        68.23813
405.32        68.22311
405.76        67.93275
406.21        67.48283
406.66        67.03012
407.11        66.85064
407.55        67.02115
408.00        67.33804
408.45        67.66624
408.90        67.94323
409.34        67.99551
409.79        67.51207
410.24        66.71185
410.68        66.26668
411.13        66.26666
411.58         66.3751
412.03        66.51087
412.47        66.66366
412.92        66.75574
413.37        66.81887
413.81        66.81892
414.26        66.75047
414.71        66.60395
415.15        66.39429
415.60        66.16711
416.05        66.06396
416.49        66.11913
416.94        66.29024
417.39         66.5021
417.83        66.61458
418.28        66.59977
418.73        66.51178
419.17        66.39773
419.62        66.33626
420.07        66.34402
420.51        66.37051
420.96        66.46593
421.41        66.58383
421.85        66.68489
422.30        66.98017
422.74         67.3339
423.19        67.25916
423.64        66.87399
424.08        67.03635
424.53         67.6794
424.98        67.90152
425.42        67.61203
425.87        67.72202
426.31        67.95437
426.76        67.50187
427.21        66.65765
427.65        67.24325
428.10        68.86068
428.54        69.42262
428.99        68.90253
429.44        68.09375
429.88         67.3843
430.33        67.95197
430.77        69.28859
431.22        69.11591
431.66        67.65076
432.11        67.25517
432.56        68.02883
433.00        68.58251
433.45        68.64754
433.89        68.75973
434.34        68.01315
434.78        69.01628
435.23        69.33041
435.67        69.37072
436.12        68.75378
436.57        69.28411
437.01        70.75107
437.46        71.39559
437.90        70.90111
438.35        70.50653
438.79        70.28771
439.24         69.8899
439.68        69.47723
440.13        69.62506
440.57        70.24105
441.02        70.66705
441.46        70.78917
441.91        71.03184
442.35         71.2926
442.80        71.36124
443.24        71.43732
443.69        71.40353
444.13        71.34579
444.58        71.34715
445.02        71.40624
445.47        71.53187
445.91        71.70637
446.36        71.91293
446.80        72.12495
447.24        72.37754
447.69        72.60241
448.13        72.80827
448.58        72.98057
449.02        73.09884
449.47        73.17502
449.91        73.18833
450.36        73.16216
450.80        73.08263
451.25        72.98489
451.69        72.87737
452.13        72.77934
452.58        72.70289
453.02        72.62951
453.47        72.55155
453.91          72.447
454.36        72.35029
454.80        72.28549
455.24        72.08386
455.69         72.0729
456.13        71.91812
456.58        71.83591
457.02        71.39508
457.46        71.35443
457.91        71.83353
458.35        72.72299
458.79        72.91956
459.24        72.36375
459.68        71.75256
460.13         71.3978
460.57        70.33965
461.01        70.69935
461.46         70.5724
461.90        70.73513
462.34        71.09399
462.79        70.25115
463.23        70.59153
463.68        71.41841
464.12        71.69057
464.56        71.34456
465.01        70.69628
465.45        70.56045
465.89        70.35947
466.34        70.24443
466.78        70.35284
467.22        69.99359
467.67        69.76104
468.11         69.7487
468.55        69.83195
468.99        70.02412
469.44        69.98224
469.88        69.95038
470.32         69.8198
470.77        69.71619
471.21        69.69516
471.65        69.76234
472.10        69.90669
472.54         70.0405
472.98        70.06796
473.42        69.96828
473.87        69.79519
474.31        69.57451
474.75        69.40746
475.20        69.33125
475.64         69.3218
476.08        69.35846
476.52        69.37404
476.97         69.3236
477.41        69.45092
477.85         69.1461
478.29        69.51642
478.74        69.36961
479.18        69.75512
479.62        68.89163
480.06        68.77183
480.50        68.96806
480.95        68.26292
481.39        69.03782
481.83        68.01334
482.27        68.23348
482.72         68.3414
483.16        68.27958
483.60        68.26286
484.04        68.79497
484.48        69.08458
484.93        69.55406
485.37        69.99001
485.81         69.7078
486.25         70.7699
486.69        69.88813
487.14        67.77647
487.58        67.36221
488.02        68.94319
488.46        68.49476
488.90        67.83656
489.34        68.86946
489.79        68.88169
490.23        68.46157
490.67        68.20487
491.11        68.16531
491.55        68.44997
491.99        68.89574
492.43        69.05132
492.88        68.85793
493.32        68.62046
493.76        68.43017
494.20          68.313
494.64        68.29932
495.08         68.3521
495.52         68.4398
495.96        68.51841
496.41        68.54849
496.85        68.54928
497.29        68.48257
497.73        68.25159
498.17        68.07233
498.61         67.7831
499.05        67.54323
499.49         67.7398
499.93        68.20586
500.37        68.38769
500.82        68.32413
501.26        68.03166
501.70        68.21927
502.14        68.64947
502.58        68.25974
503.02        68.19537
503.46        68.10171
503.90        67.95489
504.34        67.81911
504.78        67.84018
505.22        68.02145
505.66        68.36565
506.10        68.76461
506.54        68.82938
506.98        68.44627
507.42         68.5649
507.86        67.70066
508.30        67.46779
508.74        67.44827
509.18        67.56625
509.62        67.74826
510.06        67.92824
510.50        68.07629
510.94        68.19676
511.38        68.27438
511.82        68.28465
512.26        68.23339
512.70        68.08992
513.14        67.88348
513.58        67.76304
514.02        67.76931
514.46        67.51812
514.90        67.63438
515.34        67.55056
515.78        67.45294
516.22        67.34756
516.66         67.2695
517.10        67.25538
517.54        67.30745
517.98        67.41555
518.42        67.55031
518.86        67.66557
519.30        67.74585
519.74        67.79937
520.18        67.83849
520.62        67.88819
521.06         67.9489
521.50         67.9987
521.93        68.02989
522.37        68.02239
522.81        67.97772
523.25        67.91754
523.69         67.8259
524.13        67.66602
524.57        67.44087
525.01        67.20641
525.45        67.05331
525.89        67.00871
526.32        67.06207
526.76        67.62012
527.20        67.79017
527.64         68.0424
528.08        68.09387
528.52        68.01732
528.96        67.85143
529.40        67.67683
529.83        67.52892
530.27        67.39392
530.71        67.30168
531.15        67.31582
531.59        67.43842
532.03        67.65079
532.46        67.87042
532.90        67.98017
533.34         67.9517
533.78          67.769
534.22        67.50586
534.66        67.39548
535.09        67.40486
535.53        67.26023
535.97        66.98744
536.41        66.86922
536.85        66.91605
537.28        66.97421
537.72        67.02071
538.16        67.07695
538.60        67.12749
539.04        67.16225
539.47        67.16865
539.91        67.17051
540.35        67.15791
540.79        67.14171
541.22           67.13
541.66        67.07604
542.10        67.16012
542.54        67.10473
542.97        67.17629
543.41        67.18544
543.85        67.18782
544.29         67.1806
544.72        67.16268
545.16        67.16497
545.60        67.17399
546.04        67.17927
546.47        67.17161
546.91        67.14721
547.35        67.11354
547.79        67.06578
548.22        66.97031
548.66        66.89918
549.10        66.85473
549.53        66.55156
549.97        66.62618
550.41        66.58204
550.84        66.84289
551.28        67.17873
551.72        67.56272
552.15        67.75829
552.59        67.75776
553.03        67.70406
553.46        67.61678
553.90         67.5727
554.34        67.59348
554.77        67.54958
555.21        67.37909
555.65        67.69911
556.08        67.22539
556.52        67.09408
556.96        66.96046
557.39        66.75813
557.83        66.78059
558.27        66.77653
558.70        66.79898
559.14        67.07974
559.57        67.01109
560.01        67.20508
560.45        67.36357
560.88        67.28934
561.32        67.06973
561.75        66.63989
562.19        66.23478
562.63         66.5555
563.06        67.36963
563.50        67.33791
563.93        66.56187
564.37        66.36843
564.80        66.75837
565.24        67.01942
565.68        67.05309
566.11        67.05241
566.55        67.03491
566.98        66.89269
567.42        66.74962
567.85        66.82059
568.29        67.09451
568.72        67.28021
569.16        67.40486
569.60         67.4399
570.03        67.29874
570.47        67.33233
570.90        67.57061
571.34          66.685
571.77        67.00492
572.21        67.19858
572.64        67.40383
573.08        66.99986
573.51        67.13936
573.95        67.73792
574.38        67.12341
574.82        67.05455
