SpectraSmart Spectrum 2.9.0.0
--------- Device Information -----------
Spectrum Name :  反射率_0
Saving Time :  2024/05/01 16:40:21
Spectro-Module Model Name : SE2030-DUVN
Spectro-Module Serial Number : OS361AC55029948
Wavelength Start : 200
Wavelength End : 1025
Wavelength Unit : Wavelength(nm)
Spectrum Unit : Reflectance(%)
-----------Spectrum Setting ------------
Integration Time : 20ms
Average : 10
Boxcar : 0
Background removal :  enabled
linearity correction :  enabled
SC :  disabled
Intensity correction :  disabled
DWT denoise :  enabled
savitzky-golay :  disabled
FFT :  disabled
Running average :  disabled
Kalman :  disabled
High pass :  disabled
---------------BEGIN--------------------
Wavelength(nm)             Reflectance(%)
200.29               0
200.75       -77.07424
201.21        249.3089
201.67       -254.4543
202.13       -105.6559
202.58       -29.75597
203.04        25.38026
203.50        63.92366
203.96        85.90683
204.42        98.31578
204.88        112.7984
205.34        410.1991
205.80        25.42434
206.26        8.309852
206.72       -62.20282
207.18       -449.7242
207.64        677.2001
208.10        284.6158
208.55         190.031
209.01        145.5809
209.47         124.098
209.93         115.602
210.39        112.8201
210.85        116.1528
211.31        131.6941
211.77        195.9914
212.23       -345.2181
212.69       -17.52609
213.14        8.972609
213.60        10.53229
214.06        105.3132
214.52        46.51844
214.98        46.23205
215.44        52.59549
215.90        76.76128
216.36        460.1227
216.81       -135.5672
217.27       -180.1827
217.73        448.1707
218.19        110.8363
218.65        84.43556
219.11        88.28477
219.57        129.6388
220.02        294.2483
220.48        137.7501
220.94        50.32855
221.40        30.38073
221.86        25.76576
222.32         28.3914
222.77        36.31798
223.23         50.5099
223.69        69.06951
224.15        76.53489
224.61        67.61762
225.06        53.32101
225.52        43.21618
225.98        40.37825
226.44        43.56932
226.90         51.8135
227.36        63.02835
227.81        67.84779
228.27        62.88655
228.73        54.34292
229.19        47.47127
229.65        44.90604
230.10         46.0537
230.56        50.03946
231.02        55.58641
231.48        58.81512
231.93        57.87569
232.39        54.97947
232.85        52.11273
233.31        51.06806
233.77        51.81317
234.22        53.45379
234.68         55.4809
235.14        57.55742
235.60        59.77747
236.05        62.79987
236.51        66.92157
236.97        71.76138
237.43        76.02773
237.88        78.60468
238.34        79.22063
238.80        79.66714
239.26        80.71644
239.71        82.72747
240.17        84.64184
240.63        83.19402
241.08        77.06675
241.54        69.62594
242.00        65.54604
242.46        68.01806
242.91        78.67981
243.37        99.91747
243.83        136.6382
244.28        168.4526
244.74        166.4035
245.20        148.1561
245.66        130.2443
246.11        116.4703
246.57        103.6085
247.03        85.53051
247.48        58.02851
247.94        27.02367
248.40        8.539627
248.85        6.818124
249.31        19.87934
249.77        36.52342
250.22        50.26876
250.68        61.39799
251.14        69.46846
251.59        75.46497
252.05        81.63521
252.51        90.81947
252.96        112.2034
253.42        160.7039
253.88        194.1033
254.33         176.134
254.79        152.9246
255.25        136.4967
255.70        123.6776
256.16        114.1689
256.62        106.3528
257.07        99.70621
257.53        95.11429
257.99        91.70594
258.44         89.2103
258.90         88.1737
259.35        87.70211
259.81        87.78973
260.27        87.74362
260.72        86.79943
261.18        85.35641
261.63        83.43051
262.09        81.60317
262.55        79.89748
263.00        78.20702
263.46        76.65576
263.91        75.13193
264.37        73.99766
264.83        73.11684
265.28        72.38988
265.74        71.64422
266.19        70.25851
266.65        68.35574
267.11        66.04906
267.56        63.83021
268.02        62.58455
268.47        62.39919
268.93        62.95068
269.38        63.66794
269.84        63.58225
270.30        62.47066
270.75         60.6355
271.21         58.5181
271.66        56.63763
272.12        55.22912
272.57          54.041
273.03        53.05214
273.48        52.15844
273.94        51.35691
274.39        50.67408
274.85        50.04799
275.31        49.25461
275.76        48.25937
276.22        47.18447
276.67        46.12831
277.13        45.40005
277.58        44.93827
278.04        44.68265
278.49        44.41167
278.95        43.95232
279.40        43.20245
279.86        42.30956
280.31        41.31508
280.77        40.40857
281.22        39.57029
281.68         38.8389
282.13        38.12413
282.59        37.41858
283.04        36.68578
283.50         36.0139
283.95        35.44546
284.41          35.115
284.86        35.01384
285.32        35.10075
285.77        35.29202
286.22        35.53619
286.68        35.79753
287.13        36.05181
287.59        36.24658
288.04         36.2534
288.50         36.0912
288.95        35.75451
289.41        35.40107
289.86        35.15602
290.32        35.09543
290.77        35.18413
291.22        35.35418
291.68        35.47506
292.13        35.53436
292.59         35.6317
293.04        35.87717
293.50         36.4935
293.95        37.49382
294.40        38.79631
294.86        40.27386
295.31         41.7334
295.77        43.09619
296.22        44.39045
296.68        45.63074
297.13        46.82264
297.58        48.01916
298.04        49.24929
298.49        50.55648
298.95        52.05495
299.40        53.72373
299.85        55.51347
300.31        57.41816
300.76        59.40585
301.21        61.47384
301.67        63.63992
302.12        65.74053
302.58        67.55183
303.03        68.99197
303.48         70.1598
303.94        71.34189
304.39        72.85143
304.84        74.81561
305.30        77.11564
305.75        79.52153
306.20        81.70608
306.66        83.56673
307.11        85.13558
307.57        86.53397
308.02        87.82152
308.47        89.08191
308.93        90.29732
309.38        91.42529
309.83        92.50568
310.29        93.56856
310.74         94.6144
311.19        95.66241
311.65        96.70618
312.10        97.71453
312.55        98.67333
313.00        99.62653
313.46        100.6481
313.91        101.7226
314.36        102.8251
314.82        103.7792
315.27        104.3221
315.72        104.4032
316.18         104.148
316.63        103.7772
317.08        103.7016
317.53        104.0176
317.99        104.6148
318.44         105.312
318.89        105.7707
319.35        105.9037
319.80        105.8506
320.25        105.7419
320.70         105.788
321.16        106.0392
321.61        106.4189
322.06        106.9043
322.51        107.4882
322.97        108.1009
323.42        108.7765
323.87         109.344
324.32        109.5454
324.78        109.3315
325.23        108.8227
325.68        108.2112
326.13        107.8409
326.59        107.8007
327.04        108.0628
327.49        108.5231
327.94        109.0162
328.39        109.4637
328.85        109.8603
329.30        110.2799
329.75        110.6772
330.20        111.0462
330.66        111.3442
331.11        111.5956
331.56        111.7277
332.01        111.7566
332.46        111.7107
332.92        111.7078
333.37        112.0505
333.82        112.7702
334.27        113.8282
334.72         115.015
335.17        115.9486
335.63        116.4741
336.08        116.7093
336.53        116.8442
336.98        117.2738
337.43        118.0923
337.88        119.1838
338.34        120.2375
338.79        120.8337
339.24        120.8294
339.69        120.3801
340.14        119.8424
340.59        119.7686
341.05        120.2894
341.50         121.269
341.95        122.3751
342.40        123.0672
342.85         123.217
343.30        123.0077
343.75        122.7639
344.20         122.983
344.66        123.7682
345.11        124.9318
345.56        126.1956
346.01        127.0999
346.46        127.5072
346.91        127.5803
347.36        127.4924
347.81        127.5029
348.26        127.7015
348.72        128.0061
349.17        128.3613
349.62        128.7597
350.07        129.1489
350.52        129.5065
350.97        129.7641
351.42        129.7932
351.87        129.5817
352.32        129.2168
352.77        128.6856
353.22        127.9788
353.67        127.1488
354.13        126.2336
354.58        125.4491
355.03        125.2409
355.48        125.6534
355.93        126.5824
356.38        127.5372
356.83        127.6912
357.28         126.873
357.73        125.3346
358.18        123.6909
358.63        122.8617
359.08        123.0136
359.53        123.8464
359.98        124.7989
360.43        124.9392
360.88        124.0291
361.33        122.4019
361.78        120.5525
362.23        119.1795
362.68        118.4527
363.13        118.1478
363.58        117.9632
364.03        117.4427
364.48        116.4595
364.93        115.1658
365.38        113.8185
365.83        112.7761
366.28        112.1152
366.73        111.7302
367.18        111.3371
367.63        110.5017
368.08        109.1725
368.53        107.5306
368.98        105.9668
369.43        105.0365
369.88         104.826
370.33        105.1421
370.78        105.6077
371.23        105.5715
371.68        104.8455
372.13        103.6475
372.58        102.2801
373.03        101.1913
373.48        100.4951
373.93        100.0287
374.38         99.6758
374.83        99.26453
375.28        98.73241
375.72        98.15073
376.17        97.53986
376.62        96.84639
377.07        96.08127
377.52        95.24222
377.97        94.42977
378.42        93.81765
378.87        93.43064
379.32        93.21472
379.77         93.0363
380.22        92.68071
380.67        92.10242
381.11        91.37949
381.56        90.61486
382.01        90.00325
382.46        89.60885
382.91        89.37033
383.36         89.2253
383.81        89.07774
384.26         88.8822
384.71        88.65736
385.15        88.38536
385.60        88.08958
386.05        87.75736
386.50        87.38156
386.95        86.95774
387.40         86.4954
387.85        86.00793
388.29         85.4541
388.74        84.96534
389.19         84.5245
389.64        84.13194
390.09        83.77439
390.54        83.42066
390.98        83.03008
391.43        82.66095
391.88        82.23978
392.33        81.80856
392.78        81.61572
393.23        81.58739
393.67        81.22139
394.12        80.65578
394.57        80.47835
395.02        80.57677
395.47        80.16703
395.91        79.39658
396.36        79.07413
396.81        79.25731
397.26         79.5853
397.71        79.78801
398.15          79.631
398.60        79.17537
399.05        78.26105
399.50        77.28934
399.95        77.30633
400.39        78.18796
400.84         78.5462
401.29        78.22021
401.74        78.14217
402.18        78.21455
402.63        77.51337
403.08        76.30278
403.53        75.58744
403.97        75.45565
404.42        75.51834
404.87        75.64133
405.32        75.64667
405.76        75.44556
406.21        75.34956
406.66        75.32144
407.11        74.79743
407.55        74.05203
408.00        74.16405
408.45        74.99635
408.90        75.36181
409.34         75.0439
409.79        74.40795
410.24        73.66927
410.68        73.19598
411.13        73.07338
411.58        73.03899
412.03        73.05458
412.47        73.19546
412.92         73.3969
413.37        73.63869
413.81        73.83136
414.26        73.90868
414.71        73.83584
415.15        73.64069
415.60        73.37328
416.05         73.1925
416.49        73.14642
416.94        73.19022
417.39        73.26295
417.83        73.24931
418.28        73.12599
418.73        72.93839
419.17        72.73895
419.62        72.61235
420.07        72.57588
420.51        72.58006
420.96        72.63557
421.41        72.66523
421.85        72.63302
422.30         72.6689
422.74        72.71961
423.19         72.6685
423.64        72.54298
424.08        72.61351
424.53        72.84457
424.98        72.95146
425.42        72.88846
425.87        73.04581
426.31        73.35386
426.76        72.93192
427.21         72.1049
427.65        72.54088
428.10        73.88498
428.54        74.22699
428.99         73.5608
429.44         72.6445
429.88        71.86553
430.33        72.27732
430.77        73.42386
431.22        73.42191
431.66        72.35901
432.11        71.88717
432.56        72.12171
433.00        72.50271
433.45        72.89499
433.89        73.03543
434.34        72.17353
434.78        73.92564
435.23        73.40822
435.67        73.46857
436.12        73.05057
436.57         73.0788
437.01        74.62283
437.46        75.18533
437.90        74.61404
438.35        74.18368
438.79        74.08069
439.24        73.70242
439.68        73.23025
440.13         73.3197
440.57        73.92722
441.02        74.22754
441.46        74.07515
441.91        74.50693
442.35        74.87438
442.80        74.21407
443.24        74.14173
443.69        73.88756
444.13        73.97695
444.58        74.01979
445.02        74.01674
445.47        74.20259
445.91        74.52952
446.36         74.8541
446.80        75.12848
447.24        75.39008
447.69        75.60532
448.13         75.7048
448.58        75.69958
449.02        75.57927
449.47         75.4206
449.91        75.30577
450.36        75.27859
450.80        75.29481
451.25        75.33229
451.69         75.3033
452.13        75.20437
452.58        75.07738
453.02        74.92567
453.47         74.8131
453.91        74.73608
454.36        74.62415
454.80        74.48714
455.24        74.46308
455.69        74.46346
456.13        74.28235
456.58        74.02287
457.02        73.56974
457.46        73.13313
457.91        73.76482
458.35        74.47856
458.79        74.63428
459.24        73.96158
459.68        73.24374
460.13        72.83854
460.57        71.83274
461.01        72.00891
461.46        72.15001
461.90        72.57946
462.34        72.34916
462.79        71.95287
463.23        71.98693
463.68        72.47215
464.12        72.54433
464.56        72.15759
465.01        71.90208
465.45        71.79037
465.89        71.70145
466.34        71.47502
466.78        71.91013
467.22        70.78219
467.67        70.73814
468.11        70.85629
468.55         71.0717
468.99        71.18257
469.44        71.21387
469.88        71.16377
470.32        71.00392
470.77        70.79846
471.21        70.66808
471.65        70.62671
472.10        70.65199
472.54        70.68952
472.98        70.65779
473.42        70.53452
473.87        70.45684
474.31        70.39497
474.75        70.14654
475.20        69.81087
475.64        69.89544
476.08        70.31181
476.52        70.35392
476.97        69.93787
477.41        70.31679
477.85        69.33751
478.29         70.0203
478.74        69.69864
479.18        69.81101
479.62        69.71524
480.06        69.71244
480.50        69.81988
480.95        68.94083
481.39        69.62965
481.83        68.50347
482.27        69.39023
482.72        69.28194
483.16        69.12063
483.60        69.05325
484.04        69.38908
484.48        69.31455
484.93        69.31676
485.37        69.97729
485.81        69.63718
486.25        71.39277
486.69        71.73449
487.14        68.90073
487.58        67.73979
488.02         69.7192
488.46        69.02342
488.90          68.383
489.34        69.18517
489.79        69.09128
490.23        68.84965
490.67        68.64522
491.11        68.54432
491.55        68.60844
491.99        68.74553
492.43        68.73014
492.88        68.54788
493.32        68.39687
493.76        68.31752
494.20        68.30177
494.64        68.34064
495.08        68.41474
495.52        68.55895
495.96        68.69307
496.41        68.69511
496.85        69.16645
497.29         68.9706
497.73        68.40376
498.17         68.1885
498.61        67.88171
499.05        67.68188
499.49        67.87785
499.93        68.26273
500.37        68.49519
500.82        68.61244
501.26        68.09261
501.70          68.704
502.14        68.67513
502.58        68.52249
503.02        68.37672
503.46        68.26556
503.90        68.11873
504.34        67.98251
504.78        67.94617
505.22        67.99941
505.66        68.22696
506.10        68.58265
506.54        68.43716
506.98        68.23536
507.42         68.2448
507.86        68.02673
508.30        67.39375
508.74         67.7672
509.18        67.83511
509.62        67.98994
510.06        68.08737
510.50        68.10811
510.94         68.0583
511.38        67.97523
511.82        67.96236
512.26        68.02837
512.70        68.12888
513.14        68.20447
513.58        68.16568
514.02        67.99708
514.46        67.74495
514.90        67.45499
515.34        67.19835
515.78        67.01093
516.22         66.8793
516.66        66.82495
517.10        66.87597
517.54         67.0245
517.98        67.25906
518.42        67.51529
518.86        67.68385
519.30        67.73505
519.74        67.68996
520.18        67.60055
520.62        67.56028
521.06        67.58907
521.50        67.64882
521.93         67.7101
522.37        67.71449
522.81        67.65392
523.25        67.56558
523.69        67.44576
524.13        67.28156
524.57        67.08919
525.01        66.87578
525.45        66.71485
525.89         66.7221
526.32        66.90669
526.76        67.22426
527.20        67.56325
527.64        67.74452
528.08        67.72244
528.52        67.55476
528.96        67.31927
529.40        67.14129
529.83        67.05554
530.27        67.04121
530.71        67.07819
531.15        67.15134
531.59        67.24628
532.03        67.36666
532.46        67.47919
532.90        67.54782
533.34        67.56183
533.78        67.47558
534.22        67.31729
534.66        67.25295
535.09        67.23345
535.53        67.00926
535.97        66.63696
536.41        66.44317
536.85        66.45453
537.28        66.50868
537.72        66.56661
538.16        66.62519
538.60        66.66182
539.04        66.67152
539.47        66.66505
539.91        66.69768
540.35        66.75852
540.79        66.85712
541.22        66.95722
541.66        66.91029
542.10        66.87693
542.54        66.73897
542.97         66.5944
543.41        66.54794
543.85        66.60831
544.29        66.75207
544.72        66.90121
545.16        66.97092
545.60        66.92647
546.04        66.78891
546.47        66.63443
546.91        66.59752
547.35        66.70944
547.79        66.90853
548.22        67.05739
548.66        67.09289
549.10        66.99023
549.53        66.48254
549.97        66.27651
550.41         66.1469
550.84        66.31026
551.28         66.6881
551.72        67.13499
552.15          67.367
552.59        67.34465
553.03        67.20035
553.46        66.99615
553.90        66.89751
554.34        66.94128
554.77        66.95632
555.21        66.85396
555.65        67.22115
556.08        66.77011
556.52        66.62639
556.96         66.4722
557.39        66.28144
557.83         66.3405
558.27        66.37053
558.70         66.4172
559.14        66.59016
559.57        66.42609
560.01        66.64738
560.45        66.96145
560.88        66.87171
561.32         66.4865
561.75        66.13902
562.19        65.86938
562.63        66.16147
563.06         66.7738
563.50        66.71016
563.93        66.06004
564.37        65.90006
564.80        66.22951
565.24        66.46195
565.68        66.51178
566.11        66.53942
566.55        66.56001
566.98        66.46696
567.42        66.37284
567.85        66.47478
568.29        66.76857
568.72        66.99036
569.16        67.17313
569.60         67.2815
570.03        67.22444
570.47        67.33346
570.90        67.58193
571.34        66.73632
571.77        67.11397
572.21         67.1162
572.64        67.47904
573.08        66.96188
573.51        66.91356
573.95        67.85631
574.38        67.04366
574.82        67.46542
