SpectraSmart Spectrum 2.9.0.0
--------- Device Information -----------
Spectrum Name :  反射率_0
Saving Time :  2024/05/01 15:51:47
Spectro-Module Model Name : SE2030-DUVN
Spectro-Module Serial Number : OS361AC55029948
Wavelength Start : 200
Wavelength End : 1025
Wavelength Unit : Wavelength(nm)
Spectrum Unit : Reflectance(%)
-----------Spectrum Setting ------------
Integration Time : 20ms
Average : 10
Boxcar : 0
Background removal :  enabled
linearity correction :  enabled
SC :  disabled
Intensity correction :  disabled
DWT denoise :  enabled
savitzky-golay :  disabled
FFT :  disabled
Running average :  disabled
Kalman :  disabled
High pass :  disabled
---------------BEGIN--------------------
Wavelength(nm)             Reflectance(%)
200.29               0
200.75        57.09112
201.21        439.2571
201.67         -220.93
202.13       -75.81937
202.58       -18.91775
203.04        18.85048
203.50        43.54353
203.96        55.03217
204.42        56.09102
204.88        41.58049
205.34       -389.2241
205.80        121.6073
206.26        80.11849
206.72        35.49682
207.18       -149.1774
207.64        351.3864
208.10        164.7057
208.55        114.5378
209.01        87.31592
209.47        71.60983
209.93        62.15669
210.39        53.65541
210.85         45.3689
211.31        35.39366
211.77        8.962877
212.23        189.8439
212.69        83.44869
213.14        92.89787
213.60        165.2173
214.06       -661.0615
214.52       -90.45358
214.98       -53.51453
215.44       -46.72721
215.90       -59.02225
216.36       -320.0194
216.81        69.89482
217.27        51.87172
217.73       -65.34846
218.19       -15.74831
218.65       -25.72791
219.11       -57.65014
219.57       -161.8562
220.02        -585.989
220.48        -292.645
220.94       -68.72336
221.40       -11.29889
221.86        9.361635
222.32        18.23989
222.77        23.28567
223.23        27.53015
223.69        30.83121
224.15        30.30608
224.61        26.31613
225.06        21.45305
225.52        18.40769
225.98        17.95497
226.44        19.64254
226.90        23.42816
227.36        28.41138
227.81        30.31541
228.27        27.74392
228.73        23.56454
229.19        20.14719
229.65        18.58378
230.10          18.622
230.56        20.11317
231.02        22.73184
231.48        25.21855
231.93        26.61012
232.39        27.20371
232.85        27.86669
233.31        29.62781
233.77        32.32197
234.22         35.3994
234.68        38.09871
235.14        39.72451
235.60        40.26515
236.05          39.992
236.51        39.21574
236.97        39.20163
237.43        40.78283
237.88        43.50179
238.34         46.2297
238.80        48.28403
239.26        49.64769
239.71        50.97668
240.17        51.45715
240.63        48.66137
241.08        42.46953
241.54        35.73284
242.00        32.39101
242.46        35.34992
242.91        46.31232
243.37        68.25292
243.83        107.3273
244.28         144.616
244.74        147.9406
245.20         132.325
245.66        115.5853
246.11        103.1831
246.57         92.4073
247.03        77.58024
247.48        53.64008
247.94        21.52032
248.40       -6.117086
248.85       -21.47318
249.31       -19.18644
249.77       -3.961747
250.22        14.64339
250.68        32.02531
251.14        45.00497
251.59        52.81964
252.05        57.50536
252.51        60.77443
252.96        63.97057
253.42        72.92305
253.88        83.48852
254.33        82.94655
254.79        79.88649
255.25        77.75503
255.70        75.98673
256.16        75.03288
256.62        74.12083
257.07        72.78255
257.53         71.6967
257.99        70.60318
258.44        69.42776
258.90        68.60837
259.35         67.6898
259.81        66.92928
260.27        65.97768
260.72         64.5359
261.18        63.00631
261.63        61.26978
262.09        59.85567
262.55        58.89527
263.00        58.20113
263.46        57.75809
263.91        57.15079
264.37        56.21186
264.83        54.88846
265.28        53.33778
265.74        51.79441
266.19        50.29293
266.65         48.9798
267.11        47.72047
267.56        46.64148
268.02        46.04805
268.47        45.89304
268.93        46.05563
269.38        46.16011
269.84        45.54087
270.30        44.11236
270.75        42.10471
271.21        39.97593
271.66         38.2921
272.12        37.26721
272.57        36.66782
273.03        36.36406
273.48        36.09303
273.94        35.76929
274.39         35.4293
274.85        35.05737
275.31        34.55482
275.76        33.91058
276.22        33.19566
276.67        32.42503
277.13        31.74236
277.58        31.12077
278.04        30.56942
278.49         30.0676
278.95        29.69892
279.40        29.40469
279.86        29.19334
280.31        28.93723
280.77         28.5491
281.22         27.9804
281.68        27.34306
282.13        26.65833
282.59        26.04114
283.04        25.49836
283.50        25.04549
283.95        24.70955
284.41        24.58107
284.86        24.64398
285.32        24.87903
285.77        25.18265
286.22        25.44567
286.68        25.64011
287.13        25.75893
287.59        25.84564
288.04        25.93281
288.50        26.05032
288.95        26.14119
289.41        26.20935
289.86        26.18773
290.32         26.1148
290.77        26.03121
291.22        25.99169
291.68        26.06054
292.13        26.26665
292.59        26.63164
293.04        27.16401
293.50        27.92088
293.95        28.88085
294.40        30.03083
294.86         31.3066
295.31        32.61352
295.77        33.90728
296.22        35.18256
296.68        36.45876
297.13         37.7622
297.58        39.12952
298.04        40.58397
298.49        42.10549
298.95          43.695
299.40        45.32084
299.85        46.97506
300.31        48.72734
300.76        50.67273
301.21        52.83604
301.67        55.19606
302.12         57.5555
302.58        59.62514
303.03        61.29517
303.48        62.67363
303.94        64.03708
304.39         65.7003
304.84        67.79466
305.30        70.20995
305.75        72.72904
306.20         75.0387
306.66         77.0446
307.11        78.78192
307.57        80.38921
308.02        81.96339
308.47        83.57778
308.93        85.18567
309.38        86.69924
309.83        88.08377
310.29        89.34818
310.74        90.52032
311.19        91.63079
311.65        92.69412
312.10        93.70247
312.55        94.64307
313.00        95.60331
313.46        96.72649
313.91        98.00269
314.36        99.37959
314.82        100.6247
315.27        101.3767
315.72        101.5555
316.18        101.3215
316.63        100.9124
317.08        100.7651
317.53        101.0012
317.99        101.5089
318.44        102.1591
318.89        102.7017
319.35         103.056
319.80         103.324
320.25        103.5598
320.70        103.8494
321.16        104.2043
321.61        104.5803
322.06        104.9779
322.51        105.4324
322.97        105.9086
323.42        106.4428
323.87         106.905
324.32        107.1038
324.78        107.0025
325.23        106.6975
325.68        106.3535
326.13        106.2628
326.59        106.4832
327.04        106.9898
327.49        107.6281
327.94         108.156
328.39        108.4852
328.85        108.6288
329.30        108.7541
329.75        108.9826
330.20        109.3631
330.66        109.8267
331.11        110.3173
331.56        110.6139
332.01         110.689
332.46        110.6105
332.92        110.5656
333.37        110.9739
333.82        111.8919
334.27        113.2285
334.72        114.6977
335.17        115.7908
335.63        116.3159
336.08        116.4429
336.53        116.4091
336.98        116.6836
337.43        117.3968
337.88        118.4105
338.34        119.4534
338.79        120.1667
339.24         120.406
339.69        120.3105
340.14        120.1312
340.59        120.2482
341.05         120.755
341.50        121.5553
341.95        122.4297
342.40        123.0313
342.85        123.2766
343.30        123.2866
343.75        123.2818
344.20        123.5975
344.66        124.2979
345.11        125.2542
345.56        126.2666
346.01        126.9994
346.46         127.358
346.91        127.4715
347.36        127.4666
347.81        127.5347
348.26        127.7442
348.72        128.0293
349.17        128.3726
349.62         128.824
350.07        129.3374
350.52        129.8673
350.97        130.2742
351.42        130.3201
351.87        129.9778
352.32        129.3782
352.77        128.6066
353.22        127.8014
353.67        127.0472
354.13        126.3356
354.58         125.799
355.03        125.7568
355.48        126.2152
355.93        127.0959
356.38        127.9634
356.83        128.0827
357.28         127.305
357.73        125.8562
358.18        124.2766
358.63        123.3772
359.08        123.3133
359.53        123.8244
359.98        124.4646
360.43        124.4947
360.88        123.7148
361.33        122.3865
361.78         120.869
362.23        119.6572
362.68        118.8788
363.13        118.3823
363.58        117.9516
364.03        117.2718
364.48        116.2639
364.93        115.0276
365.38        113.8014
365.83        112.9201
366.28        112.4356
366.73        112.2476
367.18        112.0218
367.63        111.2366
368.08        109.8262
368.53        107.9984
368.98        106.2059
369.43        105.1009
369.88        104.7977
370.33        105.0826
370.78        105.5595
371.23        105.5371
371.68        104.8142
372.13        103.6276
372.58        102.2812
373.03        101.2218
373.48        100.5612
373.93        100.1216
374.38        99.79356
374.83         99.4228
375.28        98.94292
375.72        98.41801
376.17        97.83293
376.62        97.08013
377.07         96.1686
377.52        95.12202
377.97        94.09615
378.42        93.34936
378.87        92.92749
379.32        92.75163
379.77        92.64901
380.22        92.34262
380.67        91.76833
381.11        91.02176
381.56        90.22145
382.01        89.58879
382.46        89.19411
382.91        88.96004
383.36        88.81618
383.81        88.65793
384.26        88.43728
384.71        88.18201
385.15        87.87379
385.60        87.53072
386.05        87.14775
386.50        86.72856
386.95        86.28556
387.40        85.85184
387.85        85.44173
388.29        84.99692
388.74        84.63514
389.19        84.32378
389.64        84.04557
390.09        83.78172
390.54        83.47913
390.98        83.03965
391.43        82.52031
391.88        81.95001
392.33        81.38915
392.78        80.94907
393.23        80.65433
393.67        80.35068
394.12        80.09321
394.57        80.04884
395.02        80.08363
395.47        79.65285
395.91        78.92549
396.36        78.64553
396.81        78.86974
397.26        79.23067
397.71         79.4934
398.15        79.44092
398.60        79.11089
399.05        78.43785
399.50        77.70245
399.95        77.50219
400.39        77.81004
400.84        77.96925
401.29        77.82566
401.74        77.57896
402.18        77.19684
402.63        76.48115
403.08        75.65207
403.53        75.14127
403.97        75.00227
404.42        75.10279
404.87        75.31212
405.32        75.38953
405.76        75.25305
406.21        75.14742
406.66        75.04932
407.11        74.60882
407.55        74.03137
408.00        73.96972
408.45        74.36996
408.90        74.62617
409.34        74.53969
409.79        74.05904
410.24        73.35775
410.68        72.96192
411.13        72.93721
411.58        72.93992
412.03        72.92233
412.47        72.98207
412.92        73.06581
413.37        73.15971
413.81        73.21056
414.26        73.20114
414.71        73.11004
415.15        72.95905
415.60        72.78419
416.05        72.71219
416.49        72.77235
416.94        72.91827
417.39        73.08184
417.83        73.13963
418.28        73.06463
418.73        72.90169
419.17        72.69328
419.62        72.51248
420.07        72.38174
420.51        72.26311
420.96        72.20475
421.41        72.17078
421.85        72.12582
422.30        72.22718
422.74        72.39391
423.19        72.31206
423.64        72.04922
424.08        72.23878
424.53        72.80685
424.98        72.75345
425.42        72.73129
425.87        72.55013
426.31        72.52717
426.76        72.20588
427.21        71.79484
427.65        72.42937
428.10         73.6468
428.54        73.54111
428.99        72.38297
429.44        71.61976
429.88        71.51992
430.33        72.42194
430.77        73.71807
431.22        73.67041
431.66        72.44654
432.11        71.70545
432.56        71.61792
433.00        72.01488
433.45        72.79089
433.89        72.18589
434.34        71.41653
434.78        73.10271
435.23        72.48687
435.67        72.77408
436.12        72.57518
436.57        73.00664
437.01        73.88463
437.46         74.2341
437.90        74.03999
438.35        73.50887
438.79        73.43233
439.24        73.09192
439.68        72.78726
440.13        72.86601
440.57        73.32729
441.02        73.66692
441.46        73.75318
441.91        74.21228
442.35         74.8692
442.80        74.23563
443.24        74.26019
443.69        74.05379
444.13        74.18359
444.58        74.18642
445.02        74.03033
445.47        74.07656
445.91        74.36116
446.36        74.52854
446.80        74.47884
447.24        75.55869
447.69        75.47044
448.13        75.65201
448.58        75.50176
449.02        75.37518
449.47        75.33576
449.91        75.24763
450.36        75.17554
450.80        75.19636
451.25         75.2797
451.69        75.25144
452.13        75.09579
452.58        74.88513
453.02        74.66271
453.47        74.46021
453.91        74.24122
454.36        74.19558
454.80          74.343
455.24        73.88318
455.69        73.52153
456.13         74.0419
456.58        73.52076
457.02         73.3481
457.46        73.05645
457.91         73.3996
458.35        74.12611
458.79        74.19475
459.24         73.5808
459.68        72.95811
460.13        72.62742
460.57         71.5769
461.01        71.95494
461.46        71.84968
461.90         71.8875
462.34         72.3146
462.79        71.62732
463.23         71.6692
463.68        71.90424
464.12        72.06002
464.56        72.02433
465.01        71.70367
465.45        71.40531
465.89        71.29739
466.34        71.33713
466.78         71.6284
467.22        70.97051
467.67        70.79901
468.11        70.92905
468.55        70.97814
468.99        70.93835
469.44        70.87091
469.88        70.79403
470.32        70.67123
470.77        70.53214
471.21        70.47531
471.65        70.49676
472.10        70.47263
472.54        70.55217
472.98         70.4959
473.42        70.33083
473.87        70.27521
474.31        70.26533
474.75        69.82702
475.20         69.1834
475.64        69.34993
476.08         70.1328
476.52        70.33018
476.97        69.83667
477.41        69.83723
477.85        68.79353
478.29        69.55862
478.74        69.53755
479.18        69.80915
479.62        68.84087
480.06        68.68416
480.50        69.09654
480.95        68.43748
481.39        69.08547
481.83        68.29746
482.27        68.73959
482.72        68.64189
483.16        68.59665
483.60        68.71709
484.04        68.93963
484.48        68.96213
484.93         69.0682
485.37        69.72507
485.81        69.44005
486.25        70.78251
486.69        70.39372
487.14        68.22324
487.58        67.24078
488.02        69.39145
488.46        68.51553
488.90        68.01043
489.34         68.5526
489.79        68.82788
490.23        68.31105
490.67        68.20488
491.11        68.21728
491.55        68.25111
491.99        68.24451
492.43        68.18916
492.88        68.09337
493.32        68.01109
493.76        67.95905
494.20        67.95292
494.64        67.98901
495.08        68.01907
495.52        68.05756
495.96        68.11164
496.41        68.12006
496.85        68.15558
497.29        68.13451
497.73        67.54747
498.17        67.27639
498.61        66.99547
499.05        67.00547
499.49        67.17384
499.93        67.41726
500.37        67.55799
500.82        67.57204
501.26        67.65004
501.70        67.77906
502.14        67.80123
502.58        67.71112
503.02        67.60732
503.46        67.50627
503.90        67.37173
504.34         67.2745
504.78        67.31684
505.22        67.49705
505.66        67.85247
506.10        68.25259
506.54        68.29514
506.98        67.89805
507.42        67.81347
507.86        67.08248
508.30        66.84805
508.74        66.83759
509.18        67.03884
509.62        67.34783
510.06        67.43066
510.50        67.52919
510.94        67.45467
511.38        67.34219
511.82        67.25842
512.26        67.22737
512.70        67.20968
513.14        67.18887
513.58        67.15594
514.02        67.10511
514.46        67.05156
514.90        66.98965
515.34        66.90421
515.78        66.79958
516.22        66.68329
516.66        66.58458
517.10        66.54787
517.54        66.57998
517.98        66.66653
518.42        66.77419
518.86        66.84591
519.30        66.86598
519.74        66.84943
520.18        66.81586
520.62        66.80103
521.06        66.80994
521.50        66.81841
521.93        66.82314
522.37        66.81033
522.81         66.7804
523.25        66.75124
523.69        66.69198
524.13        66.54939
524.57        66.33212
525.01        66.06567
525.45        65.84284
525.89        65.80881
526.32        65.98071
526.76        66.29964
527.20        66.65467
527.64        66.86768
528.08        66.88773
528.52         66.7757
528.96        66.58125
529.40        66.38457
529.83        66.21887
530.27        66.07972
530.71        65.99779
531.15         66.0391
531.59        66.20397
532.03        66.46665
532.46        66.74387
532.90        66.91728
533.34        66.95133
533.78        66.82629
534.22        66.59511
534.66        66.45999
535.09        66.38816
535.53        66.12371
535.97        65.72532
536.41        65.52072
536.85        65.53607
537.28        65.61232
537.72        65.70713
538.16        65.80733
538.60         65.8849
539.04        65.93375
539.47        65.95679
539.91        65.99964
540.35        66.05016
540.79        66.11883
541.22        66.18227
541.66        66.11362
542.10         66.0784
542.54         65.9593
542.97        65.83715
543.41        65.79082
543.85         65.8221
544.29        65.90775
544.72        66.00008
545.16        66.05972
545.60        66.05853
546.04        66.00954
546.47        65.92802
546.91        65.85208
547.35        65.80116
547.79        65.74596
548.22        65.65283
548.66        65.61083
549.10         65.6223
549.53        65.37836
549.97        65.45683
550.41        65.46455
550.84        65.57121
551.28        65.70427
551.72        65.84229
552.15        66.01693
552.59        66.15745
553.03        66.13521
553.46        65.78089
553.90        65.70488
554.34         65.8684
554.77        65.93953
555.21        65.82539
555.65        66.19505
556.08        65.78851
556.52         65.6576
556.96        65.47116
557.39        65.33537
557.83        65.31965
558.27        65.27788
558.70        65.21791
559.14        65.45047
559.57        65.37926
560.01        65.58865
560.45        65.74107
560.88        65.64237
561.32        65.38974
561.75        65.04311
562.19        64.79265
562.63        65.13799
563.06        65.85706
563.50        65.78652
563.93        65.03419
564.37        64.83833
564.80         65.1918
565.24        65.38509
565.68        65.34883
566.11        65.34083
566.55        65.37826
566.98        65.32168
567.42        65.25545
567.85        65.32619
568.29        65.53729
568.72        65.67727
569.16        65.79542
569.60        65.84947
570.03         65.7624
570.47        65.77023
570.90        66.21342
571.34        65.20521
571.77        65.63425
572.21        65.71561
572.64        65.64877
573.08        65.51634
573.51        65.56223
573.95        65.98669
574.38        65.66812
574.82        66.01628
