SpectraSmart Spectrum 2.9.0.0
--------- Device Information -----------
Spectrum Name :  反射率_0
Saving Time :  2024/05/01 16:32:45
Spectro-Module Model Name : SE2030-DUVN
Spectro-Module Serial Number : OS361AC55029948
Wavelength Start : 200
Wavelength End : 1025
Wavelength Unit : Wavelength(nm)
Spectrum Unit : Reflectance(%)
-----------Spectrum Setting ------------
Integration Time : 20ms
Average : 10
Boxcar : 0
Background removal :  enabled
linearity correction :  enabled
SC :  disabled
Intensity correction :  disabled
DWT denoise :  enabled
savitzky-golay :  disabled
FFT :  disabled
Running average :  disabled
Kalman :  disabled
High pass :  disabled
---------------BEGIN--------------------
Wavelength(nm)             Reflectance(%)
200.29               0
200.75      -0.6243017
201.21        282.6165
201.67       -184.2439
202.13       -70.35524
202.58       -20.76654
203.04         13.1753
203.50        35.78434
203.96        46.82185
204.42        48.90208
204.88        39.25727
205.34       -280.8219
205.80        104.6326
206.26        80.38416
206.72        63.45712
207.18        13.35823
207.64        128.5348
208.10        78.83801
208.55        64.89147
209.01        58.35773
209.47        58.74427
209.93        63.81884
210.39        69.95387
210.85         79.3205
211.31        100.3232
211.77        175.5033
212.23       -436.6364
212.69       -60.52139
213.14       -20.04281
213.60        17.52321
214.06        -266.313
214.52       -61.12701
214.98        -42.4569
215.44       -29.16423
215.90        1.647433
216.36        446.9391
216.81       -239.2311
217.27       -290.2526
217.73        436.2866
218.19        43.29902
218.65        6.280879
219.11       -3.486901
219.57       -3.314116
220.02        31.36812
220.48        36.21334
220.94        16.23696
221.40         10.5189
221.86        9.530523
222.32        11.63072
222.77        16.52271
223.23        24.47599
223.69        34.86773
224.15        39.99651
224.61        36.56548
225.06        30.03676
225.52        25.21336
225.98         23.6565
226.44        24.81167
226.90        28.03708
227.36        32.61977
227.81         35.0551
228.27        33.75811
228.73        30.98913
229.19        28.54036
229.65        27.22839
230.10        26.85113
230.56        27.19216
231.02         28.0178
231.48        28.80202
231.93        29.19704
232.39        29.46905
232.85        29.96008
233.31         31.0804
233.77        32.72348
234.22        34.63986
234.68        36.46535
235.14        37.99707
235.60         39.3632
236.05        40.91733
236.51        42.99098
236.97        45.84089
237.43        49.02101
237.88        51.66775
238.34        53.39273
238.80        55.24825
239.26        57.96304
239.71        62.58735
240.17        68.05254
240.63        68.45786
241.08        60.00783
241.54        46.54539
242.00        37.14618
242.46         38.8301
242.91        53.87104
243.37        87.04314
243.83        143.3019
244.28        183.5388
244.74        167.6696
245.20        130.0585
245.66        99.63145
246.11        83.35435
246.57        76.29704
247.03        73.39961
247.48        70.58421
247.94        58.51213
248.40        34.66968
248.85          8.1114
249.31       -5.151955
249.77          3.7331
250.22        24.66982
250.68        47.10575
251.14        64.51599
251.59        74.42722
252.05        78.98776
252.51        80.14233
252.96        79.29651
253.42        89.81458
253.88        115.9788
254.33        124.2097
254.79        120.2948
255.25        112.7215
255.70        104.1192
256.16        97.37804
256.62        91.85307
257.07        87.38383
257.53        84.69579
257.99        82.78445
258.44        81.69704
258.90        82.26855
259.35        83.62672
259.81        85.66516
260.27        87.21646
260.72        86.82343
261.18        84.94146
261.63        81.99464
262.09        79.17017
262.55        77.13169
263.00        75.75575
263.46         74.8784
263.91        73.99516
264.37        72.97318
264.83        71.67455
265.28        70.23343
265.74        68.79606
266.19         67.1723
266.65        65.51895
267.11        63.75903
267.56        62.12226
268.02        61.10234
268.47        60.69515
268.93        60.72329
269.38        60.77914
269.84        60.15147
270.30        58.71729
270.75        56.70885
271.21        54.53456
271.66        52.66864
272.12        51.31364
272.57        50.23892
273.03        49.39451
273.48        48.62411
273.94        47.90428
274.39        47.26691
274.85        46.64648
275.31        45.83678
275.76        44.81192
276.22        43.67903
276.67        42.56797
277.13        41.81945
277.58        41.37764
278.04         41.1737
278.49        40.94364
278.95         40.4365
279.40        39.55908
279.86        38.50027
280.31        37.37736
280.77        36.46999
281.22        35.77329
281.68        35.27069
282.13        34.83385
282.59        34.39426
283.04        33.89621
283.50        33.43915
283.95        33.04674
284.41         32.8176
284.86        32.74559
285.32        32.79793
285.77        32.94086
286.22        33.19363
286.68        33.53349
287.13        33.91727
287.59         34.2533
288.04        34.34591
288.50        34.19586
288.95        33.82509
289.41        33.41686
289.86        33.13668
290.32        33.06894
290.77        33.16556
291.22        33.35209
291.68        33.49088
292.13        33.56662
292.59        33.68396
293.04        33.94841
293.50        34.56999
293.95        35.56463
294.40        36.85796
294.86        38.33297
295.31        39.81581
295.77        41.22629
296.22        42.57341
296.68        43.87058
297.13        45.12578
297.58        46.38182
298.04        47.66667
298.49        48.97819
298.95        50.35944
299.40        51.79155
299.85        53.26036
300.31        54.84478
300.76         56.6382
301.21        58.66182
301.67        60.89721
302.12        63.11442
302.58        64.97935
303.03        66.38065
303.48        67.44815
303.94        68.51239
304.39        69.95399
304.84        71.91276
305.30         74.2509
305.75        76.70538
306.20        78.89548
306.66        80.71777
307.11        82.23951
307.57        83.63146
308.02        85.02812
308.47        86.52195
308.93        88.05679
309.38        89.55249
309.83        90.99096
310.29        92.37169
310.74        93.70251
311.19        94.98666
311.65        96.19472
312.10        97.30374
312.55        98.31709
313.00        99.31148
313.46        100.4172
313.91         101.635
314.36        102.9183
314.82        104.0978
315.27        104.9161
315.72        105.3013
316.18        105.3697
316.63        105.2675
317.08        105.2951
317.53        105.5447
317.99         105.951
318.44        106.4341
318.89        106.8278
319.35         107.088
319.80         107.292
320.25        107.5092
320.70        107.8486
321.16        108.3164
321.61        108.8695
322.06        109.4493
322.51         109.991
322.97        110.4312
323.42        110.8218
323.87        111.1019
324.32        111.2033
324.78        111.1236
325.23        110.9374
325.68        110.7257
326.13        110.6426
326.59        110.7213
327.04        110.9844
327.49        111.3955
327.94        111.9092
328.39        112.4808
328.85        113.0521
329.30        113.6541
329.75        114.1706
330.20        114.5697
330.66        114.8398
331.11        115.0185
331.56        115.0417
332.01        114.9468
332.46        114.7702
332.92        114.6643
333.37        114.9936
333.82        115.7982
334.27        117.0112
334.72        118.4007
335.17         119.537
335.63        120.2336
336.08        120.6217
336.53        120.8298
336.98        121.1626
337.43        121.7159
337.88        122.4039
338.34        123.0626
338.79        123.5232
339.24        123.7005
339.69        123.6794
340.14        123.6514
340.59        123.8982
341.05        124.4724
341.50        125.3078
341.95        126.1812
342.40        126.7349
342.85        126.8946
343.30         126.786
343.75         126.656
344.20        126.8865
344.66        127.5562
345.11        128.5241
345.56        129.5923
346.01         130.424
346.46        130.9051
346.91        131.1479
347.36         131.239
347.81        131.3087
348.26        131.4198
348.72        131.5392
349.17        131.6703
349.62        131.9009
350.07        132.2089
350.52        132.5369
350.97         132.805
351.42        132.8662
351.87        132.6928
352.32        132.3808
352.77        131.8816
353.22         131.129
353.67        130.1692
354.13        129.0548
354.58        128.0586
355.03        127.7191
355.48         128.101
355.93        129.0807
356.38        130.1099
356.83        130.2617
357.28        129.3482
357.73        127.6617
358.18        125.8845
358.63        125.0357
359.08        125.2963
359.53        126.3175
359.98        127.4851
360.43          127.78
360.88        126.9262
361.33        125.2835
361.78        123.3468
362.23        121.8127
362.68        120.8708
363.13         120.311
363.58        119.8862
364.03        119.2306
364.48        118.2412
364.93        117.0434
365.38        115.8592
365.83         114.988
366.28        114.4753
366.73        114.2204
367.18        113.9121
367.63        113.0771
368.08        111.6615
368.53        109.8587
368.98        108.1007
369.43        107.0072
369.88        106.6839
370.33        106.9285
370.78         107.358
371.23        107.3021
371.68        106.5699
372.13        105.3953
372.58        104.0747
373.03        103.0437
373.48         102.412
373.93        102.0033
374.38        101.7188
374.83        101.4216
375.28        101.0396
375.72        100.6184
376.17        100.1196
376.62        99.40022
377.07        98.46621
377.52        97.36469
377.97        96.25989
378.42        95.42266
378.87        94.91486
379.32        94.65794
379.77        94.52318
380.22         94.2986
380.67        93.92433
381.11        93.47539
381.56        92.99045
382.01        92.55809
382.46        92.21209
382.91        91.90363
383.36        91.64267
383.81        91.45444
384.26        91.32084
384.71        91.23235
385.15        91.09081
385.60        90.79229
386.05        90.30789
386.50        89.68527
386.95        89.02875
387.40        88.50807
387.85        88.16186
388.29        87.88245
388.74        87.69811
389.19        87.44135
389.64         87.0788
390.09        86.64714
390.54         86.1746
390.98        85.69997
391.43        85.30492
391.88        84.92213
392.33        84.56223
392.78        84.32275
393.23        84.16225
393.67        83.85916
394.12        83.50193
394.57        83.27673
395.02        83.14233
395.47        82.80788
395.91        82.36418
396.36        82.16199
396.81        82.23372
397.26        82.44518
397.71         82.6123
398.15        82.50735
398.60        82.18983
399.05        81.55687
399.50        80.88068
399.95        80.82288
400.39        81.31918
400.84        81.54014
401.29        81.34155
401.74        81.10999
402.18        80.81924
402.63        80.14268
403.08        79.29666
403.53        78.76535
403.97         78.6125
404.42        78.70801
404.87         78.8907
405.32        78.92108
405.76        78.73504
406.21        78.43788
406.66         78.1053
407.11        77.92966
407.55        77.97934
408.00        77.94672
408.45        77.82634
408.90        78.09081
409.34        78.47158
409.79        77.91502
410.24         76.6786
410.68        76.05315
411.13        76.13986
411.58        76.24738
412.03        76.26714
412.47        76.33075
412.92        76.36096
413.37        76.34126
413.81        76.28099
414.26         76.2511
414.71         76.2413
415.15        76.25239
415.60        76.23181
416.05         76.1567
416.49        76.02806
416.94        75.85394
417.39        75.68352
417.83         75.5729
418.28        75.54096
418.73        75.58168
419.17        75.63746
419.62        75.61944
420.07        75.49891
420.51         75.2837
420.96        75.09883
421.41        74.99212
421.85        74.95049
422.30        75.18237
422.74        75.51025
423.19        75.33561
423.64        74.79414
424.08        74.89968
424.53        75.56182
424.98        75.75604
425.42        75.39217
425.87        75.28132
426.31        75.42329
426.76        74.88238
427.21        73.99857
427.65         74.3801
428.10        75.66853
428.54        76.08617
428.99        75.58598
429.44         74.6712
429.88        73.76765
430.33        74.26099
430.77        75.62714
431.22        75.58747
431.66        74.31547
432.11        73.76228
432.56        73.98668
433.00        74.49413
433.45        75.21133
433.89        74.23179
434.34        73.57579
434.78        75.36323
435.23        75.17619
435.67        75.21107
436.12        74.36486
436.57        74.70866
437.01           75.95
437.46        77.00992
437.90          76.254
438.35        75.67493
438.79        75.74277
439.24        75.27783
439.68        74.67776
440.13        74.60367
440.57        75.01728
441.02        75.28497
441.46        75.31284
441.91         75.5145
442.35        75.75092
442.80        75.87449
443.24        75.86633
443.69        75.86492
444.13          75.867
444.58         75.8812
445.02        75.88092
445.47        75.90803
445.91        76.02838
446.36        76.19592
446.80        76.36214
447.24        76.99507
447.69        77.48079
448.13         77.1995
448.58        76.80812
449.02        76.52799
449.47        76.62858
449.91        76.58083
450.36        76.43156
450.80        76.48925
451.25        76.68714
451.69         76.7111
452.13        76.53303
452.58        76.25275
453.02         75.9494
453.47        75.76662
453.91        75.72171
454.36        75.81089
454.80        75.95065
455.24        75.80927
455.69        75.68962
456.13        75.32565
456.58        75.02329
457.02        74.60323
457.46        74.79354
457.91        75.11911
458.35        75.53246
458.79         75.4892
459.24        74.95648
459.68        74.27233
460.13        73.75793
460.57        72.83704
461.01        73.07374
461.46        73.23957
461.90         73.5408
462.34         73.7709
462.79         73.1164
463.23         73.2532
463.68        73.80104
464.12        73.97282
464.56        73.72868
465.01        73.28466
465.45        73.32901
465.89        73.20886
466.34        72.97411
466.78         73.2628
467.22        72.22079
467.67        72.01691
468.11        71.89008
468.55        72.05981
468.99        72.31901
469.44        72.44043
469.88        72.40634
470.32        72.34118
470.77        72.28183
471.21        72.23227
471.65        72.19016
472.10        72.15698
472.54         72.1215
472.98        72.06767
473.42        71.98155
473.87        71.99952
474.31        72.04742
474.75        71.76284
475.20        71.26399
475.64        71.27987
476.08        71.76739
476.52        71.58505
476.97        71.39588
477.41        71.59373
477.85        70.87614
478.29        71.39577
478.74        71.65559
479.18        71.48663
479.62        70.71808
480.06        70.45816
480.50        70.78336
480.95        70.11554
481.39        70.88758
481.83           70.05
482.27        70.50019
482.72        70.54308
483.16          70.507
483.60        70.62276
484.04        71.03748
484.48        71.00803
484.93        70.79086
485.37        71.84637
485.81        71.17104
486.25        71.89323
486.69        71.36571
487.14        69.11294
487.58        68.46266
488.02        70.85155
488.46        70.01295
488.90         69.5235
489.34        70.72002
489.79        70.44492
490.23        70.16829
490.67        69.87537
491.11        69.85272
491.55        69.93898
491.99        70.05077
492.43        70.07677
492.88        69.98267
493.32        69.89472
493.76        69.84804
494.20        69.83929
494.64        69.86343
495.08         69.9537
495.52        70.08794
495.96         70.0263
496.41        69.76153
496.85        69.88772
497.29        69.97456
497.73        69.53358
498.17        69.49017
498.61        69.18256
499.05         68.9181
499.49        69.07526
499.93        69.53727
500.37        69.80949
500.82        69.83438
501.26        69.93204
501.70        70.07573
502.14        70.14664
502.58        69.95194
503.02        69.80409
503.46         69.6703
503.90        69.51171
504.34        69.38768
504.78        69.38853
505.22        69.50232
505.66        69.77155
506.10        70.11161
506.54        70.13924
506.98        69.76478
507.42        69.99004
507.86        69.29667
508.30        69.13181
508.74        69.06512
509.18        69.09837
509.62        69.18423
510.06        69.27795
510.50        69.36845
510.94        69.44838
511.38         69.5278
511.82        69.61925
512.26        69.71507
512.70        69.78857
513.14        69.79938
513.58        69.71336
514.02        69.53378
514.46        69.20733
514.90        68.93508
515.34        68.68852
515.78        68.54542
516.22        68.48819
516.66        68.50429
517.10        68.56212
517.54        68.64338
517.98        68.75409
518.42         68.8776
518.86        68.98571
519.30        69.06676
519.74        69.11535
520.18        69.13593
520.62        69.14597
521.06        69.14819
521.50        69.13345
521.93          69.104
522.37        69.05252
522.81        68.98718
523.25        68.92353
523.69        68.85319
524.13        68.75713
524.57        68.64334
525.01        68.52352
525.45        68.44357
525.89        68.47523
526.32        68.62142
526.76        68.84575
527.20         69.0834
527.64        69.23349
528.08        69.26606
528.52        69.21741
528.96        69.10541
529.40        68.96105
529.83        68.80128
530.27        68.63704
530.71         68.5124
531.15        68.51332
531.59        68.64729
532.03         68.8831
532.46        69.12875
532.90        69.25468
533.34        69.22746
533.78        69.03577
534.22        68.75195
534.66        68.60841
535.09         68.5731
535.53        68.37014
535.97         68.0406
536.41        67.89095
536.85        67.93252
537.28        68.02222
537.72        68.12546
538.16        68.19283
538.60        68.19083
539.04        68.32147
539.47        68.23267
539.91        68.26548
540.35        68.30367
540.79        68.36714
541.22        68.43164
541.66        68.37005
542.10         68.3559
542.54        68.26421
542.97         68.1693
543.41        68.13799
543.85        68.16891
544.29        68.24079
544.72        68.31989
545.16        68.38634
545.60        68.41405
546.04        68.42345
546.47        68.40859
546.91        68.34074
547.35        68.25144
547.79        68.19126
548.22        68.12369
548.66         68.0974
549.10         68.1018
549.53        67.79913
549.97        67.81391
550.41        67.79859
550.84        67.92805
551.28        68.13476
551.72        68.36943
552.15        68.51008
552.59          68.504
553.03        68.59781
553.46         68.2559
553.90        68.19956
554.34        68.28796
554.77        68.25763
555.21        68.04974
555.65        68.44571
556.08        68.11705
556.52        67.99816
556.96        67.74978
557.39        67.59224
557.83        67.55502
558.27        67.61121
558.70        67.46012
559.14        67.72405
559.57        67.70457
560.01         67.9436
560.45        68.11957
560.88        68.07195
561.32        67.87912
561.75        67.37917
562.19        66.85368
562.63        67.21394
563.06        68.19292
563.50        68.17577
563.93        67.27913
564.37        67.06625
564.80        67.53945
565.24         67.8501
565.68        67.88856
566.11        67.89657
566.55         67.8844
566.98        67.72159
567.42        67.53616
567.85         67.5494
568.29        67.76333
568.72        67.91436
569.16        68.03004
569.60        68.05146
570.03        67.89846
570.47        67.93046
570.90        68.18145
571.34         67.2993
571.77         67.7838
572.21        67.83887
572.64        68.22972
573.08        67.79899
573.51        67.88796
573.95        68.51922
574.38        67.73878
574.82        67.79741
