SpectraSmart Spectrum 2.9.0.0
--------- Device Information -----------
Spectrum Name :  反射率_0
Saving Time :  2024/05/01 16:32:34
Spectro-Module Model Name : SE2030-DUVN
Spectro-Module Serial Number : OS361AC55029948
Wavelength Start : 200
Wavelength End : 1025
Wavelength Unit : Wavelength(nm)
Spectrum Unit : Reflectance(%)
-----------Spectrum Setting ------------
Integration Time : 20ms
Average : 10
Boxcar : 0
Background removal :  enabled
linearity correction :  enabled
SC :  disabled
Intensity correction :  disabled
DWT denoise :  enabled
savitzky-golay :  disabled
FFT :  disabled
Running average :  disabled
Kalman :  disabled
High pass :  disabled
---------------BEGIN--------------------
Wavelength(nm)             Reflectance(%)
200.29               0
200.75        55.59774
201.21        350.5014
201.67       -169.9445
202.13       -58.32344
202.58       -15.13876
203.04        12.80838
203.50        31.24321
203.96         41.1358
204.42        45.71426
204.88        47.85163
205.34          61.425
205.80        35.31023
206.26        21.75888
206.72       -10.44699
207.18       -179.6897
207.64        314.6322
208.10        144.4874
208.55        104.6414
209.01        86.11427
209.47        77.88881
209.93        75.24429
210.39         74.4275
210.85        76.11716
211.31        83.72296
211.77        114.5301
212.23       -147.3056
212.69        16.23142
213.14        43.27622
213.60        97.26357
214.06       -437.0439
214.52       -63.68969
214.98       -38.28891
215.44        -31.7416
215.90       -32.13077
216.36       -75.54198
216.81       -23.87987
217.27       -68.27658
217.73        182.0271
218.19         38.1057
218.65        21.70234
219.11        12.67791
219.57        -5.84767
220.02        -80.1786
220.48       -37.76891
220.94       0.5843421
221.40        11.02714
221.86        15.08529
222.32        17.05135
222.77        18.51334
223.23        20.21653
223.69        21.68323
224.15        20.72313
224.61        17.90109
225.06         15.1249
225.52        13.93566
225.98        14.96348
226.44        18.08773
226.90        23.30923
227.36        30.26676
227.81        34.97021
228.27          34.857
228.73        32.24592
229.19        29.15406
229.65        26.45492
230.10        23.94361
230.56        21.28561
231.02        18.86322
231.48        18.29844
231.93        20.10898
232.39           23.32
232.85        27.00086
233.31        30.47881
233.77        33.58555
234.22        36.44027
234.68        38.87432
235.14        40.94064
235.60        42.89484
236.05        45.05439
236.51        47.77348
236.97        51.23887
237.43        54.82229
237.88        57.71013
238.34        59.34031
238.80        60.56933
239.26        61.94514
239.71        63.91985
240.17        65.60587
240.63        64.02052
241.08        58.04078
241.54        50.62924
242.00        46.34671
242.46        48.35296
242.91        58.16804
243.37        78.41872
243.83        113.6078
244.28        143.4672
244.74        140.5993
245.20        122.3938
245.66         105.618
246.11        94.81193
246.57        87.34825
247.03        78.75424
247.48        65.85899
247.94         48.3748
248.40        32.47454
248.85         23.2427
249.31        24.44881
249.77        33.02387
250.22        43.70154
250.68        53.84901
251.14        61.92107
251.59        68.17885
252.05        74.68088
252.51         85.0773
252.96        108.5979
253.42        155.3227
253.88        178.5048
254.33        153.9099
254.79        130.6417
255.25        117.5763
255.70        109.2407
256.16        103.9919
256.62        99.49329
257.07        94.52639
257.53        90.41984
257.99        87.09755
258.44        84.75152
258.90        84.26893
259.35        84.77421
259.81        86.03364
260.27        87.20461
260.72        87.29866
261.18        86.58079
261.63        85.08556
262.09         83.4328
262.55        81.67677
263.00         79.7627
263.46        77.88438
263.91        75.92379
264.37        74.23653
264.83         72.7435
265.28        71.39668
265.74        70.16006
266.19        68.59938
266.65        66.83221
267.11        64.88018
267.56        63.07911
268.02        62.07426
268.47         61.8816
268.93        62.23803
269.38        62.63939
269.84         62.2332
270.30        60.85296
270.75          58.787
271.21        56.47327
271.66        54.42596
272.12        52.88258
272.57        51.60409
273.03        50.60416
273.48        49.82631
273.94        49.24214
274.39        48.82815
274.85        48.42881
275.31        47.69834
275.76        46.59561
276.22        45.30731
276.67        43.99172
277.13        43.03212
277.58        42.40025
278.04        42.00785
278.49        41.67822
278.95        41.29885
279.40        40.75457
279.86        40.15453
280.31        39.43695
280.77        38.63653
281.22        37.72818
281.68        36.81612
282.13        35.90575
282.59        35.12032
283.04        34.45344
283.50        33.93765
283.95         33.5901
284.41        33.49898
284.86        33.62703
285.32         33.9427
285.77        34.32207
286.22         34.6561
286.68        34.90784
287.13        35.06351
287.59          35.141
288.04        35.13047
288.50        35.07377
288.95        34.93445
289.41        34.78297
289.86        34.61998
290.32        34.50649
290.77        34.45365
291.22        34.48633
291.68        34.61363
292.13        34.84801
292.59        35.23925
293.04        35.80547
293.50        36.62519
293.95        37.68153
294.40        38.94568
294.86        40.36441
295.31        41.86211
295.77        43.38543
296.22        44.90574
296.68        46.39626
297.13        47.80642
297.58        49.16214
298.04        50.51044
298.49        51.86804
298.95        53.30564
299.40        54.81079
299.85        56.36046
300.31        58.01636
300.76         59.8466
301.21         61.8709
301.67        64.07861
302.12        66.26965
302.58        68.15647
303.03         69.6328
303.48        70.81664
303.94        71.99483
304.39        73.47813
304.84        75.40272
305.30        77.65369
305.75        80.02076
306.20        82.21159
306.66        84.13017
307.11        85.79298
307.57        87.31215
308.02         88.7327
308.47        90.12488
308.93          91.467
309.38        92.69255
309.83        93.80644
310.29        94.83681
310.74        95.80087
311.19        96.74625
311.65        97.71047
312.10        98.68118
312.55        99.63964
313.00        100.6303
313.46         101.726
313.91         102.902
314.36        104.1246
314.82        105.2053
315.27        105.8612
315.72        106.0296
316.18        105.8417
316.63        105.4972
317.08        105.3797
317.53        105.5939
317.99        106.0446
318.44        106.6101
318.89        107.0513
319.35        107.2961
319.80        107.4421
320.25        107.5607
320.70        107.7638
321.16        108.0729
321.61        108.4535
322.06        108.8792
322.51        109.3392
322.97         109.785
323.42        110.2511
323.87        110.6674
324.32        110.9447
324.78        111.0566
325.23        111.0704
325.68         111.016
326.13        110.9731
326.59        110.9599
327.04        111.0133
327.49        111.1627
327.94         111.479
328.39        111.9599
328.85        112.5386
329.30        113.1932
329.75        113.7064
330.20         114.024
330.66        114.1663
331.11        114.2544
331.56        114.3607
332.01        114.5427
332.46        114.7759
332.92         115.091
333.37        115.6594
333.82        116.4613
334.27        117.4787
334.72        118.5598
335.17        119.4255
335.63        119.9526
336.08        120.2398
336.53        120.3959
336.98        120.6862
337.43        121.1946
337.88        121.8663
338.34        122.5383
338.79        123.0312
339.24        123.2561
339.69        123.2842
340.14        123.3206
340.59        123.6766
341.05        124.4049
341.50        125.4308
341.95        126.4841
342.40        127.1323
342.85        127.2905
343.30         127.109
343.75        126.9044
344.20        127.1702
344.66        128.0034
345.11        129.2199
345.56        130.5509
346.01        131.5419
346.46        132.0444
346.91        132.2144
347.36        132.1741
347.81        132.1057
348.26        132.1021
348.72        132.1245
349.17        132.1987
349.62        132.4503
350.07        132.8575
350.52        133.3433
350.97        133.8013
351.42        134.0357
351.87        133.9932
352.32        133.7792
352.77        133.3136
353.22        132.4887
353.67          131.36
354.13        129.9996
354.58        128.7628
355.03        128.3157
355.48        128.7461
355.93        129.8942
356.38        131.1317
356.83          131.39
357.28        130.4445
357.73        128.6389
358.18        126.7123
358.63        125.7694
359.08        126.0152
359.53        127.0666
359.98        128.3039
360.43        128.7001
360.88         127.964
361.33          126.46
361.78        124.6429
362.23        123.1478
362.68        122.1568
363.13        121.4711
363.58        120.9026
364.03        120.1861
364.48        119.2415
364.93         118.167
365.38        117.1139
365.83        116.2708
366.28        115.6594
366.73        115.2124
367.18        114.6932
367.63        113.7498
368.08        112.3586
368.53        110.6777
368.98        109.0611
369.43        108.0112
369.88        107.6089
370.33        107.6862
370.78         107.938
371.23        107.8316
371.68        107.2082
372.13        106.2477
372.58        105.1564
373.03        104.2369
373.48        103.5688
373.93        103.0258
374.38         102.565
374.83        102.1412
375.28         101.719
375.72        101.3162
376.17        100.8849
376.62        100.2707
377.07        99.46004
377.52        98.49108
377.97        97.50631
378.42        96.73938
378.87        96.24258
379.32        95.95382
379.77        95.73293
380.22        95.35384
380.67        94.76858
381.11        94.05967
381.56        93.34303
382.01        92.83269
382.46        92.58077
382.91        92.49762
383.36        92.48009
383.81        92.37531
384.26        92.12823
384.71         91.7877
385.15        91.35138
385.60        90.86906
386.05        90.35531
386.50        89.80792
386.95        89.27875
387.40        88.85855
387.85        88.55862
388.29        88.29484
388.74        88.11366
389.19        87.87178
389.64        87.54136
390.09        87.14277
390.54        86.68837
390.98        86.20947
391.43        85.79224
391.88        85.34892
392.33          84.911
392.78        84.69202
393.23        84.62536
393.67        84.26559
394.12        83.73855
394.57        83.56689
395.02        83.63712
395.47         83.1911
395.91        82.39487
396.36        82.09427
396.81        82.33823
397.26        82.72243
397.71        82.99523
398.15        82.90223
398.60        82.48833
399.05        81.75112
399.50        80.96848
399.95        80.67515
400.39         80.8992
400.84        81.07806
401.29        81.06995
401.74        81.14907
402.18         81.1481
402.63        80.40409
403.08        79.21576
403.53        78.57349
403.97        78.56761
404.42        78.76109
404.87        78.94698
405.32        78.93452
405.76        78.64053
406.21        78.23449
406.66        77.82703
407.11        77.44676
407.55        77.25468
408.00        77.46463
408.45        77.93621
408.90        78.25156
409.34        78.19327
409.79         77.5845
410.24        76.68052
410.68        76.18787
411.13        76.20409
411.58        76.35028
412.03        76.50703
412.47         76.6338
412.92        76.64048
413.37        76.56557
413.81        76.43349
414.26        76.33824
414.71        76.27798
415.15         76.2347
415.60        76.17467
416.05        76.11079
416.49        76.04678
416.94        75.98584
417.39        75.91773
417.83        75.80626
418.28        75.65291
418.73        75.46988
419.17        75.29631
419.62         75.1992
420.07        75.18222
420.51        75.20911
420.96        75.27386
421.41        75.24333
421.85         75.0726
422.30        74.97978
422.74        74.95132
423.19         74.7446
423.64        74.49863
424.08        74.91809
424.53        75.78952
424.98        76.15911
425.42        75.89619
425.87        75.58255
426.31        75.23599
426.76        74.94661
427.21         74.8204
427.65        75.18449
428.10        75.73177
428.54        75.88734
428.99        75.65426
429.44        74.77052
429.88        73.68623
430.33        74.29103
430.77        75.95065
431.22        75.87254
431.66        74.28548
432.11        73.62142
432.56        74.01832
433.00        74.76382
433.45        75.63504
433.89        75.15033
434.34        73.98875
434.78        75.86565
435.23        75.29429
435.67        75.41834
436.12        74.82287
436.57        75.28611
437.01        76.54272
437.46        77.40393
437.90         76.7675
438.35        76.46894
438.79        76.30451
439.24        75.87835
439.68        75.34238
440.13        75.33887
440.57        75.84295
441.02        76.15935
441.46        76.17354
441.91        76.51035
442.35        77.02048
442.80        76.61954
443.24        76.75558
443.69        76.49657
444.13        76.34375
444.58        76.28155
445.02         76.3186
445.47        76.49398
445.91        76.75523
446.36        77.03319
446.80        77.28164
447.24        77.53687
447.69        77.74515
448.13        77.79036
448.58        77.68782
449.02        77.45951
449.47        77.23427
449.91        77.15356
450.36        77.26807
450.80        77.51416
451.25        77.78249
451.69        77.84429
452.13        77.66369
452.58        77.32049
453.02        76.90981
453.47        76.63145
453.91        76.52149
454.36        76.51489
454.80        76.54268
455.24        76.51723
455.69        76.36884
456.13        76.09156
456.58        75.87319
457.02        75.34158
457.46        75.52076
457.91         75.8773
458.35         76.4324
458.79        76.44407
459.24        75.86989
459.68        75.20312
460.13        74.77132
460.57        73.69276
461.01        74.02026
461.46        74.09217
461.90        74.25852
462.34        74.52472
462.79        73.80028
463.23        73.79309
463.68        74.11031
464.12        74.12701
464.56        73.81956
465.01        73.69625
465.45         73.7024
465.89        73.65134
466.34        73.51532
466.78        73.60866
467.22         73.3084
467.67        73.24854
468.11        73.03851
468.55        72.90479
468.99        72.79356
469.44        72.71615
469.88        72.69376
470.32        72.73279
470.77        72.80768
471.21        72.87386
471.65        72.89447
472.10        72.88513
472.54        72.83992
472.98        72.75248
473.42        72.61953
473.87        72.56844
474.31        72.54018
474.75        72.22141
475.20        71.72732
475.64        71.73158
476.08        72.18279
476.52        72.02469
476.97        71.80807
477.41        72.02409
477.85         71.2936
478.29         71.8492
478.74        71.69641
479.18        71.63613
479.62        71.27955
480.06        71.18247
480.50        71.37154
480.95        70.71664
481.39        71.71131
481.83          70.439
482.27        70.99519
482.72        70.95096
483.16        70.78119
483.60        70.92682
484.04        71.15797
484.48        71.23661
484.93         71.4249
485.37        71.95914
485.81        71.47926
486.25        72.67405
486.69        72.09621
487.14        69.38445
487.58        68.86277
488.02        71.07569
488.46        70.44061
488.90        70.26288
489.34        71.02507
489.79        70.67723
490.23         70.4572
490.67        70.21129
491.11        70.23152
491.55        70.48479
491.99         70.8289
492.43        70.94036
492.88        70.76116
493.32        70.50634
493.76        70.25987
494.20         70.1148
494.64        70.11057
495.08        70.13287
495.52         70.1743
495.96        70.37537
496.41        70.62917
496.85        70.62401
497.29        70.35754
497.73        70.09125
498.17        69.91354
498.61        69.79183
499.05        69.76626
499.49        69.91986
499.93         70.1701
500.37        70.26233
500.82         70.2024
501.26        70.22532
501.70        70.34865
502.14        70.39542
502.58        70.34101
503.02        70.23541
503.46        70.08625
503.90        69.87379
504.34        69.69514
504.78        69.69444
505.22        69.86729
505.66        70.25645
506.10        70.72964
506.54         70.7802
506.98        70.29351
507.42        70.48964
507.86        69.60258
508.30        69.44092
508.74        69.53247
509.18        69.81318
509.62        70.15163
510.06        70.35082
510.50        70.36572
510.94        70.24184
511.38        70.06413
511.82        69.96528
512.26        69.97767
512.70        70.04079
513.14        70.10001
513.58        70.10098
514.02        70.02922
514.46        69.87833
514.90        69.64949
515.34        69.57608
515.78        69.30231
516.22        69.13293
516.66        69.00249
517.10        68.99099
517.54        69.10166
517.98        69.31509
518.42        69.56644
518.86        69.72855
519.30        69.76585
519.74        69.72359
520.18        69.64676
520.62        69.56969
521.06        69.53353
521.50         69.6075
521.93        69.74136
522.37        69.75562
522.81        69.63454
523.25         69.4755
523.69        69.31095
524.13        69.15658
524.57        69.03555
525.01        68.94823
525.45        68.90944
525.89        68.94326
526.32        69.04389
526.76         69.1927
527.20        69.35841
527.64        69.49308
528.08        69.57692
528.52        69.62397
528.96        69.61951
529.40        69.54569
529.83        69.40644
530.27        69.22968
530.71         69.0753
531.15        69.05295
531.59        69.17611
532.03        69.41209
532.46        69.69308
532.90        69.82621
533.34        69.75799
533.78        69.67323
534.22        69.67053
534.66        69.06667
535.09        69.35901
535.53        69.04874
535.97        68.65219
536.41        68.47885
536.85         68.5604
537.28        68.70832
537.72        68.84505
538.16        68.94601
538.60        68.97793
539.04        68.94878
539.47        68.88239
539.91         68.8568
540.35        68.87016
540.79        68.92389
541.22        68.99802
541.66        68.96632
542.10        68.99366
542.54        68.95103
542.97          68.894
543.41        68.85909
543.85        68.84298
544.29        68.84115
544.72        68.83041
545.16        68.81323
545.60        68.77359
546.04        68.70898
546.47         68.6419
546.91        68.61935
547.35         68.6548
547.79        68.71822
548.22        68.72931
548.66         68.7124
549.10        68.66206
549.53        68.27355
549.97        68.21868
550.41        68.19566
550.84        68.40514
551.28         68.7453
551.72        69.11204
552.15        69.38645
552.59        69.49719
553.03        69.33555
553.46        68.98238
553.90        68.83424
554.34         68.9363
554.77        68.96292
555.21        68.82294
555.65        69.24161
556.08         68.8727
556.52        68.72067
556.96        68.45007
557.39        68.29443
557.83        68.29638
558.27        68.27026
558.70        68.20825
559.14        68.46766
559.57        68.42232
560.01        68.63496
560.45        68.80605
560.88        68.72308
561.32        68.48489
561.75        68.13499
562.19        67.86324
562.63        68.13423
563.06        68.75916
563.50        68.70964
563.93         68.0743
564.37        67.93144
564.80        68.27289
565.24        68.50611
565.68        68.54295
566.11        68.54935
566.55        68.54008
566.98        68.39639
567.42        68.23549
567.85        68.27294
568.29         68.4956
568.72         68.6295
569.16        68.72743
569.60        68.73455
570.03        68.56636
570.47        68.77715
570.90        68.98133
571.34        68.10811
571.77        68.56298
572.21        68.45396
572.64        68.57349
573.08        68.31215
573.51        68.48158
573.95        69.06576
574.38        68.36439
574.82        68.71953
