SpectraSmart Spectrum 2.9.0.0
--------- Device Information -----------
Spectrum Name :  光譜_0
Saving Time :  2024/04/26 21:08:28
Spectro-Module Model Name : SE2030-DUVN
Spectro-Module Serial Number : OS361AC55029948
Wavelength Start : 200
Wavelength End : 1025
Wavelength Unit : Wavelength(nm)
Spectrum Unit : Intensity(Counts)
-----------Spectrum Setting ------------
Integration Time : 20ms
Average : 10
Boxcar : 0
Background removal :  enabled
linearity correction :  enabled
SC :  disabled
Intensity correction :  disabled
DWT denoise :  enabled
savitzky-golay :  disabled
FFT :  disabled
Running average :  disabled
Kalman :  disabled
High pass :  disabled
---------------BEGIN--------------------
Wavelength(nm)          Intensity(Counts)
200.29       -43.37985
200.75       -45.53156
201.21       -48.56101
201.67       -51.31409
202.13       -51.94532
202.58        -50.1228
203.04       -46.48085
203.50       -42.30244
203.96       -39.65261
204.42       -39.17279
204.88       -40.34927
205.34       -42.40358
205.80       -44.07105
206.26       -44.84157
206.72       -44.87537
207.18       -44.58559
207.64       -44.64836
208.10       -45.09769
208.55       -45.63171
209.01       -45.32521
209.47       -42.76521
209.93       -37.97129
210.39       -31.82713
210.85       -25.92678
211.31       -22.69195
211.77       -22.80601
212.23       -25.53115
212.69       -30.02405
213.14       -34.86412
213.60       -39.28484
214.06        -43.3826
214.52       -46.70852
214.98       -48.65685
215.44       -49.10062
215.90       -48.05385
216.36       -45.95615
216.81       -43.67148
217.27       -41.62569
217.73       -39.89238
218.19       -38.56016
218.65       -37.62624
219.11       -37.10546
219.57       -37.03617
220.02       -37.53318
220.48       -38.69391
220.94       -40.39393
221.40       -42.47489
221.86       -44.31947
222.32        -45.0142
222.77       -44.40301
223.23       -42.74805
223.69       -40.80442
224.15       -39.83314
224.61       -40.14124
225.06       -41.34953
225.52       -42.88714
225.98       -43.78838
226.44       -43.80093
226.90       -43.31367
227.36       -42.56547
227.81        -41.9359
228.27       -41.55773
228.73        -41.1735
229.19       -40.99257
229.65       -41.37491
230.10        -42.3205
230.56       -43.84038
231.02       -45.17607
231.48       -45.08381
231.93       -43.40275
232.39       -40.47824
232.85       -37.60154
233.31       -36.86581
233.77       -38.64997
234.22       -42.26336
234.68       -46.16819
235.14       -47.88548
235.60       -46.83013
236.05        -43.8178
236.51       -40.14287
236.97       -37.88875
237.43       -37.65543
237.88       -38.76814
238.34       -40.50328
238.80       -41.70695
239.26       -42.01476
239.71       -41.88461
240.17       -41.53165
240.63       -41.24944
241.08       -41.13586
241.54        -40.9112
242.00       -40.68923
242.46       -40.74706
242.91       -41.05012
243.37       -41.56069
243.83       -41.76786
244.28       -40.80222
244.74       -38.61217
245.20       -35.60354
245.66       -32.55733
246.11       -30.72463
246.57       -30.40463
247.03       -31.12749
247.48       -32.44795
247.94        -33.6324
248.40        -34.3203
248.85       -34.68607
249.31       -34.42019
249.77       -33.05799
250.22       -30.62316
250.68       -27.25194
251.14       -23.70196
251.59       -21.21465
252.05       -20.13814
252.51       -20.26745
252.96       -20.92108
253.42       -20.92886
253.88       -19.97014
254.33        -18.3018
254.79       -16.60704
255.25       -15.99054
255.70       -16.62388
256.16       -18.07877
256.62       -19.37357
257.07       -19.00706
257.53       -16.69682
257.99       -12.99452
258.44         -9.0505
258.90       -6.644938
259.35       -6.312899
259.81       -7.662984
260.27       -9.782694
260.72       -11.18553
261.18       -11.45062
261.63       -10.90757
262.09       -10.47794
262.55       -11.62809
263.00        -14.5529
263.46       -18.66232
263.91       -22.52924
264.37         -23.959
264.83       -22.55102
265.28       -19.09044
265.74       -15.18557
266.19        -13.4034
266.65       -14.38276
267.11       -17.29285
267.56       -20.93692
268.02       -23.35789
268.47       -23.98441
268.93        -23.5153
269.38       -22.44585
269.84       -21.55719
270.30       -21.13888
270.75       -20.77167
271.21       -20.64217
271.66       -21.12082
272.12       -22.18058
272.57       -23.85296
273.03       -25.33763
273.48       -25.28182
273.94        -23.4945
274.39       -20.34946
274.85       -17.10075
275.31       -15.80846
275.76       -16.85606
276.22       -19.52961
276.67       -22.45348
277.13       -23.41716
277.58       -21.87133
278.04       -18.58895
278.49       -14.59954
278.95       -11.51622
279.40       -9.947714
279.86        -9.53129
280.31       -9.942732
280.77       -10.64841
281.22       -11.44553
281.68        -12.4974
282.13       -13.98585
282.59       -16.14149
283.04       -18.85193
283.50       -21.78048
283.95       -24.31827
284.41        -25.6344
284.86       -25.51742
285.32       -24.19545
285.77       -22.18721
286.22       -20.34282
286.68       -19.00009
287.13       -18.08607
287.59       -17.39331
288.04       -16.52286
288.50       -15.42006
288.95       -14.27032
289.41       -13.45759
289.86       -13.53428
290.32       -14.53753
290.77       -16.19338
291.22       -17.88793
291.68       -18.67851
292.13       -18.35254
292.59        -17.2095
293.04       -15.76369
293.50        -14.8791
293.95       -14.79229
294.40       -15.19725
294.86       -15.89996
295.31        -16.5601
295.77       -17.07244
296.22       -17.68949
296.68       -18.21819
297.13       -18.32139
297.58       -18.00262
298.04       -17.25529
298.49       -16.80642
298.95         -17.838
299.40       -20.49796
299.85       -24.44159
300.31       -28.38106
300.76       -30.26511
301.21       -29.64759
301.67       -27.05755
302.12       -23.99921
302.58       -22.92271
303.03       -24.36802
303.48       -27.58883
303.94       -30.98668
304.39       -32.00017
304.84       -30.06738
305.30       -26.08519
305.75       -21.60766
306.20       -19.07697
306.66       -19.12335
307.11         -20.938
307.57       -23.34601
308.02       -24.48736
308.47       -23.84045
308.93       -22.06049
309.38       -19.86177
309.83       -18.33949
310.29       -17.83387
310.74       -17.91312
311.19       -18.26573
311.65       -18.46812
312.10       -18.33759
312.55       -18.04541
313.00       -17.62733
313.46       -17.07285
313.91       -16.44577
314.36       -15.79282
314.82       -15.14993
315.27       -14.60709
315.72       -14.21034
316.18       -13.90023
316.63        -13.8726
317.08        -14.4317
317.53       -15.52342
317.99       -16.98516
318.44        -18.2565
318.89       -18.43782
319.35       -17.40572
319.80       -15.53417
320.25       -13.40454
320.70        -11.9838
321.16       -11.54159
321.61       -11.69723
322.06       -12.36548
322.51       -13.37634
322.97       -14.54134
323.42       -15.98189
323.87       -17.03826
324.32       -16.63315
324.78       -14.69199
325.23       -11.54329
325.68       -8.427824
326.13       -7.384464
326.59       -8.804447
327.04       -12.00608
327.49       -15.69251
327.94       -17.75113
328.39       -17.59507
328.85       -15.88438
329.30       -13.41117
329.75         -11.452
330.20       -10.48424
330.66       -10.15865
331.11       -10.28302
331.56       -10.57056
332.01       -10.90448
332.46       -11.43305
332.92       -12.20134
333.37       -13.21637
333.82       -14.38162
334.27       -15.51075
334.72        -16.3946
335.17       -16.76311
335.63       -16.58345
336.08       -16.04095
336.53       -15.18605
336.98       -14.11612
337.43       -12.95618
337.88       -11.67651
338.34       -10.77826
338.79       -11.01276
339.24       -12.45697
339.69       -14.93838
340.14       -17.46394
340.59       -18.43163
341.05       -17.51688
341.50       -15.12273
341.95       -12.51127
342.40       -11.74485
342.85       -13.26218
343.30       -16.43051
343.75       -19.85656
344.20        -21.3107
344.66       -20.28202
345.11       -17.50063
345.56       -14.29846
346.01       -12.78926
346.46       -13.50235
346.91       -15.74152
347.36       -18.44215
347.81       -19.90319
348.26       -19.71034
348.72       -18.53177
349.17       -17.08678
349.62        -16.4933
350.07       -17.04778
350.52       -18.19121
350.97       -19.69116
351.42       -21.25643
351.87       -22.62092
352.32       -23.88583
352.77       -24.52965
353.22       -23.67157
353.67       -21.32852
354.13       -17.93058
354.58       -14.44337
355.03       -12.43596
355.48       -12.31896
355.93       -13.58515
356.38       -15.74517
356.83       -17.95251
357.28       -19.76099
357.73       -21.32976
358.18       -22.25537
358.63       -21.92007
359.08       -20.31749
359.53       -17.62643
359.98       -14.58968
360.43        -12.4897
360.88       -11.66251
361.33       -11.77426
361.78       -12.39651
362.23       -12.74183
362.68       -12.56326
363.13       -12.19983
363.58       -11.63563
364.03       -10.81176
364.48        -9.84476
364.93       -8.725455
365.38       -7.957521
365.83       -8.390729
366.28         -10.116
366.73       -12.80514
367.18       -15.71291
367.63       -17.65261
368.08       -18.23969
368.53       -17.70601
368.98        -16.5105
369.43       -15.42889
369.88       -14.75982
370.33       -14.42245
370.78       -14.10872
371.23       -13.30958
371.68       -12.02474
372.13       -10.52587
372.58        -9.56931
373.03       -10.27662
373.48       -12.77739
373.93       -16.60406
374.38       -20.66776
374.83       -23.26556
375.28       -23.92812
375.72       -23.06726
376.17       -21.48945
376.62       -20.57471
377.07       -20.68072
377.52       -21.34134
377.97       -22.03298
378.42       -21.90435
378.87       -20.80955
379.32       -19.28008
379.77       -17.62312
380.22       -16.24425
380.67       -15.34954
381.11       -14.71365
381.56       -14.68831
382.01       -15.86328
382.46        -18.1474
382.91       -21.27809
383.36       -24.17912
383.81       -25.12344
384.26       -23.81128
384.71       -20.83874
385.15       -17.39506
385.60       -15.41778
386.05       -15.49657
386.50       -17.11456
386.95       -19.64064
387.40       -22.01928
387.85        -23.8202
388.29       -25.26494
388.74       -26.45688
389.19       -27.56792
389.64       -28.57459
390.09       -29.24271
390.54       -29.34393
390.98       -28.61495
391.43       -27.11121
391.88       -25.14535
392.33       -23.06406
392.78       -21.34676
393.23       -20.23417
393.67       -19.65752
394.12       -19.78022
394.57       -20.81159
395.02       -22.62766
395.47       -25.03586
395.91       -27.45401
396.36       -28.95093
396.81        -29.3128
397.26        -28.8216
397.71       -27.81718
398.15       -26.94275
398.60       -26.41356
399.05       -25.94353
399.50       -25.76198
399.95       -26.20524
400.39       -27.24777
400.84       -28.93548
401.29       -30.35753
401.74       -30.01849
402.18       -27.72261
402.63       -23.87441
403.08        -20.0431
403.53       -18.76838
403.97       -20.54582
404.42       -24.61342
404.87       -29.11826
405.32        -31.0525
405.76       -29.74106
406.21       -26.16779
406.66       -22.04775
407.11       -20.14721
407.55       -21.14907
408.00       -24.04721
408.45       -27.62467
408.90       -29.96131
409.34       -30.47963
409.79       -29.92292
410.24       -28.70717
410.68       -27.44695
411.13       -26.45435
411.58       -25.40788
412.03         -24.687
412.47       -24.98743
412.92       -26.29758
413.37       -28.42298
413.81       -30.43633
414.26       -30.78131
414.71       -29.16678
415.15       -26.12341
415.60       -22.61765
416.05       -20.22012
416.49       -19.43484
416.94       -19.85633
417.39        -21.0101
417.83       -22.12166
418.28       -22.84832
418.73        -23.3164
419.17       -23.67009
419.62       -24.10814
420.07       -24.65237
420.51       -25.23001
420.96       -25.39964
421.41       -24.53049
421.85       -22.63574
422.30       -20.00635
422.74       -17.63875
423.19       -17.07839
423.64       -18.60609
424.08       -21.70863
424.53       -25.20617
424.98       -27.21468
425.42       -27.17155
425.87       -25.51145
426.31       -23.12085
426.76       -21.44094
427.21       -20.94074
427.65       -21.36046
428.10       -21.92774
428.54       -21.40815
428.99        -19.6381
429.44       -17.07227
429.88       -15.02001
430.33       -15.50507
430.77       -18.76304
431.22       -23.91746
431.66       -29.14206
432.11       -31.58663
432.56       -30.53383
433.00        -26.8747
433.45       -21.99506
433.89       -18.15497
434.34        -16.1453
434.78       -15.41263
435.23       -15.46391
435.67       -15.47588
436.12       -15.17385
436.57       -14.92166
437.01       -14.96517
437.46        -15.5559
437.90       -16.73284
438.35       -18.31565
438.79       -19.90874
439.24       -20.99599
439.68       -21.44113
440.13       -21.29977
440.57       -21.09332
441.02       -21.68161
441.46       -23.17291
441.91       -25.26439
442.35       -27.11537
442.80       -27.39516
443.24        -25.8563
443.69       -22.97051
444.13       -19.68038
444.58       -17.48659
445.02       -16.80534
445.47       -17.22465
445.91       -18.10361
446.36       -18.37021
446.80       -17.75864
447.24       -16.70831
447.69       -15.63105
448.13       -15.14325
448.58       -15.43371
449.02       -16.21365
449.47       -17.38877
449.91       -18.85104
450.36       -20.47793
450.80       -22.29971
451.25       -24.01392
451.69       -25.14461
452.13       -25.58655
452.58        -25.3848
453.02        -24.9986
453.47        -25.1886
453.91       -26.14722
454.36       -27.75545
454.80       -29.38381
455.24       -30.02024
455.69       -29.45699
456.13       -27.91946
456.58       -26.36243
457.02       -26.30965
457.46       -28.00983
457.91         -30.995
458.35       -33.89744
458.79       -34.51856
459.24       -32.49533
459.68       -28.66973
460.13       -24.63348
460.57       -22.91868
461.01         -24.146
461.46       -27.42595
461.90        -31.6412
462.34       -34.99279
462.79        -36.8405
463.23       -37.72223
463.68       -37.79916
464.12       -37.34909
464.56       -36.56059
465.01       -35.20198
465.45        -33.7014
465.89       -32.84337
466.34       -32.76213
466.78        -33.3668
467.22       -33.96155
467.67       -33.33071
468.11       -31.26535
468.55       -28.17208
468.99        -24.9263
469.44       -22.93525
469.88       -22.52136
470.32       -23.20891
470.77       -24.23516
471.21       -24.38136
471.65       -23.30356
472.10        -21.4022
472.54       -19.12943
472.98       -17.20384
473.42       -15.86323
473.87       -14.85199
474.31       -14.03555
474.75       -13.22246
475.20       -12.34614
475.64       -11.56006
476.08       -10.83929
476.52       -10.08146
476.97       -9.314054
477.41       -8.557399
477.85       -7.978903
478.29       -7.888963
478.74       -8.280371
479.18       -8.942393
479.62       -9.675439
480.06       -10.15211
480.50       -10.27901
480.95       -10.25955
481.39       -9.942861
481.83       -9.089292
482.27       -7.800139
482.72         -6.1615
483.16       -4.935362
483.60       -5.352934
484.04       -7.516469
484.48       -10.91315
484.93       -14.41803
485.37       -16.20535
485.81       -15.83682
486.25       -13.94377
486.69       -11.22481
487.14       -8.858853
487.58       -7.296805
488.02       -6.134777
488.46       -5.564427
488.90         -5.8795
489.34       -6.972101
489.79       -8.831456
490.23       -10.53007
490.67       -10.52081
491.11       -8.530447
491.55       -4.956903
491.99       -1.033931
492.43         1.18576
492.88        1.216624
493.32      -0.3626813
493.76       -2.423262
494.20       -3.096004
494.64       -1.972456
495.08       0.2159797
495.52        2.526256
495.96        3.493043
496.41        2.712747
496.85       0.7806548
497.29       -1.839021
497.73       -4.467703
498.17       -6.733041
498.61       -8.772202
499.05       -10.35494
499.49       -11.09761
499.93       -11.01205
500.37       -10.24422
500.82       -9.183084
501.26       -8.507857
501.70       -8.461103
502.14       -8.888567
502.58       -9.759024
503.02       -10.99328
503.46       -12.38325
503.90       -13.78181
504.34       -14.84174
504.78       -15.00284
505.22       -14.17655
505.66       -12.67348
506.10          -10.58
506.54       -8.057643
506.98       -5.404447
507.42        -2.71198
507.86      -0.8313482
508.30        -1.06284
508.74       -3.507188
509.18       -7.655035
509.62       -12.21451
510.06       -15.07909
510.50       -15.68437
510.94       -14.62058
511.38       -12.68745
511.82       -11.26569
512.26       -10.84469
512.70       -10.99593
513.14       -11.63995
513.58       -12.65342
514.02       -13.89529
514.46       -15.48388
514.90       -17.04933
515.34       -17.92522
515.78       -17.95987
516.22       -17.22807
516.66       -16.17741
517.10        -15.6118
517.54         -15.707
517.98       -16.24126
518.42       -16.75261
518.86       -16.47177
519.30       -15.29698
519.74       -13.62874
520.18       -11.98439
520.62       -11.13364
521.06       -11.33276
521.50       -12.34495
521.93       -14.00602
522.37       -16.04981
522.81       -18.27066
523.25       -20.64448
523.69       -22.94027
524.13       -24.81342
524.57       -26.15271
525.01       -26.97598
525.45       -27.40965
525.89       -27.71685
526.32       -28.04081
526.76       -28.41442
527.20       -28.88441
527.64       -29.48251
528.08       -30.24662
528.52       -31.19847
528.96       -32.40657
529.40       -33.96214
529.83       -35.77346
530.27       -37.65591
530.71       -39.34164
531.15       -40.44325
531.59       -40.84304
532.03        -40.6779
532.46       -39.97281
532.90       -38.79407
533.34       -37.29734
533.78       -35.56112
534.22       -34.01747
534.66       -33.31393
535.09       -33.57776
535.53       -34.65257
535.97       -36.03388
536.41       -36.87748
536.85       -36.92315
537.28       -36.33024
537.72       -35.46748
538.16       -34.95786
538.60       -34.96968
539.04        -35.3403
539.47       -35.67716
539.91       -35.37539
540.35       -34.34031
540.79       -32.78829
541.22       -31.30671
541.66       -30.80876
542.10       -31.44143
542.54       -32.86716
542.97       -34.37101
543.41       -34.80542
543.85         -33.925
544.29       -32.16483
544.72       -30.09921
545.16       -28.65026
545.60       -28.11131
546.04       -28.14867
546.47       -28.62179
546.91        -29.3243
547.35       -30.05215
547.79       -30.81815
548.22       -31.29004
548.66       -30.91466
549.10       -29.63002
549.53       -27.64818
549.97       -25.35378
550.41       -23.39634
550.84       -22.03797
551.28       -21.16252
551.72       -20.79493
552.15        -20.9317
552.59       -21.45846
553.03       -22.30879
553.46       -23.19489
553.90       -23.63794
554.34       -23.51099
554.77       -22.94364
555.21        -22.0335
555.65       -20.99227
556.08        -19.9606
556.52       -18.89746
556.96       -18.06978
557.39       -17.89521
557.83       -18.39326
558.27       -19.41826
558.70        -20.5003
559.14       -20.86375
559.57       -20.32052
560.01       -19.10604
560.45       -17.59905
560.88       -16.41549
561.32       -15.80545
561.75       -15.67387
562.19       -15.89319
562.63       -16.25785
563.06       -16.66744
563.50       -17.10668
563.93       -17.75204
564.37       -18.85942
564.80       -20.39961
565.24       -22.27742
565.68       -23.89247
566.11       -24.31141
566.55       -23.46333
566.98       -21.72946
567.42       -20.09121
567.85        -20.1103
568.29       -22.12313
568.72       -25.58577
569.16        -29.6086
569.60       -32.77153
570.03       -34.55009
570.47       -35.22212
570.90       -35.11446
571.34       -34.79047
571.77       -34.47895
572.21       -34.07885
572.64       -33.40766
573.08       -32.19715
573.51       -30.54671
573.95       -28.75462
574.38       -27.45726
574.82       -27.56171
