SpectraSmart Spectrum 2.9.0.0
--------- Device Information -----------
Spectrum Name :  光譜_0
Saving Time :  2024/05/01 15:37:52
Spectro-Module Model Name : SE2030-DUVN
Spectro-Module Serial Number : OS361AC55029948
Wavelength Start : 200
Wavelength End : 1025
Wavelength Unit : Wavelength(nm)
Spectrum Unit : Intensity(Counts)
-----------Spectrum Setting ------------
Integration Time : 1ms
Average : 1
Boxcar : 0
Background removal :  enabled
linearity correction :  enabled
SC :  disabled
Intensity correction :  disabled
DWT denoise :  enabled
savitzky-golay :  disabled
FFT :  disabled
Running average :  disabled
Kalman :  disabled
High pass :  disabled
---------------BEGIN--------------------
Wavelength(nm)          Intensity(Counts)
200.29        -29.1377
200.75       -27.25036
201.21       -22.50791
201.67       -16.35009
202.13       -11.12925
202.58       -7.850566
203.04       -6.066253
203.50       -6.007402
203.96       -7.884815
204.42       -11.50323
204.88       -16.81645
205.34       -22.69528
205.80       -27.31182
206.26        -29.9389
206.72        -30.4325
207.18       -29.66412
207.64       -29.25975
208.10       -29.62528
208.55        -30.6207
209.01       -30.60628
209.47       -26.97825
209.93       -19.59957
210.39       -9.498679
210.85      -0.2057897
211.31        2.836393
211.77       -1.390109
212.23       -11.27749
212.69       -22.39347
213.14       -27.57342
213.60       -25.13558
214.06        -17.1681
214.52       -7.917654
214.98       -4.274776
215.44       -7.910207
215.90       -16.48433
216.36       -26.28369
216.81       -31.53678
217.27       -30.56597
217.73       -25.07737
218.19       -17.79487
218.65        -12.9415
219.11        -11.7221
219.57       -12.92561
220.02       -14.12893
220.48       -11.62688
220.94       -4.684018
221.40        5.389332
221.86        15.43153
222.32        20.63933
222.77        19.99424
223.23         14.9408
223.69        9.269396
224.15        8.957346
224.61        15.38714
225.06        26.86869
225.52        39.30972
225.98        46.16514
226.44         45.9596
226.90        40.72797
227.36          34.768
227.81        34.90426
228.27        42.64922
228.73        55.70008
229.19        69.86057
229.65        78.45157
230.10        79.96616
230.56        76.90143
231.02        72.67702
231.48        72.69238
231.93        78.33153
232.39        87.27961
232.85        97.70915
233.31        106.9355
233.77        113.5326
234.22        118.0965
234.68        119.6118
235.14        116.4781
235.60        108.7427
236.05        96.92373
236.51        83.22089
236.97        71.28323
237.43        62.39091
237.88        56.22928
238.34        51.59208
238.80        46.16955
239.26        39.36444
239.71        31.82489
240.17        24.92835
240.63         20.7762
241.08        19.61036
241.54        20.52381
242.00        21.29792
242.46        18.56701
242.91        11.74851
243.37        2.086921
243.83       -7.782883
244.28       -13.69976
244.74       -14.52196
245.20       -11.38531
245.66       -6.229929
246.11       -2.262908
246.57      -0.4391624
247.03       0.1653499
247.48        0.702327
247.94        3.031499
248.40        7.461439
248.85        12.90672
249.31        18.27512
249.77        22.08886
250.22        23.83847
250.68        24.04855
251.14        23.09855
251.59        21.54278
252.05        19.87478
252.51        18.30985
252.96        17.41273
253.42        17.93358
253.88        20.35424
254.33        25.00302
254.79        31.97782
255.25        41.18239
255.70        52.54637
256.16        65.93819
256.62        81.47321
257.07        99.34274
257.53        119.3152
257.99        141.0866
258.44        163.6322
258.90        185.4483
259.35        206.2938
259.81        226.6441
260.27        247.7816
260.72        271.7852
261.18        299.1949
261.63         329.434
262.09        361.4366
262.55        393.4148
263.00        424.7328
263.46        455.6212
263.91        486.3383
264.37        517.5604
264.83        548.8408
265.28        578.7276
265.74        606.3671
266.19        630.8103
266.65        651.4373
267.11         668.631
267.56        681.1165
268.02        686.9218
268.47        686.6092
268.93        681.6658
269.38        676.2017
269.84        676.5214
270.30        684.3111
270.75        698.2506
271.21        715.3301
271.66        730.1514
272.12        741.4078
272.57        751.2007
273.03        761.3341
273.48        774.6534
273.94        792.1691
274.39        812.5516
274.85        836.0502
275.31         863.312
275.76        893.8198
276.22        927.2468
276.67        961.3039
277.13        992.1541
277.58        1019.263
278.04        1044.084
278.49         1069.02
278.95        1098.133
279.40        1132.523
279.86        1170.546
280.31        1211.657
280.77        1254.902
281.22        1299.228
281.68        1344.706
282.13        1388.429
282.59        1425.971
283.04        1456.429
283.50        1480.342
283.95        1502.071
284.41        1528.933
284.86        1562.579
285.32        1601.479
285.77         1640.25
286.22        1669.949
286.68        1689.191
287.13        1701.424
287.59        1713.733
288.04        1737.182
288.50        1774.217
288.95        1820.911
289.41        1870.698
289.86         1913.26
290.32        1945.198
290.77        1968.907
291.22        1987.867
291.68        2007.917
292.13        2030.661
292.59        2054.003
293.04        2075.265
293.50        2090.527
293.95        2099.325
294.40        2104.015
294.86         2108.08
295.31        2116.426
295.77        2130.673
296.22        2149.731
296.68        2171.437
297.13        2192.292
297.58        2211.024
298.04        2228.215
298.49        2245.676
298.95        2266.146
299.40        2290.384
299.85          2318.2
300.31        2346.492
300.76        2370.384
301.21        2389.617
301.67        2405.984
302.12        2426.029
302.58        2460.047
303.03        2509.495
303.48        2570.477
303.94        2634.351
304.39        2687.333
304.84        2725.831
305.30        2753.838
305.75        2777.603
306.20        2807.521
306.66        2846.579
307.11        2891.104
307.57        2937.877
308.02        2981.951
308.47         3021.39
308.93        3057.879
309.38        3091.355
309.83        3121.616
310.29        3148.481
310.74        3170.737
311.19        3189.529
311.65        3207.189
312.10        3224.229
312.55        3241.008
313.00        3254.621
313.46        3260.056
313.91        3257.341
314.36        3248.819
314.82        3241.165
315.27        3244.732
315.72        3261.458
316.18        3287.826
316.63        3316.492
317.08        3335.607
317.53        3341.686
317.99          3337.7
318.44        3328.123
318.89        3320.621
319.35        3317.163
319.80        3314.625
320.25        3310.354
320.70        3300.441
321.16        3283.895
321.61        3263.086
322.06         3238.95
322.51        3212.383
322.97        3184.541
323.42        3155.469
323.87        3127.302
324.32        3103.504
324.78        3084.251
325.23        3067.988
325.68        3051.611
326.13        3030.072
326.59        3001.718
327.04        2967.839
327.49        2929.378
327.94        2888.078
328.39          2845.3
328.85        2801.223
329.30         2757.41
329.75        2716.314
330.20        2678.503
330.66        2643.399
331.11        2610.331
331.56        2577.781
332.01        2544.946
332.46        2512.269
332.92        2478.253
333.37        2440.637
333.82        2399.523
334.27        2355.818
334.72        2313.134
335.17        2277.238
335.63        2249.627
336.08        2229.133
336.53        2212.427
336.98        2193.843
337.43        2171.959
337.88        2148.414
338.34        2126.352
338.79        2110.764
339.24        2102.787
339.69        2100.702
340.14         2101.18
340.59        2099.128
341.05        2093.246
341.50        2084.914
341.95        2077.338
342.40         2075.67
342.85        2080.847
343.30        2090.885
343.75         2102.14
344.20        2108.883
344.66        2109.898
345.11        2107.416
345.56        2104.351
346.01        2105.381
346.46        2111.755
346.91        2121.379
347.36        2133.287
347.81        2146.114
348.26        2158.677
348.72        2171.356
349.17        2182.066
349.62        2187.221
350.07        2187.036
350.52        2183.548
350.97        2180.335
351.42        2183.353
351.87        2194.021
352.32        2209.718
352.77         2229.88
353.22        2253.302
353.67        2278.328
354.13        2305.331
354.58        2328.384
355.03        2338.296
355.48        2333.993
355.93        2317.721
356.38        2299.923
356.83        2297.731
357.28        2314.687
357.73        2346.043
358.18        2380.004
358.63        2397.147
359.08        2393.192
359.53        2374.761
359.98         2352.91
360.43        2345.236
360.88        2356.379
361.33        2380.259
361.78        2409.171
362.23        2431.151
362.68        2442.157
363.13        2445.828
363.58        2445.691
364.03        2446.901
364.48        2451.614
364.93        2458.614
365.38        2465.774
365.83        2470.334
366.28        2471.652
366.73        2469.998
367.18        2469.911
367.63        2478.345
368.08        2495.452
368.53        2518.429
368.98        2537.421
369.43        2536.985
369.88        2514.636
370.33        2475.919
370.78        2433.034
371.23        2405.533
371.68        2398.848
372.13        2407.788
372.58        2423.946
373.03        2433.263
373.48        2431.761
373.93        2424.361
374.38        2416.306
374.83        2415.412
375.28        2424.294
375.72        2440.299
376.17          2460.4
376.62        2480.431
377.07        2498.844
377.52        2516.278
377.97        2535.309
378.42        2559.976
378.87        2590.089
379.32         2623.16
379.77         2653.24
380.22        2671.431
380.67        2676.153
381.11        2670.637
381.56        2661.303
382.01        2658.562
382.46        2665.521
382.91        2679.595
383.36        2697.922
383.81        2715.056
384.26        2730.168
384.71        2747.188
385.15        2766.561
385.60        2788.617
386.05        2813.947
386.50        2840.464
386.95        2873.762
387.40        2923.208
387.85        2988.723
388.29        3067.443
388.74        3145.238
389.19        3198.967
389.64        3225.894
390.09        3235.314
390.54        3245.177
390.98        3284.715
391.43        3359.946
391.88        3458.255
392.33        3568.227
392.78        3670.472
393.23         3755.25
393.67        3831.604
394.12        3892.195
394.57        3913.054
395.02        3903.058
395.47        3897.418
395.91        3906.263
396.36        3923.095
396.81        3952.183
397.26        4000.802
397.71        4073.998
398.15        4166.493
398.60        4270.224
399.05        4396.391
399.50        4511.475
399.95        4528.054
400.39        4455.161
400.84        4388.396
401.29        4349.234
401.74        4303.705
402.18        4263.618
402.63        4265.617
403.08        4300.847
403.53        4331.625
403.97        4349.659
404.42         4363.79
404.87        4377.337
405.32        4394.434
405.76        4415.154
406.21         4435.97
406.66        4445.242
407.11        4428.285
407.55         4384.54
408.00        4317.593
408.45        4251.347
408.90        4228.062
409.34         4252.93
409.79        4305.014
410.24        4358.625
410.68        4381.257
411.13        4363.231
411.58        4311.075
412.03        4249.767
412.47        4222.775
412.92        4239.652
413.37        4285.177
413.81        4337.192
414.26        4361.255
414.71        4347.944
415.15        4309.065
415.60        4260.142
416.05        4225.129
416.49        4211.802
416.94        4213.435
417.39         4222.32
417.83        4225.834
418.28        4222.223
418.73        4219.578
419.17        4224.309
419.62        4245.241
420.07        4283.757
420.51          4332.3
420.96        4389.584
421.41        4455.106
421.85        4523.702
422.30        4592.196
422.74         4644.58
423.19        4657.149
423.64        4626.082
424.08        4558.269
424.53        4476.076
424.98        4415.531
425.42        4388.435
425.87         4391.13
426.31        4407.172
426.76         4406.44
427.21        4385.768
427.65        4358.244
428.10        4345.983
428.54        4386.603
428.99        4480.725
429.44        4597.278
429.88        4716.102
430.33        4813.806
430.77         4874.17
431.22        4903.938
431.66        4887.274
432.11         4798.57
432.56        4667.326
433.00        4524.263
433.45        4425.358
433.89        4480.645
434.34        4695.144
434.78        4758.464
435.23         4627.35
435.67        4604.653
436.12        4674.597
436.57         4670.24
437.01        4600.941
437.46        4573.685
437.90        4600.037
438.35        4646.159
438.79        4697.297
439.24        4746.443
439.68        4778.247
440.13        4765.097
440.57        4740.786
441.02        4776.042
441.46        4876.209
441.91         5042.77
442.35        5225.343
442.80        5263.933
443.24        5185.344
443.69        5213.204
444.13         5344.72
444.58        5395.854
445.02        5365.272
445.47        5365.955
445.91        5402.523
446.36        5427.127
446.80        5439.848
447.24        5456.513
447.69        5478.053
448.13        5503.755
448.58        5533.768
449.02        5565.733
449.47        5598.254
449.91        5631.281
450.36        5663.777
450.80        5694.187
451.25        5723.091
451.69        5752.027
452.13        5781.442
452.58         5811.83
453.02        5840.874
453.47         5865.02
453.91        5884.418
454.36        5900.533
454.80        5921.014
455.24        5957.079
455.69        6011.693
456.13        6084.079
456.58        6163.163
457.02        6230.756
457.46        6283.818
457.91          6324.8
458.35        6367.073
458.79        6446.378
459.24        6565.825
459.68        6685.507
460.13        6775.139
460.57        6910.983
461.01        6892.686
461.46        6889.002
461.90        6852.054
462.34        6825.972
462.79        6784.243
463.23        6755.937
463.68         6757.18
464.12        6829.503
464.56        6971.854
465.01        7161.524
465.45         7352.42
465.89        7473.277
466.34        7503.192
466.78        7460.544
467.22        7379.503
467.67        7300.448
468.11        7275.363
468.55        7263.082
468.99        7259.909
469.44        7242.335
469.88          7206.5
470.32        7167.455
470.77         7136.68
471.21        7128.173
471.65        7146.894
472.10        7187.148
472.54        7244.288
472.98        7312.463
473.42        7386.448
473.87        7463.461
474.31        7540.411
474.75        7613.411
475.20        7678.459
475.64        7735.776
476.08        7785.505
476.52        7806.512
476.97        7797.167
477.41        7808.165
477.85        7860.493
478.29        7766.118
478.74        7872.342
479.18        7907.606
479.62        7980.052
480.06        8044.448
480.50         8087.33
480.95         8276.77
481.39        8301.951
481.83        8338.274
482.27        8306.728
482.72        8285.271
483.16         8284.71
483.60        8254.285
484.04        8201.183
484.48        8214.802
484.93         8359.11
485.37        8390.642
485.81        8655.152
486.25        9296.702
486.69        13069.45
487.14        12937.84
487.58        9381.152
488.02        8752.307
488.46         8691.04
488.90        8468.313
489.34        8194.688
489.79        8177.031
490.23        8233.713
490.67        8301.467
491.11         8282.39
491.55        8232.426
491.99        8162.465
492.43        8102.605
492.88         8074.53
493.32        8090.089
493.76        8130.545
494.20        8139.087
494.64        8105.684
495.08        8065.644
495.52        8035.777
495.96        8003.352
496.41        7979.593
496.85        8030.612
497.29        8121.914
497.73        8093.064
498.17        7965.625
498.61        7933.371
499.05        7992.107
499.49        7988.062
499.93        7919.445
500.37        7875.154
500.82        7864.116
501.26        7859.756
501.70        7861.784
502.14        7874.896
502.58        7890.884
503.02        7896.254
503.46        7887.114
503.90        7866.567
504.34        7834.881
504.78        7794.504
505.22        7748.899
505.66        7697.923
506.10        7652.735
506.54        7631.308
506.98        7635.848
507.42        7660.637
507.86        7690.054
508.30         7698.13
508.74        7678.347
509.18        7638.514
509.62        7589.762
510.06        7550.805
510.50        7527.802
510.94        7514.917
511.38        7509.278
511.82        7506.177
512.26        7503.593
512.70        7504.738
513.14        7507.058
513.58        7505.522
514.02        7499.378
514.46        7488.362
514.90        7478.628
515.34        7480.852
515.78        7496.586
516.22        7522.738
516.66        7549.098
517.10        7559.396
517.54        7550.293
517.98        7526.505
518.42        7500.175
518.86        7490.896
519.30        7503.122
519.74        7531.029
520.18        7562.728
520.62        7578.764
521.06        7575.343
521.50         7560.46
521.93        7544.919
522.37        7545.681
522.81        7567.122
523.25        7602.019
523.69        7645.449
524.13        7689.992
524.57        7731.397
525.01        7771.897
525.45        7806.462
525.89        7826.755
526.32        7833.179
526.76         7829.01
527.20        7824.723
527.64        7838.051
528.08        7872.566
528.52        7921.636
528.96        7978.285
529.40        8030.335
529.83        8073.335
530.27        8112.572
530.71        8144.256
531.15        8162.048
531.59         8167.83
532.03         8164.16
532.46        8167.267
532.90        8201.636
533.34        8270.558
533.78        8370.873
534.22        8482.604
534.66        8557.816
535.09        8594.582
535.53        8636.664
535.97        8685.074
536.41        8712.288
536.85        8721.711
537.28        8731.034
537.72        8750.723
538.16        8788.843
538.60        8847.579
539.04        8925.259
539.47        9007.757
539.91        9072.135
540.35         9113.57
540.79        9136.678
541.22        9151.686
541.66        9191.404
542.10        9236.647
542.54        9297.917
542.97        9365.104
543.41        9434.232
543.85        9501.901
544.29        9572.058
544.72        9635.103
545.16        9674.184
545.60        9689.211
546.04        9685.563
546.47        9685.373
546.91        9724.542
547.35        9807.196
547.79        9922.518
548.22        10046.91
548.66        10129.72
549.10        10157.49
549.53        10194.37
549.97        10164.38
550.41        10154.63
550.84        10149.15
551.28        10142.02
551.72        10145.59
552.15        10188.22
552.59        10269.23
553.03        10369.26
553.46        10471.54
553.90        10549.36
554.34        10592.98
554.77        10624.21
555.21         10674.1
555.65        10672.37
556.08        10827.66
556.52        10962.22
556.96        11106.62
557.39        11201.33
557.83         11238.8
558.27        11253.03
558.70        11270.85
559.14         11279.6
559.57        11390.54
560.01        11491.94
560.45         11616.2
560.88        11776.21
561.32        11946.46
561.75        12115.78
562.19        12256.15
562.63        12256.94
563.06        12176.71
563.50        12274.28
563.93        12526.85
564.37        12666.65
564.80         12681.9
565.24        12735.06
565.68        12839.36
566.11        12935.37
566.55        13027.98
566.98        13142.82
567.42        13275.15
567.85        13411.06
568.29        13552.54
568.72        13709.71
569.16        13903.05
569.60        14148.29
570.03        14431.05
570.47        14794.78
570.90        15087.26
571.34        15323.17
571.77        15440.15
572.21        15597.94
572.64        15776.63
573.08        15692.59
573.51        15186.05
573.95        15611.42
574.38        16562.07
574.82        16664.84
