SpectraSmart Spectrum 2.9.0.0
--------- Device Information -----------
Spectrum Name :  光譜_0
Saving Time :  2024/04/29 23:38:12
Spectro-Module Model Name : SE2030-DUVN
Spectro-Module Serial Number : OS361AC55029948
Wavelength Start : 200
Wavelength End : 1025
Wavelength Unit : Wavelength(nm)
Spectrum Unit : Intensity(Counts)
-----------Spectrum Setting ------------
Integration Time : 1ms
Average : 1
Boxcar : 0
Background removal :  enabled
linearity correction :  enabled
SC :  disabled
Intensity correction :  disabled
DWT denoise :  enabled
savitzky-golay :  disabled
FFT :  disabled
Running average :  disabled
Kalman :  disabled
High pass :  disabled
---------------BEGIN--------------------
Wavelength(nm)          Intensity(Counts)
200.29       -22.57815
200.75       -20.81319
201.21       -19.00142
201.67       -17.33819
202.13       -15.89114
202.58       -14.77342
203.04       -13.65519
203.50       -13.16564
203.96       -14.41619
204.42       -17.39802
204.88         -21.734
205.34       -25.66843
205.80       -26.46122
206.26       -23.52557
206.72       -17.47111
207.18       -10.53665
207.64       -6.397682
208.10       -5.874843
208.55       -8.016138
209.01       -10.34486
209.47        -8.77532
209.93       -2.658749
210.39        6.276028
210.85        15.19012
211.31        19.64963
211.77        18.57493
212.23        13.64457
212.69        6.681245
213.14       0.5914329
213.60       -3.496263
214.06       -6.493933
214.52       -8.198164
214.98       -8.302083
215.44       -7.086174
215.90       -4.460876
216.36       -1.993525
216.81       -2.378193
217.27       -6.048283
217.73       -12.21991
218.19       -18.82181
218.65       -22.42366
219.11       -22.07326
219.57       -18.63174
220.02       -13.64392
220.48       -9.675395
220.94       -7.474276
221.40       -6.312217
221.86       -5.062228
222.32       -1.959856
222.77        3.333791
223.23        10.03823
223.69         16.8561
224.15        21.88968
224.61        24.67596
225.06        25.82307
225.52        26.56477
225.98        28.83429
226.44        33.15777
226.90        39.03412
227.36        45.43115
227.81        50.64288
228.27        54.35907
228.73        57.28579
229.19        60.43695
229.65        65.41632
230.10        72.45538
230.56        80.61884
231.02        89.16138
231.48        96.95902
231.93        103.4952
232.39        109.1705
232.85        113.2326
233.31        114.5904
233.77        113.2097
234.22        109.1197
234.68        104.4126
235.14         102.549
235.60        104.0153
236.05        107.8195
236.51        110.7133
236.97        107.3922
237.43        96.90462
237.88        81.17564
238.34        63.87404
238.80        50.85071
239.26        43.73415
239.71        40.83986
240.17        39.81076
240.63        36.74184
241.08        30.52337
241.54        22.64308
242.00        14.27884
242.46        7.180192
242.91        1.970389
243.37       -2.151465
243.83       -5.216227
244.28       -7.134766
244.74       -8.018259
245.20       -7.630646
245.66        -6.78093
246.11       -6.870932
246.57       -8.156104
247.03       -10.47988
247.48       -12.41267
247.94       -11.55543
248.40       -7.572086
248.85       -1.270267
249.31        5.164272
249.77        8.256662
250.22        7.312352
250.68        3.509252
251.14      -0.7850664
251.59       -1.797309
252.05         1.52768
252.51        8.165434
252.96        16.41595
253.42        23.49935
253.88        28.70688
254.33        33.07592
254.79        37.99251
255.25        45.51696
255.70        56.31786
256.16        69.86259
256.62        85.21974
257.07        100.9512
257.53        116.7491
257.99        133.1447
258.44         151.316
258.90        173.0096
259.35        198.5715
259.81        227.4517
260.27        258.1215
260.72        288.1608
261.18        316.9979
261.63          345.22
262.09        374.3051
262.55        406.7358
263.00        442.7029
263.46        480.6758
263.91        518.5971
264.37        553.5076
264.83        584.0936
265.28        610.5937
265.74        633.2838
266.19        652.8797
266.65        669.7299
267.11        683.7196
267.56        694.8321
268.02        703.1268
268.47        709.0801
268.93        713.4017
269.38        717.4279
269.84         722.877
270.30        730.4235
270.75        740.1605
271.21        751.3051
271.66        762.2797
272.12        772.9584
272.57         784.141
273.03        797.1877
273.48         814.163
273.94        835.5411
274.39        860.5605
274.85        888.1217
275.31        916.5134
275.76        945.0558
276.22         974.051
276.67        1003.787
277.13        1034.757
277.58        1067.141
278.04        1100.703
278.49        1135.006
278.95        1169.615
279.40        1204.166
279.86        1238.163
280.31        1272.332
280.77        1307.882
281.22        1344.751
281.68        1382.735
282.13        1419.147
282.59        1449.709
283.04        1474.178
283.50        1494.352
283.95        1515.099
284.41        1544.081
284.86        1582.983
285.32        1629.379
285.77        1678.568
286.22        1722.972
286.68        1760.083
287.13        1791.509
287.59        1819.925
288.04        1849.782
288.50        1882.339
288.95        1916.239
289.41        1948.856
289.86        1976.305
290.32        1997.943
290.77        2015.157
291.22        2031.848
291.68        2054.001
292.13        2082.529
292.59        2115.161
293.04        2146.719
293.50        2169.089
293.95        2180.333
294.40        2182.975
294.86        2181.708
295.31        2184.089
295.77        2192.536
296.22        2205.421
296.68        2220.083
297.13        2231.934
297.58        2240.403
298.04        2248.236
298.49        2258.563
298.95        2275.777
299.40        2301.127
299.85        2332.841
300.31        2369.364
300.76        2408.428
301.21        2448.484
301.67        2489.364
302.12        2529.973
302.58        2568.741
303.03        2605.405
303.48         2640.46
303.94        2674.467
304.39        2708.585
304.84        2743.722
305.30        2779.928
305.75        2818.765
306.20        2862.587
306.66        2911.149
307.11        2962.903
307.57        3014.921
308.02        3062.522
308.47        3104.144
308.93        3140.904
309.38        3173.021
309.83        3201.367
310.29        3226.615
310.74        3248.007
311.19        3267.994
311.65        3290.718
312.10         3316.41
312.55        3343.838
313.00        3368.276
313.46        3381.848
313.91        3383.326
314.36        3375.963
314.82         3364.98
315.27        3358.589
315.72        3359.637
316.18        3366.105
316.63            3376
317.08        3386.081
317.53        3394.267
317.99        3400.271
318.44        3403.729
318.89        3404.048
319.35         3400.71
319.80        3393.847
320.25        3380.758
320.70        3357.672
321.16         3325.18
321.61         3285.33
322.06         3245.85
322.51        3218.676
322.97        3206.175
323.42        3204.916
323.87        3206.052
324.32        3195.144
324.78        3168.116
325.23         3128.45
325.68        3083.134
326.13        3043.695
326.59        3013.241
327.04        2988.515
327.49         2963.36
327.94         2928.05
328.39         2881.03
328.85        2826.592
329.30        2772.293
329.75        2729.639
330.20        2701.055
330.66        2682.042
331.11        2666.015
331.56        2642.662
332.01        2608.701
332.46        2567.363
332.92        2521.362
333.37        2474.986
333.82        2430.668
334.27        2387.917
334.72         2347.91
335.17        2312.587
335.63        2282.494
336.08        2257.596
336.53        2237.879
336.98         2222.58
337.43         2210.87
337.88         2202.58
338.34        2195.051
338.79        2184.362
339.24        2169.838
339.69        2152.192
340.14        2135.261
340.59        2125.576
341.05        2124.376
341.50        2129.618
341.95        2137.115
342.40         2139.89
342.85        2136.576
343.30        2130.136
343.75        2123.761
344.20        2122.542
344.66        2127.939
345.11        2137.428
345.56         2150.83
346.01        2168.077
346.46        2187.796
346.91        2209.656
347.36        2228.937
347.81        2238.094
348.26        2236.191
348.72        2225.736
349.17        2213.187
349.62        2209.273
350.07        2216.686
350.52        2232.089
350.97        2251.104
351.42        2266.417
351.87        2275.487
352.32        2280.704
352.77        2282.862
353.22        2283.068
353.67        2282.558
354.13        2281.285
354.58        2281.189
355.03        2285.595
355.48        2295.373
355.93        2309.908
356.38        2328.006
356.83        2347.339
357.28        2366.644
357.73        2385.882
358.18        2404.265
358.63        2420.795
359.08         2435.19
359.53        2447.413
359.98        2457.736
360.43        2467.013
360.88        2475.573
361.33        2483.092
361.78        2490.302
362.23        2498.272
362.68        2507.029
363.13         2516.47
363.58        2524.736
364.03        2528.687
364.48            2528
364.93        2523.896
365.38        2519.088
365.83        2517.983
366.28         2521.48
366.73        2527.832
367.18        2534.917
367.63        2539.321
368.08        2539.771
368.53        2537.234
368.98          2531.5
369.43        2522.495
369.88         2510.46
370.33        2495.022
370.78         2478.53
371.23        2464.652
371.68        2454.702
372.13        2449.458
372.58        2445.506
373.03        2436.818
373.48        2423.081
373.93        2406.411
374.38        2394.892
374.83        2401.135
375.28        2427.014
375.72        2468.102
376.17        2513.029
376.62        2543.799
377.07        2555.787
377.52         2553.54
377.97        2547.093
378.42        2553.115
378.87        2575.511
379.32        2608.616
379.77         2643.47
380.22        2665.931
380.67         2672.75
381.11        2669.502
381.56        2663.248
382.01        2664.968
382.46        2677.672
382.91        2697.098
383.36        2720.586
383.81        2743.669
384.26        2765.284
384.71        2789.399
385.15        2813.716
385.60        2834.107
386.05        2851.014
386.50        2864.121
386.95        2884.368
387.40        2929.732
387.85        3001.622
388.29        3093.916
388.74        3187.132
389.19        3249.401
389.64        3275.592
390.09        3278.211
390.54        3277.367
390.98        3305.893
391.43        3371.871
391.88        3461.679
392.33        3567.351
392.78        3672.931
393.23        3768.428
393.67        3863.811
394.12        3947.928
394.57        3965.343
395.02        3975.691
395.47        3942.832
395.91        3907.117
396.36        3904.729
396.81        3946.352
397.26        4018.921
397.71        4114.965
398.15        4220.071
398.60        4322.452
399.05        4428.111
399.50        4517.147
399.95        4537.631
400.39        4510.293
400.84        4446.061
401.29        4374.567
401.74        4318.451
402.18        4290.972
402.63        4295.712
403.08        4320.572
403.53        4338.996
403.97        4343.477
404.42        4340.837
404.87        4339.817
405.32        4353.244
405.76        4382.345
406.21        4420.457
406.66        4450.701
407.11        4448.943
407.55        4410.916
408.00        4343.984
408.45        4271.842
408.90        4231.906
409.34         4233.21
409.79        4266.898
410.24        4307.712
410.68        4314.087
411.13        4277.554
411.58        4211.986
412.03        4145.455
412.47        4122.511
412.92        4152.418
413.37        4218.334
413.81        4293.229
414.26        4334.956
414.71        4331.616
415.15        4296.581
415.60        4246.588
416.05        4208.537
416.49        4191.395
416.94        4186.805
417.39        4189.501
417.83        4190.892
418.28        4189.672
418.73        4193.897
419.17        4204.443
419.62        4220.539
420.07        4242.743
420.51        4267.404
420.96        4302.044
421.41        4360.314
421.85        4439.875
422.30        4532.024
422.74        4613.473
423.19        4648.743
423.64        4629.962
424.08        4567.699
424.53        4484.877
424.98        4418.423
425.42        4381.306
425.87        4369.519
426.31        4373.371
426.76        4366.799
427.21        4361.064
427.65        4358.989
428.10        4373.791
428.54        4429.612
428.99        4526.271
429.44        4612.887
429.88        4684.958
430.33        4811.094
430.77        4949.373
431.22        4943.678
431.66        4803.642
432.11        4691.954
432.56        4635.713
433.00        4536.522
433.45         4427.83
433.89        4462.411
434.34        4607.984
434.78         4670.14
435.23        4641.271
435.67        4661.609
436.12        4726.608
436.57        4739.742
437.01        4706.385
437.46         4686.16
437.90        4688.071
438.35        4697.932
438.79        4709.802
439.24         4722.26
439.68        4728.817
440.13        4714.897
440.57        4709.809
441.02        4758.626
441.46        4862.094
441.91        5042.436
442.35        5244.523
442.80        5276.191
443.24        5172.843
443.69        5204.547
444.13        5366.341
444.58        5432.843
445.02         5401.28
445.47        5409.142
445.91        5461.442
446.36        5499.011
446.80        5521.071
447.24         5545.94
447.69         5573.82
448.13        5603.061
448.58        5633.666
449.02        5663.092
449.47        5690.393
449.91        5716.674
450.36        5741.589
450.80        5763.715
451.25         5784.03
451.69        5805.012
452.13        5827.361
452.58        5849.606
453.02        5869.587
453.47        5887.602
453.91        5905.207
454.36        5909.044
454.80        5932.382
455.24        5958.173
455.69         5997.79
456.13        6050.322
456.58        6115.302
457.02        6190.399
457.46        6273.628
457.91        6363.308
458.35        6455.288
458.79        6547.668
459.24        6634.183
459.68        6702.611
460.13        6750.767
460.57        6797.326
461.01        6794.629
461.46        6817.799
461.90        6841.133
462.34        6782.157
462.79        6676.569
463.23        6677.279
463.68         6793.37
464.12        6911.336
464.56        7023.437
465.01        7188.721
465.45         7371.24
465.89        7496.836
466.34        7536.157
466.78        7472.368
467.22        7325.351
467.67        7240.729
468.11        7235.248
468.55        7258.147
468.99        7285.845
469.44        7295.664
469.88        7278.767
470.32        7248.147
470.77        7219.666
471.21        7214.639
471.65        7239.641
472.10        7286.732
472.54        7346.563
472.98        7405.945
473.42        7459.466
473.87        7508.956
474.31        7559.109
474.75        7617.717
475.20        7684.601
475.64        7754.882
476.08        7818.465
476.52        7859.933
476.97        7878.213
477.41        7882.215
477.85        7883.457
478.29        7898.863
478.74        7931.485
479.18        7978.824
479.62        8042.231
480.06        8102.684
480.50        8146.474
480.95        8259.063
481.39        8295.227
481.83        8296.235
482.27        8233.677
482.72        8253.603
483.16        8242.447
483.60        8235.607
484.04        8190.427
484.48        8175.743
484.93         8323.08
485.37        8425.185
485.81        8750.711
486.25        9705.468
486.69        13246.87
487.14        12621.49
487.58        9199.656
488.02        8870.787
488.46        8629.549
488.90        8353.005
489.34         8263.74
489.79        8135.555
490.23        8260.435
490.67        8288.902
491.11        8258.845
491.55        8253.425
491.99        8262.752
492.43        8230.026
492.88        8165.384
493.32        8134.499
493.76        8133.054
494.20        8110.305
494.64        8062.957
495.08        8015.753
495.52        7986.762
495.96        7975.142
496.41        7978.628
496.85        8041.787
497.29        8130.486
497.73        8046.104
498.17        7917.494
498.61        7875.648
499.05        7947.145
499.49        7970.346
499.93         7934.41
500.37        7907.334
500.82        7896.954
501.26        7898.538
501.70         7911.36
502.14        7924.468
502.58        7927.086
503.02        7912.075
503.46        7877.254
503.90        7823.668
504.34        7763.389
504.78        7717.367
505.22        7691.558
505.66        7682.416
506.10        7684.274
506.54        7678.188
506.98        7658.336
507.42        7645.291
507.86        7649.625
508.30        7598.665
508.74        7635.409
509.18        7642.345
509.62        7650.739
510.06        7640.833
510.50        7610.862
510.94        7564.896
511.38        7516.343
511.82        7490.285
512.26        7491.864
512.70        7514.071
513.14        7542.084
513.58        7551.875
514.02        7537.341
514.46        7505.902
514.90        7470.553
515.34        7451.742
515.78        7455.227
516.22        7475.174
516.66        7500.679
517.10         7514.83
517.54         7513.28
517.98        7500.841
518.42        7489.031
518.86        7495.692
519.30        7524.103
519.74        7567.993
520.18        7612.061
520.62        7632.742
521.06        7624.891
521.50        7595.649
521.93        7562.127
522.37        7551.532
522.81        7570.568
523.25        7611.754
523.69        7658.759
524.13        7685.006
524.57        7685.145
525.01        7669.288
525.45        7653.964
525.89        7664.955
526.32        7708.286
526.76         7773.79
527.20         7848.64
527.64        7913.318
528.08        7960.428
528.52        7994.749
528.96        8020.103
529.40        8042.448
529.83        8065.338
530.27         8088.63
530.71        8111.991
531.15         8135.27
531.59        8160.099
532.03        8187.936
532.46        8225.668
532.90        8283.469
533.34        8360.326
533.78        8449.434
534.22        8537.444
534.66        8603.522
535.09        8642.476
535.53        8661.801
535.97        8668.027
536.41         8672.39
536.85        8681.528
537.28        8693.722
537.72        8717.305
538.16        8764.941
538.60        8837.092
539.04        8929.789
539.47        9028.047
539.91         9106.74
540.35         9159.43
540.79        9192.271
541.22        9215.661
541.66        9248.783
542.10        9296.513
542.54        9350.203
542.97        9407.112
543.41        9464.363
543.85        9519.713
544.29        9576.047
544.72         9628.63
545.16        9667.682
545.60        9692.401
546.04        9709.474
546.47        9731.113
546.91        9764.332
547.35        9817.378
547.79        9914.188
548.22        10033.35
548.66        10093.94
549.10        10083.48
549.53        10072.24
549.97        10094.47
550.41        9996.086
550.84        10092.58
551.28        10144.17
551.72        10237.81
552.15        10275.92
552.59        10386.17
553.03        10466.35
553.46        10543.55
553.90         10606.6
554.34        10654.51
554.77        10675.53
555.21        10690.19
555.65        10757.56
556.08        10871.68
556.52        10977.89
556.96        11056.08
557.39        11103.47
557.83        11122.78
558.27        11132.63
558.70        11151.92
559.14        11196.78
559.57        11282.53
560.01        11413.42
560.45        11572.14
560.88        11764.06
561.32        11910.73
561.75        12010.82
562.19        12061.44
562.63        12136.19
563.06        12242.24
563.50         12337.1
563.93         12420.5
564.37        12509.76
564.80         12604.6
565.24         12705.7
565.68        12809.93
566.11        12900.83
566.55        12985.53
566.98        13092.25
567.42        13214.93
567.85        13351.55
568.29         13510.9
568.72         13651.6
569.16        13778.88
569.60        14158.44
570.03        14328.85
570.47         14661.4
570.90        15006.74
571.34        15129.16
571.77        15270.56
572.21        15403.52
572.64        15620.02
573.08        15466.44
573.51        15077.27
573.95        15637.34
574.38        16297.81
574.82        16521.99
