SpectraSmart Spectrum 2.9.0.0
--------- Device Information -----------
Spectrum Name :  光譜_0
Saving Time :  2024/04/25 21:50:57
Spectro-Module Model Name : SE2030-DUVN
Spectro-Module Serial Number : OS361AC55029948
Wavelength Start : 200
Wavelength End : 1025
Wavelength Unit : Wavelength(nm)
Spectrum Unit : Intensity(Counts)
-----------Spectrum Setting ------------
Integration Time : 20ms
Average : 1
Boxcar : 0
Background removal :  enabled
linearity correction :  enabled
SC :  disabled
Intensity correction :  disabled
DWT denoise :  enabled
savitzky-golay :  disabled
FFT :  disabled
Running average :  disabled
Kalman :  disabled
High pass :  disabled
---------------BEGIN--------------------
Wavelength(nm)          Intensity(Counts)
200.29       -15.77898
200.75       -20.94712
201.21       -27.50864
201.67       -33.62299
202.13       -36.36739
202.58       -35.24792
203.04       -30.95113
203.50       -26.03259
203.96       -24.74376
204.42        -28.1415
204.88       -35.11966
205.34       -43.16195
205.80       -48.21037
206.26       -49.07696
206.72       -46.63781
207.18       -43.19265
207.64       -42.43276
208.10       -45.10266
208.55       -50.07795
209.01       -54.29965
209.47       -52.97181
209.93       -45.43114
210.39       -33.66674
210.85       -21.86113
211.31       -16.48695
211.77       -19.12649
212.23       -27.76477
212.69        -38.7914
213.14       -46.42311
213.60       -48.79535
214.06       -47.27962
214.52       -44.05804
214.98       -42.67616
215.44       -44.09062
215.90       -47.15015
216.36       -49.73331
216.81       -48.69462
217.27        -43.5189
217.73       -35.46041
218.19       -27.50974
218.65       -24.18762
219.11       -26.44255
219.57       -32.86536
220.02       -40.03384
220.48       -42.52967
220.94       -38.98595
221.40       -30.89515
221.86       -21.55464
222.32       -16.23862
222.77       -16.31845
223.23       -20.36236
223.69       -25.18963
224.15       -25.75562
224.61       -21.02029
225.06       -12.73402
225.52        -4.62775
225.98       -2.455801
226.44       -7.488432
226.90       -17.84828
227.36       -29.54531
227.81       -36.31783
228.27       -36.54793
228.73       -31.95674
229.19       -26.13755
229.65       -24.90177
230.10       -29.50804
230.56       -37.85883
231.02       -46.37682
231.48       -49.49417
231.93       -45.94405
232.39       -37.86187
232.85       -28.35691
233.31       -22.18707
233.77       -20.88444
234.22       -23.12811
234.68       -27.21866
235.14       -30.47786
235.60       -31.93118
236.05       -32.20897
236.51        -32.2858
236.97       -33.62618
237.43       -36.39816
237.88       -39.89576
238.34       -42.40899
238.80       -41.42528
239.26       -36.67384
239.71       -29.25687
240.17       -21.62731
240.63       -17.61615
241.08       -18.15122
241.54       -22.03838
242.00       -27.34316
242.46       -30.87242
242.91        -31.6259
243.37       -30.57056
243.83       -28.49238
244.28       -26.67209
244.74       -25.60736
245.20       -24.76195
245.66       -24.19184
246.11        -24.1139
246.57       -24.49803
247.03       -25.44321
247.48       -26.54575
247.94       -27.02596
248.40       -26.72178
248.85       -25.80132
249.31       -24.74664
249.77        -24.3756
250.22       -24.87479
250.68       -25.98531
251.14       -27.20611
251.59       -27.75084
252.05       -27.39679
252.51       -26.32311
252.96       -24.94172
253.42       -23.94746
253.88       -23.42335
254.33       -23.02606
254.79       -22.27534
255.25        -20.4218
255.70       -17.36841
256.16       -13.59409
256.62        -9.44122
257.07       -5.398796
257.53       -1.802753
257.99        1.381952
258.44        3.619579
258.90         4.14419
259.35         2.89285
259.81      0.05953222
260.27       -3.308429
260.72       -5.534017
261.18       -6.129763
261.63       -5.294199
262.09       -4.112031
262.55       -4.425774
263.00       -6.610773
263.46       -10.18312
263.91       -13.63564
264.37       -14.55748
264.83       -12.60402
265.28        -8.70154
265.74       -4.914712
266.19       -4.498707
266.65        -8.09771
267.11       -14.48728
267.56        -21.7089
268.02       -26.63023
268.47       -28.32764
268.93       -27.80604
269.38       -25.93227
269.84       -24.13923
270.30       -23.01428
270.75       -21.99334
271.21       -21.33518
271.66       -21.55373
272.12       -22.55074
272.57       -24.24337
273.03       -25.70603
273.48       -25.30125
273.94       -22.77946
274.39       -18.76939
274.85       -14.20762
275.31       -10.66541
275.76       -8.643513
276.22       -7.606404
276.67       -7.483346
277.13       -8.119571
277.58       -9.236828
278.04       -10.93394
278.49       -12.32644
278.95       -11.91735
279.40       -9.604193
279.86       -5.954395
280.31       -2.322739
280.77      -0.9839467
281.22       -2.412438
281.68       -5.680202
282.13       -9.932045
282.59       -13.76091
283.04        -16.5206
283.50       -18.66011
283.95       -19.57837
284.41        -18.3187
284.86       -15.05809
285.32       -10.20041
285.77       -5.491986
286.22       -3.820291
286.68       -5.732117
287.13       -10.24701
287.59       -15.77472
288.04       -19.62655
288.50       -20.95723
288.95       -20.63592
289.41        -18.9601
289.86       -16.49226
290.32       -13.66969
290.77       -10.21479
291.22       -7.250406
291.68       -6.599989
292.13       -8.581049
292.59       -12.95862
293.04       -17.83339
293.50       -20.02277
293.95       -18.83134
294.40       -14.97087
294.86       -10.84265
295.31       -10.38476
295.77       -14.32358
296.22       -21.32633
296.68        -28.3571
297.13       -30.65223
297.58       -27.12843
298.04       -19.30375
298.49        -10.2782
298.95       -4.926809
299.40       -4.624548
299.85       -8.138646
300.31       -12.82716
300.76       -14.46069
301.21       -11.99844
301.67       -6.681329
302.12       -1.335186
302.58      -0.3588417
303.03       -4.591577
303.48       -12.47283
303.94       -20.45493
304.39       -23.07576
304.84       -19.09867
305.30       -10.21157
305.75      -0.2419266
306.20        4.799085
306.66        3.281699
307.11        -3.33146
307.57       -11.44269
308.02       -15.24379
308.47       -13.44919
308.93       -7.834068
309.38       -2.451403
309.83       -3.714727
310.29       -12.69145
310.74       -26.74869
311.19       -41.04166
311.65       -48.09815
312.10       -46.00955
312.55       -37.18448
313.00        -25.4058
313.46       -16.68596
313.91        -13.0527
314.36       -13.02832
314.82       -14.67903
315.27       -14.89854
315.72       -12.77003
316.18       -9.314401
316.63       -6.214874
317.08       -5.908503
317.53       -8.680613
317.99       -13.40635
318.44       -17.50107
318.89       -17.05081
319.35       -11.44792
319.80       -2.279334
320.25        7.499928
320.70        13.17323
321.16        13.53478
321.61        10.20516
322.06        4.876214
322.51       0.3941547
322.97       -2.228233
323.42       -4.120203
323.87       -4.858662
324.32       -3.776621
324.78       -1.038195
325.23         3.63588
325.68        7.919204
326.13        7.876394
326.59        3.002644
327.04       -5.639192
327.49       -14.10863
327.94       -15.96809
328.39       -9.991659
328.85         1.72953
329.30        14.66094
329.75        21.50319
330.20        20.41379
330.66        13.61254
331.11        4.767598
331.56      -0.1808332
332.01       0.3818611
332.46        4.448094
332.92        9.544889
333.37         11.8272
333.82         10.1998
334.27        6.147086
334.72        1.116034
335.17       -2.790679
335.63       -4.862875
336.08       -5.861789
336.53       -6.324879
336.98       -7.023853
337.43       -8.143685
337.88       -9.164149
338.34       -9.964087
338.79       -10.41926
339.24       -10.59088
339.69       -10.96286
340.14       -11.12629
340.59       -10.38952
341.05       -8.710989
341.50       -5.950658
341.95       -3.873648
342.40       -5.298877
342.85       -10.47495
343.30       -18.65606
343.75       -26.22786
344.20       -27.34754
344.66       -21.18555
345.11       -9.824746
345.56        1.879201
346.01        6.081177
346.46         1.10591
346.91       -10.19416
347.36       -23.68682
347.81       -32.71481
348.26        -35.1593
348.72       -33.12443
349.17       -27.91987
349.62       -21.72679
350.07       -15.66673
350.52       -8.888324
350.97       -2.693413
351.42       0.7100138
351.87       0.9040927
352.32        -2.16457
352.77       -6.200699
353.22       -7.128014
353.67       -4.176317
354.13        1.626901
354.58        7.103566
355.03        7.061321
355.48       0.5588491
355.93       -10.55255
356.38       -22.38816
356.83       -28.86946
357.28       -28.43308
357.73       -22.80578
358.18       -15.37945
358.63       -11.61605
359.08       -12.96724
359.53       -17.81917
359.98       -23.32437
360.43       -24.96037
360.88       -21.72842
361.33        -15.3254
361.78       -8.507113
362.23       -5.516213
362.68       -7.290578
363.13       -12.16849
363.58       -17.80764
364.03       -20.56314
364.48       -19.43745
364.93       -15.80945
365.38       -10.88431
365.83       -6.532022
366.28       -3.548072
366.73       -1.262237
367.18      0.02348819
367.63      -0.2883342
368.08       -1.976303
368.53       -4.813913
368.98       -7.630441
369.43        -8.34178
369.88       -6.672639
370.33       -3.618436
370.78     -0.03320487
371.23        2.620321
371.68        3.707029
372.13        3.883698
372.58        2.155566
373.03       -3.060724
373.48       -11.42159
373.93        -22.1358
374.38       -31.93804
374.83       -35.63318
375.28       -32.23051
375.72       -23.35353
376.17       -12.50399
376.62       -5.453065
377.07       -3.939809
377.52       -6.510869
377.97         -11.186
378.42       -14.59382
378.87       -15.69615
379.32        -15.6551
379.77       -15.40879
380.22       -16.33218
380.67       -18.69392
381.11       -21.57534
381.56       -24.29596
382.01        -26.0322
382.46       -26.51582
382.91       -26.18461
383.36       -25.09053
383.81       -23.28303
384.26       -20.94461
384.71       -18.01991
385.15       -15.34101
385.60       -14.19327
386.05       -14.81599
386.50       -17.07017
386.95        -19.5375
387.40       -19.84707
387.85        -17.6139
388.29       -13.51902
388.74       -9.587623
389.19       -9.142941
389.64       -12.70753
390.09       -18.94546
390.54       -25.58783
390.98       -29.00169
391.43       -28.32759
391.88       -25.02367
392.33       -20.42445
392.78       -16.64734
393.23       -14.62571
393.67       -13.66489
394.12       -14.36377
394.57       -17.70201
395.02       -23.40544
395.47       -31.01606
395.91       -38.42805
396.36       -42.22986
396.81       -41.57547
397.26       -37.27121
397.71       -31.19862
398.15       -26.53373
398.60       -24.38686
399.05       -24.24646
399.50       -25.03884
399.95       -24.92141
400.39       -23.52095
400.84       -21.49385
401.29       -20.33638
401.74       -22.29224
402.18       -27.52737
402.63       -34.90511
403.08        -42.0277
403.53        -45.2617
403.97       -43.71684
404.42       -38.48616
404.87       -31.60333
405.32       -26.37826
405.76       -23.90058
406.21       -23.40115
406.66       -23.79166
407.11       -23.27888
407.55       -21.34884
408.00       -18.61755
408.45       -16.05919
408.90       -15.05662
409.34       -15.88941
409.79       -18.10282
410.24       -20.34567
410.68       -20.55096
411.13       -18.40596
411.58       -14.63304
412.03       -11.08961
412.47        -10.7484
412.92       -14.13411
413.37       -20.07969
413.81       -26.67006
414.26       -30.84004
414.71       -31.74137
415.15       -30.41871
415.60        -27.7588
416.05       -25.24695
416.49       -23.46971
416.94       -21.78748
417.39       -20.65024
417.83       -20.81952
418.28       -22.25027
418.73       -24.93328
419.17        -27.2988
419.62       -26.72719
420.07       -22.78394
420.51       -16.17548
420.96       -9.246306
421.41       -5.780489
421.85       -6.692635
422.30       -11.05766
422.74       -16.37059
423.19       -18.55148
423.64       -16.67677
424.08       -11.93514
424.53       -7.026036
424.98       -6.288605
425.42       -10.51227
425.87       -18.00366
426.31       -25.80978
426.76       -29.29072
427.21       -27.39604
427.65       -21.91882
428.10       -15.05917
428.54        -10.3109
428.99       -8.807302
429.44        -9.28021
429.88       -11.34679
430.33       -14.40679
430.77       -17.88372
431.22       -22.10053
431.66       -25.61336
432.11       -25.99344
432.56       -22.95427
433.00       -17.11946
433.45       -10.84339
433.89       -8.069461
434.34       -9.695314
434.78       -14.58089
435.23       -20.51599
435.67       -23.85767
436.12       -23.61707
436.57       -20.93936
437.01       -17.39469
437.46       -15.45167
437.90        -15.8817
438.35       -17.92613
438.79       -20.59552
439.24        -22.4073
439.68       -22.92082
440.13       -22.55872
440.57       -22.18363
441.02       -23.11862
441.46       -25.48357
441.91       -28.61033
442.35       -31.19021
442.80       -31.23612
443.24       -28.40002
443.69       -23.54629
444.13       -17.94958
444.58       -13.58897
445.02       -11.20518
445.47       -10.36548
445.91       -10.78914
446.36       -11.95208
446.80       -13.50223
447.24       -15.48836
447.69       -17.61791
448.13       -19.38963
448.58       -20.59469
449.02       -21.21511
449.47       -21.19068
449.91       -20.54952
450.36       -19.48761
450.80       -18.19279
451.25       -17.12669
451.69       -17.00739
452.13       -17.97247
452.58       -19.72256
453.02       -22.08674
453.47       -24.70231
453.91       -27.34087
454.36       -30.15504
454.80       -32.44545
455.24        -33.1504
455.69       -32.17869
456.13        -29.6995
456.58       -27.18026
457.02       -27.08147
457.46       -29.71704
457.91       -34.19877
458.35        -38.5437
458.79       -39.48707
459.24       -36.44106
459.68       -30.84276
460.13       -24.30611
460.57       -19.40068
461.01       -17.06183
461.46       -16.38628
461.90       -17.62429
462.34       -21.12741
462.79       -26.45988
463.23       -33.47107
463.68        -39.9494
464.12       -42.34532
464.56       -39.96196
465.01       -33.61042
465.45       -26.09897
465.89       -22.09974
466.34       -22.82122
466.78       -27.14448
467.22        -32.3863
467.67       -34.15062
468.11       -31.40391
468.55       -25.46436
468.99        -19.1426
469.44       -16.89222
469.88       -19.55293
470.32       -25.46124
470.77       -31.51984
471.21       -32.83286
471.65       -28.45069
472.10       -20.43251
472.54       -11.43819
472.98       -5.666302
473.42       -4.347794
473.87       -5.801136
474.31       -9.341143
474.75       -13.92391
475.20       -18.59632
475.64       -23.63665
476.08       -27.05542
476.52       -25.58817
476.97       -19.01286
477.41       -8.494216
477.85        2.727753
478.29        9.281453
478.74        9.776505
479.18        5.756013
479.62      -0.6621208
480.06       -5.843262
480.50       -8.496241
480.95       -9.716261
481.39       -9.740079
481.83       -8.938709
482.27       -7.685229
482.72       -5.625548
483.16       -3.554427
483.60       -3.031422
484.04       -4.218363
484.48       -6.577576
484.93       -9.098856
485.37       -10.00886
485.81       -8.835235
486.25       -6.293083
486.69       -2.626067
487.14        1.775935
487.58        6.405509
488.02        11.21322
488.46        15.06719
488.90        16.15656
489.34        14.31915
489.79        10.26332
490.23        5.494832
490.67        2.528656
491.11        2.094758
491.55        3.425963
491.99        5.992333
492.43        8.830103
492.88        11.36588
493.32        13.84576
493.76        15.46154
494.20         14.9162
494.64         12.1044
495.08        7.366606
495.52        2.105927
495.96       -1.312369
496.41       -2.258211
496.85       -1.262789
497.29       0.5927616
497.73        1.421881
498.17       0.7526389
498.61      -0.7480454
499.05       -2.329887
499.49       -2.805875
499.93       -1.917536
500.37      -0.3090328
500.82        1.586959
501.26        3.199966
501.70        4.221337
502.14        4.854583
502.58        4.844461
503.02        3.724175
503.46        1.651079
503.90        -1.00297
504.34        -3.47902
504.78       -4.550597
505.22       -3.927727
505.66       -2.107154
506.10       0.6515892
506.54        3.881886
506.98        7.137629
507.42        10.39999
507.86        12.71067
508.30        12.60135
508.74        9.941175
509.18        5.217405
509.62       -0.121536
510.06       -3.647544
510.50        -4.76285
510.94       -4.185139
511.38       -2.845117
511.82       -2.393562
512.26       -3.278077
512.70        -4.71889
513.14       -6.653791
513.58       -9.009196
514.02       -11.55246
514.46       -14.53831
514.90       -16.77939
515.34       -16.28336
515.78       -12.91933
516.22       -7.282837
516.66       -1.654676
517.10       0.1814829
517.54       -2.348178
517.98       -7.761586
518.42       -13.57003
518.86       -15.70049
519.30       -13.16568
519.74       -7.656039
520.18      -0.3439116
520.62        6.894371
521.06        12.98997
521.50        18.48053
521.93        21.82906
522.37        20.63019
522.81        14.80146
523.25        4.976975
523.69       -5.598795
524.13       -11.56899
524.57       -11.70532
525.01       -7.325659
525.45       -1.706033
525.89      -0.3520066
526.32       -4.588663
526.76       -12.65677
527.20       -21.71233
527.64       -27.20249
528.08       -27.96864
528.52       -25.61343
528.96       -22.19383
529.40       -20.95497
529.83       -22.67555
530.27       -25.90935
530.71       -29.51111
531.15       -31.74229
531.59        -32.0987
532.03       -31.68282
532.46       -30.26356
532.90       -27.30417
533.34       -23.21622
533.78       -18.14415
534.22       -14.47407
534.66       -16.07679
535.09       -23.33092
535.53       -34.79041
535.97       -46.80475
536.41       -53.45835
536.85       -53.29747
537.28       -48.12094
537.72       -40.68027
538.16       -35.55016
538.60       -34.21477
539.04       -35.27006
539.47       -37.71632
539.91       -39.99793
540.35       -41.33619
540.79       -42.19282
541.22       -42.35644
541.66       -41.31445
542.10       -39.01787
542.54       -35.58092
542.97       -31.14995
543.41       -26.09387
543.85       -20.89767
544.29       -15.92179
544.72       -12.05747
545.16       -10.54549
545.60       -11.61151
546.04       -14.79962
546.47       -19.34076
546.91       -23.94641
547.35       -27.93156
547.79       -31.26049
548.22       -33.55024
548.66       -34.41222
549.10       -33.75681
549.53          -31.53
549.97       -28.19839
550.41       -24.62573
550.84       -21.20087
551.28       -18.07064
551.72       -15.10539
552.15       -11.86471
552.59       -8.490932
553.03       -5.452913
553.46       -3.363183
553.90       -3.072396
554.34       -4.564814
554.77       -7.214653
555.21       -10.48767
555.65       -13.21166
556.08       -14.75587
556.52       -16.46547
556.96       -17.61809
557.39         -14.038
557.83        -7.36755
558.27       -5.259053
558.70       -7.248775
559.14       -6.447942
559.57       -2.790265
560.01      -0.2900595
560.45      -0.3900404
560.88       -3.405823
561.32       -9.291167
561.75       -17.59418
562.19       -25.59308
562.63       -28.98741
563.06       -26.91151
563.50       -20.67362
563.93       -12.91349
564.37       -8.048456
564.80       -7.349592
565.24       -9.477892
565.68       -13.05676
566.11       -15.83636
566.55       -16.95672
566.98       -17.19739
567.42       -16.76704
567.85       -15.78971
568.29       -14.64864
568.72       -13.52981
569.16       -12.66446
569.60       -12.61753
570.03        -13.4834
570.47       -14.71217
570.90       -17.11239
571.34       -21.89367
571.77       -28.78719
572.21         -37.369
572.64       -44.41206
573.08       -44.83743
573.51       -38.00267
573.95       -25.59095
574.38       -12.42437
574.82        -6.32689
