SpectraSmart Spectrum 2.9.0.0
--------- Device Information -----------
Spectrum Name :  光譜_0
Saving Time :  2024/04/27 22:07:04
Spectro-Module Model Name : SE2030-DUVN
Spectro-Module Serial Number : OS361AC55029948
Wavelength Start : 200
Wavelength End : 1025
Wavelength Unit : Wavelength(nm)
Spectrum Unit : Intensity(Counts)
-----------Spectrum Setting ------------
Integration Time : 1ms
Average : 10
Boxcar : 0
Background removal :  enabled
linearity correction :  enabled
SC :  disabled
Intensity correction :  disabled
DWT denoise :  enabled
savitzky-golay :  disabled
FFT :  disabled
Running average :  disabled
Kalman :  disabled
High pass :  disabled
---------------BEGIN--------------------
Wavelength(nm)          Intensity(Counts)
200.29       -17.80372
200.75       -19.31157
201.21       -20.89677
201.67       -21.95389
202.13       -21.48749
202.58       -19.43436
203.04       -16.08944
203.50       -12.60122
203.96       -10.84552
204.42        -11.3326
204.88       -13.65349
205.34       -16.74141
205.80       -18.86023
206.26       -19.40633
206.72       -18.55913
207.18       -17.26703
207.64       -17.09522
208.10       -18.26995
208.55       -20.33387
209.01       -21.55362
209.47        -19.2014
209.93       -13.06974
210.39       -4.415673
210.85        3.999472
211.31        7.868621
211.77        6.211413
212.23       0.4789469
212.69       -7.068901
213.14       -12.74314
213.60        -15.2922
214.06       -15.70589
214.52       -14.64582
214.98       -13.26557
215.44       -12.06052
215.90       -10.47998
216.36       -8.815459
216.81       -7.708908
217.27       -7.237818
217.73       -7.431314
218.19       -7.693601
218.65       -6.877128
219.11       -4.782171
219.57       -1.801221
220.02        1.398195
220.48        3.730289
220.94        4.900534
221.40        5.287678
221.86        5.317124
222.32        5.634564
222.77        6.558048
223.23        8.034569
223.69        10.02596
224.15        12.45916
224.61        15.31201
225.06        18.59262
225.52        22.50764
225.98        27.33839
226.44        33.00037
226.90         39.2896
227.36        45.51246
227.81        50.60646
228.27        54.39938
228.73        57.25527
229.19        59.95718
229.65        63.79452
230.10        69.08403
230.56        75.35942
231.02         82.1056
231.48        88.48892
231.93        94.11763
232.39        99.11662
232.85         103.307
233.31        106.4646
233.77        108.5009
234.22        109.2394
234.68        108.8903
235.14         107.951
235.60        106.4407
236.05        104.1631
236.51        100.7357
236.97        95.50011
237.43        88.47277
237.88        80.22132
238.34        71.19559
238.80        62.01523
239.26         53.1257
239.71        44.56424
240.17        36.97822
240.63        31.26925
241.08        27.51486
241.54        25.48671
242.00        24.10259
242.46         21.5601
242.91        17.44424
243.37        12.23387
243.83         6.94588
244.28        3.296762
244.74        1.728546
245.20        1.670817
245.66        2.397434
246.11        2.757354
246.57        2.390994
247.03        1.681314
247.48       0.9602446
247.94       0.7324198
248.40        1.147496
248.85        1.946511
249.31        3.000277
249.77        4.175232
250.22        5.405144
250.68        6.792824
251.14        8.341832
251.59        9.997075
252.05        11.86852
252.51        14.14493
252.96        17.02178
253.42        20.78189
253.88        25.59542
254.33        31.47334
254.79        38.68792
255.25        47.58984
255.70        58.25454
256.16        70.73877
256.62         84.6097
257.07         99.0688
257.53        114.1419
257.99         130.303
258.44         148.374
258.90        169.6401
259.35         194.353
259.81        221.8961
260.27        251.7339
260.72        283.0311
261.18        315.1826
261.63        348.0782
262.09        380.9063
262.55        412.5335
263.00        442.6189
263.46        471.0853
263.91        498.5905
264.37        526.4924
264.83        554.8166
265.28        582.6818
265.74        609.0189
266.19        632.2532
266.65          651.78
267.11        667.9973
267.56        680.9821
268.02        690.9243
268.47        698.2798
268.93        703.3934
269.38         707.316
269.84        711.5862
270.30        716.9423
270.75        723.6766
271.21        731.6495
271.66        740.2164
272.12        749.4893
272.57        760.0942
273.03        772.7443
273.48        788.4019
273.94        807.2746
274.39        828.9068
274.85        852.8415
275.31        878.4076
275.76        905.1738
276.22        933.1175
276.67        961.9207
277.13        991.1212
277.58        1020.726
278.04        1050.932
278.49        1081.996
278.95        1114.473
279.40        1148.385
279.86        1183.112
280.31         1218.88
280.77        1256.132
281.22        1294.449
281.68         1333.44
282.13        1371.035
282.59        1404.014
283.04        1432.028
283.50         1456.35
283.95        1479.833
284.41        1507.077
284.86        1539.358
285.32        1575.389
285.77        1613.441
286.22        1650.565
286.68         1685.65
287.13        1719.472
287.59         1752.18
288.04        1784.032
288.50         1815.14
288.95        1845.012
289.41        1873.856
289.86        1902.312
290.32        1930.366
290.77        1957.713
291.22        1983.748
291.68        2007.527
292.13        2028.664
292.59        2047.239
293.04        2063.553
293.50        2078.106
293.95        2091.268
294.40        2103.393
294.86         2114.31
295.31        2123.648
295.77        2131.783
296.22        2139.259
296.68        2147.885
297.13        2160.314
297.58        2177.047
298.04        2197.445
298.49        2219.406
298.95        2239.359
299.40        2256.722
299.85        2273.042
300.31        2290.471
300.76        2312.384
301.21        2339.908
301.67        2372.011
302.12        2408.086
302.58        2447.155
303.03        2488.362
303.48        2531.544
303.94        2575.616
304.39        2618.896
304.84        2660.776
305.30        2701.241
305.75        2740.495
306.20        2779.298
306.66        2817.801
307.11        2855.456
307.57        2892.482
308.02        2929.306
308.47        2965.733
308.93        3001.532
309.38        3035.297
309.83        3064.851
310.29        3089.665
310.74        3110.106
311.19        3127.916
311.65        3145.961
312.10        3164.996
312.55        3184.543
313.00        3202.524
313.46        3215.533
313.91         3223.05
314.36         3226.25
314.82        3228.313
315.27        3234.208
315.72        3244.862
316.18        3258.598
316.63        3271.662
317.08        3278.073
317.53        3276.399
317.99        3268.508
318.44        3257.623
318.89            3249
319.35        3243.952
319.80         3240.55
320.25        3236.591
320.70        3228.631
321.16        3215.625
321.61        3198.986
322.06        3179.449
322.51        3158.019
322.97        3135.372
323.42        3111.181
323.87        3086.253
324.32        3062.038
324.78        3038.567
325.23        3015.282
325.68        2990.908
326.13         2963.24
326.59        2931.735
327.04        2897.266
327.49        2860.268
327.94         2821.51
328.39        2781.675
328.85        2740.725
329.30        2700.133
329.75        2662.176
330.20        2627.187
330.66        2594.675
331.11         2562.57
331.56        2527.337
332.01        2488.313
332.46        2446.832
332.92        2405.055
333.37        2366.392
333.82        2332.088
334.27        2301.491
334.72        2273.775
335.17        2247.531
335.63         2222.23
336.08         2198.22
336.53        2176.131
336.98         2156.82
337.43        2140.324
337.88        2126.266
338.34        2113.151
338.79        2098.746
339.24        2082.823
339.69        2066.208
340.14        2051.265
340.59        2041.799
341.05        2038.505
341.50        2039.979
341.95        2043.885
342.40        2046.402
342.85        2046.481
343.30        2045.494
343.75          2044.4
344.20        2044.779
344.66        2047.361
345.11         2051.42
345.56        2057.721
346.01        2067.649
346.46        2080.928
346.91        2096.799
347.36         2112.86
347.81        2125.287
348.26        2133.043
348.72        2136.999
349.17        2138.944
349.62        2141.943
350.07        2147.122
350.52         2153.96
350.97        2161.653
351.42        2168.845
351.87        2175.233
352.32         2181.34
352.77        2188.374
353.22        2198.044
353.67        2210.516
354.13        2225.124
354.58        2239.745
355.03        2251.082
355.48         2258.56
355.93        2263.271
356.38        2267.725
356.83        2276.016
357.28        2289.002
357.73        2305.111
358.18        2322.191
358.63        2336.839
359.08        2347.888
359.53        2356.325
359.98        2362.729
360.43        2368.047
360.88        2372.876
361.33        2376.985
361.78        2380.954
362.23        2385.797
362.68        2391.753
363.13        2398.741
363.58        2406.283
364.03        2413.381
364.48        2419.687
364.93        2425.394
365.38        2430.439
365.83        2434.834
366.28        2438.493
366.73        2441.018
367.18        2442.565
367.63        2443.596
368.08        2443.944
368.53        2443.254
368.98         2440.64
369.43        2434.763
369.88        2425.486
370.33        2413.569
370.78        2400.224
371.23        2387.181
371.68        2375.581
372.13         2365.99
372.58        2358.531
373.03        2353.116
373.48        2349.856
373.93        2348.706
374.38        2351.167
374.83        2359.281
375.28        2373.147
375.72        2392.418
376.17        2413.035
376.62        2428.633
377.07        2438.099
377.52         2442.73
377.97        2448.696
378.42        2466.265
378.87        2496.707
379.32        2535.763
379.77        2574.913
380.22        2600.724
380.67        2609.943
381.11        2607.051
381.56        2598.321
382.01        2594.083
382.46        2597.768
382.91        2606.348
383.36        2618.758
383.81         2632.77
384.26        2648.066
384.71        2667.861
385.15         2690.04
385.60        2710.507
386.05        2729.129
386.50        2745.589
386.95        2768.069
387.40        2810.175
387.85        2872.801
388.29        2951.195
388.74        3030.355
389.19        3085.542
389.64         3113.41
390.09        3124.671
390.54        3134.763
390.98        3168.902
391.43        3232.515
391.88        3313.291
392.33        3407.702
392.78        3504.704
393.23        3594.712
393.67        3693.791
394.12        3785.032
394.57        3782.925
395.02        3755.847
395.47        3724.208
395.91        3721.582
396.36        3727.106
396.81        3747.809
397.26        3802.119
397.71        3887.852
398.15        3982.977
398.60        4077.238
399.05        4185.804
399.50        4282.395
399.95        4297.601
400.39        4241.456
400.84        4186.907
401.29        4151.475
401.74        4123.589
402.18        4103.419
402.63        4079.467
403.08        4055.318
403.53        4056.623
403.97        4080.606
404.42        4103.188
404.87        4122.284
405.32        4142.525
405.76         4161.19
406.21        4186.491
406.66        4202.996
407.11        4168.601
407.55        4095.692
408.00        4031.647
408.45        3997.149
408.90        4010.523
409.34        4058.706
409.79        4083.772
410.24        4074.485
410.68        4068.198
411.13        4061.885
411.58        4020.844
412.03        3963.396
412.47        3941.399
412.92        3961.863
413.37        4007.456
413.81         4057.15
414.26        4078.405
414.71        4062.476
415.15        4020.465
415.60        3968.573
416.05         3932.06
416.49         3918.59
416.94         3921.09
417.39        3930.752
417.83        3932.287
418.28        3924.066
418.73        3916.772
419.17          3916.1
419.62        3929.457
420.07        3957.494
420.51        3991.936
420.96         4039.07
421.41        4102.827
421.85        4178.099
422.30        4282.325
422.74        4381.375
423.19        4371.712
423.64        4267.953
424.08        4197.105
424.53        4179.565
424.98        4141.633
425.42        4088.443
425.87         4100.56
426.31        4153.505
426.76        4117.459
427.21        4016.304
427.65         4006.28
428.10        4083.521
428.54        4143.001
428.99        4179.909
429.44        4205.314
429.88        4240.375
430.33        4379.313
430.77        4573.178
431.22        4627.258
431.66        4526.155
432.11        4403.731
432.56        4289.632
433.00        4156.653
433.45        4068.341
433.89        4098.688
434.34        4184.583
434.78        4463.834
435.23        4364.954
435.67        4287.804
436.12        4266.372
436.57        4259.761
437.01        4305.106
437.46        4326.632
437.90        4305.229
438.35        4266.347
438.79        4344.181
439.24        4362.043
439.68        4355.875
440.13        4344.417
440.57        4353.205
441.02         4380.51
441.46        4439.303
441.91         4620.79
442.35        4862.006
442.80        4906.942
443.24        4783.769
443.69        4786.672
444.13        4918.413
444.58        4962.921
445.02        4920.416
445.47        4919.974
445.91        4966.225
446.36        5001.929
446.80        5024.905
447.24        5058.264
447.69        5096.535
448.13        5115.876
448.58        5121.378
449.02        5142.508
449.47        5179.277
449.91        5208.084
450.36        5227.964
450.80        5253.655
451.25        5283.648
451.69        5305.825
452.13        5321.136
452.58        5338.736
453.02        5357.009
453.47        5372.019
453.91         5384.22
454.36        5388.836
454.80        5398.735
455.24        5440.792
455.69        5508.377
456.13        5587.219
456.58        5663.626
457.02        5685.253
457.46        5684.255
457.91        5763.568
458.35        5893.902
458.79        5996.153
459.24         6055.41
459.68        6120.175
460.13        6185.082
460.57        6242.798
461.01         6267.54
461.46        6260.777
461.90        6259.884
462.34        6253.382
462.79        6149.197
463.23        6123.959
463.68        6158.009
464.12         6240.94
464.56        6361.855
465.01        6495.297
465.45        6625.938
465.89        6748.486
466.34        6828.315
466.78        6836.872
467.22        6799.577
467.67        6610.341
468.11        6596.794
468.55        6574.257
468.99        6610.601
469.44        6600.677
469.88        6540.719
470.32        6494.654
470.77        6473.272
471.21        6469.672
471.65        6486.385
472.10        6523.644
472.54        6579.177
472.98        6642.512
473.42        6706.513
473.87        6790.584
474.31        6882.706
474.75        6910.674
475.20        6895.252
475.64        6966.827
476.08        7107.192
476.52        7154.951
476.97         7095.92
477.41        7088.561
477.85        7085.437
478.29        7027.262
478.74        7105.069
479.18         7224.03
479.62        7190.679
480.06        7249.237
480.50        7313.869
480.95        7401.963
481.39        7506.531
481.83        7442.466
482.27        7442.519
482.72        7503.391
483.16        7460.998
483.60        7457.258
484.04        7439.186
484.48        7476.913
484.93         7544.99
485.37        7628.903
485.81        7830.571
486.25         8135.06
486.69        11563.01
487.14        12261.75
487.58        8740.475
488.02        7929.902
488.46        7840.178
488.90        7557.252
489.34        7406.932
489.79        7410.943
490.23        7417.125
490.67        7454.798
491.11        7440.399
491.55        7423.066
491.99        7399.607
492.43        7356.828
492.88        7310.412
493.32        7300.355
493.76        7320.445
494.20        7315.016
494.64        7275.534
495.08        7252.109
495.52        7250.235
495.96         7194.37
496.41        7112.482
496.85        7179.429
497.29         7342.17
497.73        7312.921
498.17        7128.159
498.61        7039.629
499.05        7072.127
499.49         7099.46
499.93        7100.331
500.37        7097.338
500.82        7094.207
501.26        7076.991
501.70        7042.297
502.14        7137.276
502.58        7096.283
503.02        7092.034
503.46        7075.953
503.90        7045.052
504.34        7012.292
504.78        6976.724
505.22        6945.746
505.66        6930.806
506.10        6928.629
506.54        6914.723
506.98        6885.094
507.42        6881.412
507.86         6849.61
508.30        6833.303
508.74        6816.867
509.18        6801.453
509.62        6787.542
510.06        6777.511
510.50        6771.753
510.94        6768.591
511.38        6766.172
511.82        6761.438
512.26        6753.618
512.70        6743.615
513.14        6731.352
513.58        6719.529
514.02        6709.313
514.46        6695.368
514.90        6678.899
515.34        6686.138
515.78        6678.779
516.22        6688.013
516.66        6697.538
517.10        6700.543
517.54        6695.431
517.98        6684.339
518.42        6675.217
518.86        6679.928
519.30        6700.443
519.74        6732.513
520.18        6765.787
520.62        6783.824
521.06        6783.103
521.50        6769.196
521.93         6752.08
522.37        6747.761
522.81        6760.702
523.25        6785.998
523.69         6817.33
524.13        6844.456
524.57        6864.278
525.01        6880.584
525.45         6896.27
525.89        6915.489
526.32        6939.794
526.76        6967.206
527.20        6996.958
527.64        7028.676
528.08        7061.292
528.52        7094.013
528.96        7126.488
529.40        7157.884
529.83        7188.072
530.27        7218.493
530.71         7246.88
531.15        7269.444
531.59        7287.333
532.03        7302.817
532.46        7324.255
532.90        7365.048
533.34        7426.257
533.78        7501.122
534.22        7579.437
534.66        7644.855
535.09          7692.2
535.53        7726.927
535.97        7750.075
536.41        7764.135
536.85        7772.937
537.28        7776.064
537.72        7784.571
538.16        7816.994
538.60        7875.395
539.04        7952.963
539.47        8035.035
539.91         8098.48
540.35        8137.528
540.79        8158.865
541.22        8173.628
541.66        8201.311
542.10         8246.97
542.54        8302.377
542.97        8363.865
543.41        8425.938
543.85        8485.302
544.29        8545.439
544.72        8599.579
545.16        8635.891
545.60        8654.826
546.04        8660.724
546.47        8669.068
546.91        8706.431
547.35        8777.775
547.79        8868.881
548.22        8962.761
548.66        9044.704
549.10        9099.153
549.53        9102.471
549.97        9069.149
550.41        9054.169
550.84        9067.643
551.28        9082.716
551.72        9105.181
552.15        9153.365
552.59        9227.567
553.03        9325.851
553.46        9428.514
553.90        9502.986
554.34        9541.792
554.77        9548.908
555.21        9552.587
555.65        9597.792
556.08        9699.801
556.52        9826.591
556.96        9949.879
557.39        10011.43
557.83        10014.58
558.27        10021.19
558.70        10051.68
559.14        10101.71
559.57        10179.31
560.01        10285.27
560.45        10414.18
560.88        10563.05
561.32        10708.86
561.75        10822.45
562.19        10898.57
562.63        10928.63
563.06        10941.52
563.50        11023.34
563.93        11165.81
564.37        11269.45
564.80        11328.75
565.24        11406.63
565.68        11501.84
566.11        11584.37
566.55        11657.58
566.98        11727.62
567.42        11809.36
567.85         11943.3
568.29        12122.85
568.72        12306.03
569.16        12511.73
569.60        12733.98
570.03        12939.09
570.47        13300.42
570.90        13645.87
571.34        13585.53
571.77        13832.25
572.21        14081.31
572.64        14217.46
573.08        14202.54
573.51        13784.97
573.95        14054.59
574.38        14848.71
574.82        15030.31
