SpectraSmart Spectrum 2.9.0.0
--------- Device Information -----------
Spectrum Name :  光譜_0
Saving Time :  2024/05/03 19:50:36
Spectro-Module Model Name : SE2030-DUVN
Spectro-Module Serial Number : OS361AC55029948
Wavelength Start : 200
Wavelength End : 1025
Wavelength Unit : Wavelength(nm)
Spectrum Unit : Intensity(Counts)
-----------Spectrum Setting ------------
Integration Time : 1ms
Average : 1
Boxcar : 0
Background removal :  enabled
linearity correction :  enabled
SC :  disabled
Intensity correction :  disabled
DWT denoise :  enabled
savitzky-golay :  disabled
FFT :  disabled
Running average :  disabled
Kalman :  disabled
High pass :  disabled
---------------BEGIN--------------------
Wavelength(nm)          Intensity(Counts)
200.29       -40.28249
200.75       -38.06411
201.21       -33.90007
201.67       -28.54846
202.13       -23.09009
202.58       -18.22821
203.04       -13.67526
203.50       -10.56695
203.96       -10.65672
204.42       -14.10078
204.88       -20.50595
205.34       -27.57613
205.80           -31.6
206.26       -31.55109
206.72        -27.9384
207.18       -23.25431
207.64       -21.69745
208.10       -24.12243
208.55       -29.38926
209.01       -34.10209
209.47       -32.86618
209.93       -24.82194
210.39       -11.97098
210.85        1.087241
211.31          7.1755
211.77        4.621427
212.23       -4.410079
212.69       -15.54758
213.14       -21.71637
213.60       -21.10941
214.06       -15.97529
214.52       -9.779964
214.98       -8.038628
215.44       -12.18231
215.90       -20.14561
216.36        -29.3318
216.81       -35.87558
217.27       -38.41394
217.73       -37.90785
218.19       -35.75069
218.65        -34.0881
219.11       -33.51781
219.57       -33.40725
220.02        -32.2239
220.48       -27.69083
220.94       -19.60978
221.40       -9.039792
221.86        1.317083
222.32        7.394895
222.77        8.276153
223.23        5.044865
223.69       0.5996219
224.15      -0.3098752
224.61        3.421859
225.06        10.36808
225.52        17.83597
225.98        21.42279
226.44        20.25737
226.90        16.24848
227.36        11.81945
227.81        10.63966
228.27         13.9008
228.73        20.41782
229.19        29.27075
229.65        39.02325
230.10        48.82993
230.56        58.83788
231.02        68.43909
231.48        76.72279
231.93        83.27086
232.39        87.78836
232.85        90.52296
233.31        92.16406
233.77        93.00535
234.22        93.14993
234.68        92.26077
235.14        89.76739
235.60        85.68968
236.05        80.19611
236.51        74.58028
236.97        70.79557
237.43        69.07138
237.88        68.86331
238.34         67.8968
238.80        62.51658
239.26        52.14347
239.71        38.09128
240.17        23.34463
240.63        12.64277
241.08        7.278307
241.54        6.046785
242.00        6.649531
242.46        5.255277
242.91       0.9075722
243.37       -5.061939
243.83       -10.81699
244.28       -13.49874
244.74       -12.44255
245.20       -8.870928
245.66       -4.188395
246.11      -0.4886286
246.57        1.556179
247.03        2.663338
247.48        3.292805
247.94        4.176297
248.40         5.57892
248.85        7.002778
249.31        8.661592
249.77        11.05339
250.22        14.05066
250.68        17.48086
251.14        20.41992
251.59        21.29665
252.05        20.01503
252.51        17.45507
252.96        14.81801
253.42        13.96599
253.88        15.70488
254.33        19.74641
254.79        26.30038
255.25        35.53824
255.70        47.25598
256.16        61.42505
256.62        77.15414
257.07        92.85886
257.53         108.331
257.99        124.2219
258.44        141.3188
258.90        161.0067
259.35        183.6954
259.81        208.6531
260.27        236.1191
260.72        266.5331
261.18        299.3502
261.63        334.0293
262.09        368.3797
262.55        398.9358
263.00        425.0834
263.46        447.9047
263.91        469.4067
264.37        493.1302
264.83        519.8076
265.28        547.6591
265.74        575.9426
266.19         603.499
266.65        629.3392
267.11        653.8486
267.56        674.4353
268.02        687.0499
268.47        691.4358
268.93        688.7961
269.38        684.2252
269.84         686.048
270.30        696.1418
270.75         712.482
271.21        730.1311
271.66        740.5707
272.12        742.4246
272.57        739.6931
273.03        736.9594
273.48        741.3708
273.94        755.0913
274.39        775.1188
274.85        801.0498
275.31        832.2625
275.76        867.2672
276.22         906.392
276.67        944.4197
277.13        972.8676
277.58        990.8521
278.04         1000.98
278.49        1011.552
278.95        1036.318
279.40        1078.162
279.86        1132.414
280.31        1191.417
280.77        1242.741
281.22        1282.365
281.68        1313.681
282.13        1339.919
282.59        1366.394
283.04        1395.295
283.50        1425.011
283.95         1455.12
284.41        1485.374
284.86        1515.656
285.32        1546.514
285.77        1578.821
286.22          1613.3
286.68        1649.838
287.13        1688.149
287.59        1725.613
288.04        1758.306
288.50        1785.468
288.95        1807.798
289.41        1829.315
289.86        1856.581
290.32        1890.783
290.77        1929.952
291.22        1968.438
291.68        1997.315
292.13        2014.454
292.59        2022.111
293.04        2026.483
293.50         2037.61
293.95        2057.719
294.40         2083.91
294.86        2109.476
295.31        2123.562
295.77         2124.43
296.22        2116.788
296.68        2108.231
297.13        2110.546
297.58        2126.851
298.04        2153.103
298.49        2184.945
298.95        2215.239
299.40        2241.486
299.85        2266.465
300.31        2289.987
300.76        2311.604
301.21        2332.189
301.67        2351.414
302.12        2373.569
302.58        2405.911
303.03        2449.463
303.48        2502.172
303.94        2557.776
304.39         2605.82
304.84        2643.869
305.30        2674.988
305.75        2704.373
306.20        2740.788
306.66        2786.105
307.11        2836.273
307.57        2887.747
308.02        2935.296
308.47         2976.53
308.93        3012.965
309.38        3043.491
309.83        3066.269
310.29        3082.014
310.74        3091.813
311.19        3099.798
311.65        3112.652
312.10        3132.284
312.55        3157.318
313.00        3184.944
313.46        3210.237
313.91         3231.06
314.36        3247.773
314.82        3261.067
315.27        3272.307
315.72        3281.587
316.18        3288.219
316.63        3289.969
317.08        3283.732
317.53         3269.65
317.99        3249.457
318.44        3228.102
318.89        3213.128
319.35        3206.261
319.80        3205.533
320.25        3206.135
320.70        3199.979
321.16        3185.064
321.61        3163.986
322.06        3140.367
322.51        3120.104
322.97        3104.713
323.42        3091.665
323.87        3078.863
324.32         3063.33
324.78        3043.606
325.23        3020.395
325.68        2993.367
326.13        2961.898
326.59         2926.32
327.04        2887.181
327.49        2845.628
327.94         2803.56
328.39        2762.067
328.85        2721.386
329.30        2682.365
329.75        2645.943
330.20        2612.086
330.66        2580.404
331.11         2549.59
331.56        2517.477
332.01         2483.34
332.46         2447.62
332.92        2410.831
333.37         2373.95
333.82        2337.709
334.27        2302.403
334.72        2268.647
335.17        2237.263
335.63        2208.768
336.08        2183.395
336.53         2161.63
336.98        2143.923
337.43        2130.105
337.88        2119.755
338.34        2111.592
338.79        2103.732
339.24        2095.388
339.69        2086.475
340.14         2077.72
340.59        2070.538
341.05        2065.301
341.50        2061.849
341.95        2058.989
342.40        2054.777
342.85        2049.218
343.30        2043.284
343.75        2039.534
344.20        2041.911
344.66        2050.998
345.11        2065.152
345.56        2081.388
346.01        2094.987
346.46        2104.397
346.91        2110.682
347.36         2115.03
347.81        2119.644
348.26        2125.236
348.72        2130.857
349.17        2136.471
349.62        2142.142
350.07         2147.89
350.52        2154.331
350.97        2160.928
351.42        2166.427
351.87        2171.035
352.32        2175.493
352.77        2181.455
353.22        2191.607
353.67        2206.182
354.13        2223.551
354.58        2242.124
355.03         2259.53
355.48        2274.419
355.93        2287.062
356.38        2296.214
356.83        2300.069
357.28        2299.065
357.73        2294.489
358.18        2289.343
358.63         2288.42
359.08        2293.196
359.53        2302.534
359.98         2315.48
360.43        2330.019
360.88         2345.03
361.33        2360.967
361.78        2376.006
362.23        2387.424
362.68         2394.58
363.13        2397.381
363.58         2398.74
364.03        2403.682
364.48        2413.235
364.93        2426.354
365.38        2438.605
365.83        2442.859
366.28        2437.715
366.73        2425.103
367.18        2411.198
367.63        2405.793
368.08        2410.859
368.53        2423.482
368.98        2435.905
369.43        2435.857
369.88        2420.636
370.33        2393.986
370.78        2364.673
371.23        2346.515
371.68        2343.175
372.13        2351.267
372.58        2362.375
373.03        2362.943
373.48        2350.183
373.93        2328.758
374.38        2308.843
374.83        2306.047
375.28        2324.103
375.72        2358.518
376.17        2398.299
376.62        2426.155
377.07        2437.663
377.52        2436.996
377.97        2435.518
378.42        2451.619
378.87         2488.47
379.32        2539.142
379.77        2589.189
380.22        2616.167
380.67         2615.25
381.11        2594.243
381.56        2567.158
382.01        2556.295
382.46        2567.763
382.91        2594.809
383.36        2628.475
383.81        2653.898
384.26        2667.552
384.71        2676.504
385.15        2685.381
385.60        2700.835
386.05        2725.552
386.50        2755.644
386.95         2793.72
387.40         2844.91
387.85        2907.689
388.29        2979.646
388.74        3050.448
389.19        3102.985
389.64         3135.61
390.09         3155.89
390.54        3174.231
390.98        3210.457
391.43        3269.764
391.88        3336.133
392.33        3409.837
392.78        3508.808
393.23        3619.269
393.67        3700.946
394.12        3745.101
394.57        3770.921
395.02        3780.956
395.47        3764.615
395.91        3738.025
396.36        3737.614
396.81        3770.954
397.26        3825.147
397.71        3902.093
398.15        3996.408
398.60        4097.965
399.05        4225.568
399.50        4345.627
399.95        4352.646
400.39         4263.81
400.84        4213.084
401.29        4210.807
401.74        4173.928
402.18        4110.986
402.63        4079.394
403.08        4076.357
403.53        4099.487
403.97        4086.425
404.42        4093.018
404.87        4104.689
405.32        4125.638
405.76        4153.989
406.21        4186.388
406.66        4209.106
407.11        4201.986
407.55        4162.531
408.00        4096.201
408.45        4027.304
408.90        3994.649
409.34        4007.231
409.79        4056.218
410.24        4113.557
410.68        4133.253
411.13        4105.035
411.58        4042.026
412.03        3975.838
412.47        3956.989
412.92        3995.852
413.37         4075.12
413.81        4159.473
414.26        4193.653
414.71        4164.445
415.15        4089.286
415.60        4000.935
416.05        3951.663
416.49        3954.803
416.94        3993.986
417.39        4043.464
417.83        4061.448
418.28        4039.566
418.73        3997.271
419.17        3954.717
419.62        3942.075
420.07        3968.278
420.51        4019.357
420.96         4091.23
421.41        4178.293
421.85        4271.651
422.30        4370.925
422.74        4454.655
423.19        4485.458
423.64        4458.482
424.08        4390.754
424.53        4306.158
424.98        4233.451
425.42         4184.75
425.87        4170.512
426.31         4174.46
426.76        4140.167
427.21        4077.795
427.65         4057.47
428.10        4085.964
428.54        4134.123
428.99        4198.669
429.44        4266.215
429.88        4339.896
430.33        4459.731
430.77        4594.564
431.22        4652.736
431.66         4614.56
432.11        4517.563
432.56         4391.02
433.00        4245.026
433.45        4143.173
433.89        4142.746
434.34        4377.438
434.78        4450.292
435.23        4366.473
435.67        4367.207
436.12        4438.445
436.57        4431.809
437.01        4359.216
437.46        4325.319
437.90        4342.301
438.35         4380.47
438.79        4424.483
439.24        4456.592
439.68        4468.528
440.13        4458.258
440.57        4452.635
441.02        4498.655
441.46        4601.116
441.91        4748.565
442.35        4902.925
442.80        4982.252
443.24         4984.82
443.69        4984.914
444.13        5000.485
444.58        5009.766
445.02        5021.422
445.47        5058.643
445.91        5111.493
446.36        5148.182
446.80        5163.927
447.24        5170.959
447.69        5176.833
448.13        5191.542
448.58        5218.229
449.02        5251.886
449.47         5288.31
449.91        5322.364
450.36        5351.585
450.80        5377.042
451.25          5399.9
451.69        5421.797
452.13         5443.57
452.58         5465.35
453.02        5485.858
453.47        5502.927
453.91        5516.823
454.36        5530.293
454.80         5550.25
455.24        5578.035
455.69          5614.1
456.13        5677.481
456.58        5764.312
457.02        5790.344
457.46        5849.343
457.91        5924.102
458.35        6036.085
458.79        6119.297
459.24        6177.302
459.68        6271.552
460.13          6386.4
460.57        6450.463
461.01        6458.802
461.46        6450.419
461.90        6433.378
462.34        6408.281
462.79        6385.978
463.23        6369.767
463.68        6378.327
464.12        6445.242
464.56        6570.992
465.01        6724.446
465.45        6874.493
465.89        7005.669
466.34        7083.871
466.78        7046.641
467.22        6925.427
467.67        6829.896
468.11        6788.024
468.55         6778.61
468.99        6785.479
469.44        6771.346
469.88         6730.93
470.32        6693.874
470.77        6670.727
471.21        6663.453
471.65         6676.57
472.10        6709.526
472.54        6759.139
472.98        6821.384
473.42        6892.072
473.87        6966.778
474.31         7044.95
474.75        7127.211
475.20         7209.47
475.64        7289.247
476.08          7356.7
476.52        7383.984
476.97        7368.318
477.41        7342.951
477.85        7336.645
478.29        7254.407
478.74        7352.394
479.18        7367.862
479.62        7381.789
480.06        7432.198
480.50        7518.036
480.95        7617.791
481.39        7707.648
481.83        7747.839
482.27        7735.352
482.72        7720.699
483.16        7724.766
483.60        7692.238
484.04        7635.999
484.48        7704.673
484.93        7871.132
485.37        7794.731
485.81        7981.643
486.25        8340.246
486.69        11623.94
487.14        12503.41
487.58        9190.368
488.02        8257.925
488.46         8037.71
488.90         7940.93
489.34        7643.169
489.79        7552.291
490.23        7624.412
490.67        7635.465
491.11        7595.772
491.55        7572.436
491.99        7568.053
492.43        7537.209
492.88        7491.039
493.32        7480.419
493.76        7498.476
494.20        7497.172
494.64        7471.993
495.08        7445.802
495.52        7426.807
495.96        7413.647
496.41        7407.056
496.85        7419.218
497.29        7432.515
497.73        7394.462
498.17        7317.771
498.61        7264.404
499.05         7246.95
499.49        7258.765
499.93        7286.776
500.37        7287.955
500.82        7265.946
501.26        7272.095
501.70        7305.343
502.14        7328.242
502.58        7331.619
503.02        7320.857
503.46        7294.863
503.90        7252.145
504.34        7203.241
504.78        7165.858
505.22        7144.601
505.66        7137.501
506.10         7141.43
506.54        7133.746
506.98         7107.73
507.42        7097.996
507.86        7116.166
508.30        7021.878
508.74        7068.542
509.18        7052.119
509.62        7042.543
510.06        7026.439
510.50        7004.453
510.94        6976.625
511.38        6948.339
511.82        6934.829
512.26        6937.815
512.70        6952.805
513.14        6970.422
513.58        6975.308
514.02         6964.15
514.46        6942.593
514.90        6918.333
515.34        6903.845
515.78        6902.711
516.22        6909.981
516.66        6923.108
517.10        6938.319
517.54        6952.844
517.98        6967.702
518.42        6978.658
518.86        6978.625
519.30        6967.367
519.74        6947.728
520.18        6926.878
520.62        6916.667
521.06        6920.646
521.50        6935.934
521.93        6959.188
522.37        6984.306
522.81         7008.64
523.25        7033.653
523.69        7058.234
524.13        7080.746
524.57        7100.748
525.01        7117.447
525.45        7132.887
525.89        7150.969
526.32        7172.913
526.76        7198.674
527.20        7225.218
527.64        7247.709
528.08        7264.972
528.52        7277.447
528.96        7291.474
529.40        7316.664
529.83        7355.125
530.27        7406.141
530.71        7458.061
531.15         7491.97
531.59        7505.584
532.03        7504.281
532.46        7507.966
532.90        7549.508
533.34        7632.458
533.78        7741.881
534.22        7852.791
534.66        7925.691
535.09        7952.166
535.53        7948.168
535.97        7925.974
536.41        7912.658
536.85         7920.17
537.28          7919.8
537.72        7926.747
538.16        8015.629
538.60        8161.985
539.04        8245.671
539.47        8262.016
539.91        8303.063
540.35        8368.678
540.79        8397.321
541.22        8400.009
541.66        8423.812
542.10        8473.307
542.54        8545.467
542.97        8628.106
543.41         8672.79
543.85        8688.208
544.29        8747.745
544.72        8840.573
545.16        8891.654
545.60        8898.387
546.04          8899.4
546.47        8914.503
546.91        8960.741
547.35        9041.777
547.79        9145.544
548.22        9246.142
548.66        9311.881
549.10        9329.505
549.53        9292.038
549.97        9226.625
550.41        9198.237
550.84        9221.564
551.28        9269.865
551.72        9338.346
552.15        9424.276
552.59        9520.406
553.03        9630.038
553.46        9736.568
553.90        9807.709
554.34        9840.756
554.77         9851.72
555.21        9860.525
555.65        9891.349
556.08        9951.848
556.52        10040.81
556.96        10138.76
557.39        10204.92
557.83        10233.82
558.27        10253.57
558.70        10282.27
559.14        10324.67
559.57        10396.52
560.01        10530.35
560.45        10705.59
560.88        10850.33
561.32        10953.59
561.75        11049.19
562.19        11133.59
562.63        11203.48
563.06        11265.08
563.50        11283.29
563.93        11289.04
564.37        11416.31
564.80        11632.66
565.24        11740.13
565.68        11744.78
566.11        11810.87
566.55        11944.41
566.98        12062.26
567.42        12168.26
567.85        12258.62
568.29        12428.14
568.72        12597.83
569.16        12804.33
569.60        13046.35
570.03        13302.01
570.47        13595.44
570.90        13911.55
571.34        14048.99
571.77        14099.13
572.21        14411.96
572.64        14571.21
573.08        14581.33
573.51        14014.62
573.95         14337.1
574.38        15259.53
574.82         15594.3
