SpectraSmart Spectrum 2.9.0.0
--------- Device Information -----------
Spectrum Name :  光譜_0
Saving Time :  2024/04/27 19:44:31
Spectro-Module Model Name : SE2030-DUVN
Spectro-Module Serial Number : OS361AC55029948
Wavelength Start : 200
Wavelength End : 1025
Wavelength Unit : Wavelength(nm)
Spectrum Unit : Intensity(Counts)
-----------Spectrum Setting ------------
Integration Time : 20ms
Average : 1
Boxcar : 0
Background removal :  enabled
linearity correction :  enabled
SC :  disabled
Intensity correction :  disabled
DWT denoise :  enabled
savitzky-golay :  disabled
FFT :  disabled
Running average :  disabled
Kalman :  disabled
High pass :  disabled
---------------BEGIN--------------------
Wavelength(nm)          Intensity(Counts)
200.29       -26.16374
200.75       -27.45629
201.21       -30.88827
201.67       -34.93062
202.13       -37.12512
202.58        -36.8402
203.04       -34.72437
203.50       -32.44226
203.96       -32.56311
204.42       -35.69924
204.88       -41.17841
205.34       -46.77809
205.80       -49.11354
206.26       -47.31568
206.72       -41.93938
207.18        -36.0014
207.64       -34.32627
208.10       -37.77653
208.55       -45.11562
209.01       -51.69818
209.47       -50.08159
209.93       -39.18717
210.39       -21.77625
210.85       -4.309508
211.31        3.007267
211.77       -2.102583
212.23       -16.30518
212.69       -33.64545
213.14       -44.49326
213.60       -46.15867
214.06       -41.63927
214.52       -34.57027
214.98       -30.85518
215.44       -32.22006
215.90       -36.25948
216.36       -41.42516
216.81       -45.57825
217.27       -47.76571
217.73       -49.00254
218.19        -48.9545
218.65       -46.74375
219.11       -42.65485
219.57       -37.13539
220.02       -31.65296
220.48         -28.709
220.94       -28.90067
221.40       -31.42168
221.86       -35.54802
222.32       -39.93436
222.77       -43.90514
223.23        -47.8557
223.69       -50.85047
224.15       -51.44099
224.61       -49.60585
225.06        -45.6778
225.52       -41.69443
225.98       -41.09509
226.44       -44.45921
226.90       -50.57215
227.36       -57.15084
227.81       -60.47695
228.27       -59.49382
228.73       -55.37476
229.19       -49.41739
229.65       -43.68483
230.10       -39.16404
230.56       -35.56736
231.02       -32.89305
231.48       -31.15362
231.93       -30.26633
232.39       -30.19997
232.85       -31.31138
233.31       -33.92927
233.77       -37.87952
234.22       -43.01721
234.68       -47.52344
235.14       -48.69923
235.60       -46.07638
236.05       -40.14586
236.51        -33.9976
236.97       -32.62446
237.43       -37.02122
237.88       -45.95781
238.34       -55.18737
238.80       -57.84666
239.26       -52.56091
239.71       -41.38573
240.17       -29.49778
240.63       -25.18157
241.08       -30.17703
241.54        -41.7354
242.00       -54.37245
242.46       -59.37283
242.91       -54.63754
243.37       -43.05589
243.83        -29.3224
244.28       -20.90006
244.74       -19.83314
245.20       -23.67574
245.66       -29.32563
246.11       -31.86022
246.57       -29.96173
247.03        -25.6657
247.48        -20.6961
247.94       -17.57417
248.40       -17.11138
248.85       -18.04251
249.31       -20.11837
249.77       -23.19019
250.22       -26.74789
250.68       -30.79399
251.14        -33.8811
251.59       -33.65165
252.05       -29.74689
252.51       -22.83284
252.96       -14.92314
253.42       -9.331528
253.88       -7.050829
254.33       -7.455281
254.79       -9.042481
255.25       -9.233618
255.70       -7.406432
256.16       -4.372067
256.62       -1.657349
257.07       -1.633409
257.53       -4.685044
257.99       -9.771521
258.44       -14.99789
258.90       -17.51547
259.35       -16.58285
259.81       -13.05195
260.27       -8.525004
260.72       -5.549621
261.18       -4.924942
261.63       -6.066476
262.09       -7.832311
262.55       -8.373151
263.00        -7.27737
263.46       -5.174946
263.91       -3.389885
264.37       -3.945484
264.83       -7.139192
265.28       -12.11471
265.74       -17.15244
266.19       -19.59239
266.65       -18.83364
267.11       -15.79044
267.56       -11.91353
268.02       -9.553393
268.47       -9.383246
268.93       -10.58793
269.38       -12.48022
269.84       -13.97525
270.30       -14.60281
270.75        -14.7495
271.21       -14.25931
271.66       -12.79981
272.12       -10.48792
272.57       -7.495291
273.03       -4.436779
273.48       -2.344118
273.94       -1.534879
274.39       -1.776162
274.85       -2.770587
275.31       -4.002812
275.76        -5.09537
276.22       -5.903824
276.67       -6.257684
277.13       -5.931766
277.58       -4.864927
278.04       -3.234529
278.49      -0.7833747
278.95        2.866707
279.40        7.414784
279.86        12.39209
280.31        16.37913
280.77        17.26571
281.22        14.61327
281.68        9.036454
282.13        2.037392
282.59       -3.923889
283.04       -7.965356
283.50       -10.38655
283.95       -11.93926
284.41       -14.03599
284.86       -16.87526
285.32        -19.7656
285.77       -21.67462
286.22       -21.08238
286.68         -17.848
287.13         -12.887
287.59       -7.417667
288.04       -3.226477
288.50      -0.9904984
288.95      -0.3145196
289.41       -1.016555
289.86       -2.692183
290.32       -4.992124
290.77       -7.927773
291.22       -10.84796
291.68       -12.75054
292.13        -13.2937
292.59       -12.44828
293.04        -10.8102
293.50       -9.465972
293.95       -8.795377
294.40       -8.805519
294.86        -8.77961
295.31       -7.515097
295.77       -4.928419
296.22        -1.42391
296.68        1.322468
297.13       0.7148034
297.58       -3.566317
298.04       -10.57275
298.49       -17.77254
298.95       -21.14364
299.40        -19.8056
299.85       -15.04481
300.31       -9.304846
300.76       -6.526689
301.21       -7.853835
301.67       -12.15388
302.12       -17.78183
302.58       -22.13218
303.03       -24.29456
303.48       -24.87013
303.94        -24.9009
304.39       -25.96093
304.84        -28.4042
305.30       -31.75029
305.75       -34.39839
306.20       -33.97617
306.66       -30.14707
307.11       -23.65017
307.57       -17.15223
308.02       -14.85063
308.47       -17.48609
308.93       -23.74112
309.38       -30.24317
309.83       -31.52584
310.29       -26.48593
310.74       -17.08313
311.19       -6.591135
311.65      -0.2675215
312.10       0.4926966
312.55       -2.453931
313.00       -7.205733
313.46       -10.73122
313.91       -11.90577
314.36       -11.80806
314.82         -10.443
315.27       -7.732003
315.72       -4.022027
316.18       0.7813584
316.63        5.333705
317.08        7.333491
317.53        6.304551
317.99        2.709409
318.44       -1.870762
318.89       -4.703412
319.35       -5.112495
319.80       -3.829998
320.25       -2.185981
320.70       -2.434687
321.16       -4.963884
321.61       -8.695365
322.06       -12.49486
322.51       -14.60237
322.97       -14.60579
323.42       -13.48804
323.87       -11.40364
324.32       -8.557453
324.78       -5.344491
325.23         -1.5133
325.68        1.199102
326.13     0.009162709
326.59       -5.258655
327.04        -13.7445
327.49        -21.9699
327.94       -24.31736
328.39       -19.68456
328.85       -9.777722
329.30        1.456196
329.75        7.587782
330.20        6.955782
330.66        1.419746
331.11       -5.878073
331.56       -9.796915
332.01       -8.998037
332.46       -5.268672
332.92      -0.8261372
333.37       0.8583577
333.82       -1.056631
334.27       -4.991266
334.72       -9.568926
335.17        -12.8033
335.63       -13.98025
336.08       -13.96377
336.53       -12.78069
336.98       -10.34428
337.43       -7.060997
337.88       -3.069564
338.34       0.3008387
338.79       0.8836204
339.24       -1.687312
339.69       -6.736551
340.14       -12.74765
340.59       -17.19179
341.05       -19.22969
341.50        -19.3827
341.95       -18.31212
342.40       -17.21739
342.85       -16.50385
343.30       -15.78326
343.75       -14.82796
344.20       -13.32048
344.66       -11.31148
345.11       -9.222311
345.56       -7.397765
346.01       -6.266191
346.46       -5.884487
346.91       -5.930947
347.36       -6.419919
347.81       -7.319636
348.26       -8.571636
348.72       -10.42261
349.17       -11.93427
349.62       -11.67403
350.07       -9.462313
350.52       -5.391205
350.97       -1.716618
351.42       -2.114441
351.87       -7.024465
352.32        -15.3107
352.77       -23.16082
353.22       -24.42898
353.67       -18.06665
354.13       -6.304685
354.58          6.3637
355.03        12.77863
355.48        11.04548
355.93         3.34882
356.38       -7.068981
356.83       -14.95105
357.28       -18.55012
357.73       -19.28766
358.18       -18.59851
358.63       -18.80392
359.08       -20.48454
359.53       -22.47573
359.98       -23.79577
360.43       -23.18312
360.88       -20.49164
361.33       -16.56582
361.78       -11.96794
362.23       -8.509129
362.68       -6.945059
363.13       -4.818026
363.58        -1.83584
364.03       -8.941036
364.48       -7.718778
364.93       -12.38819
365.38       -16.60758
365.83       -19.33221
366.28       -20.00633
366.73       -19.17984
367.18       -17.34291
367.63       -14.94716
368.08       -12.39866
368.53       -9.575707
368.98       -7.153363
369.43       -6.133902
369.88       -6.734039
370.33       -8.940359
370.78       -11.55924
371.23       -12.61273
371.68       -11.60203
372.13       -8.767642
372.58       -5.871553
373.03       -5.759604
373.48       -8.983703
373.93       -14.92231
374.38       -20.74609
374.83       -21.93686
375.28       -17.77734
375.72        -9.66034
376.17       -1.699737
376.62      -0.5136482
377.07       -7.220874
377.52       -19.34652
377.97       -32.17904
378.42       -38.17003
378.87       -35.52669
379.32       -27.00031
379.77       -15.89211
380.22       -7.512855
380.67       -3.709495
381.11       -2.685596
381.56       -4.099065
382.01       -7.434155
382.46       -11.92498
382.91       -17.88686
383.36       -23.23614
383.81        -24.4192
384.26       -20.87475
384.71       -13.49896
385.15       -5.150463
385.60      -0.6461732
386.05         -1.3018
386.50        -5.96372
386.95       -12.40609
387.40       -16.87618
387.85        -18.3688
388.29       -18.03192
388.74       -17.56759
389.19       -19.68342
389.64       -24.80411
390.09       -31.49569
390.54       -37.98169
390.98       -41.68882
391.43       -41.84667
391.88       -39.37817
392.33       -35.09707
392.78       -30.25818
393.23       -25.60233
393.67       -21.03712
394.12       -17.07345
394.57       -14.46347
395.02       -13.36266
395.47       -13.71665
395.91       -15.08399
396.36       -16.55307
396.81       -17.77224
397.26       -18.86643
397.71       -19.69526
398.15       -20.17571
398.60       -20.27658
399.05       -19.79349
399.50       -19.13855
399.95       -19.06332
400.39       -19.68218
400.84       -20.89778
401.29       -21.88899
401.74       -21.27866
402.18       -18.92742
402.63       -15.39154
403.08       -11.98081
403.53        -10.7528
403.97       -12.15865
404.42       -15.50634
404.87       -19.56811
405.32       -22.38503
405.76       -23.31561
406.21       -22.81671
406.66       -21.55141
407.11       -20.62452
407.55       -20.37767
408.00       -20.49486
408.45       -20.51936
408.90       -19.74109
409.34       -18.15008
409.79       -16.24072
410.24       -14.71281
410.68       -14.59583
411.13       -16.04457
411.58       -18.47681
412.03       -21.40999
412.47       -24.10849
412.92       -26.15983
413.37       -27.73453
413.81       -28.27247
414.26       -26.93292
414.71       -23.79435
415.15       -19.22377
415.60       -14.60485
416.05       -12.15818
416.49       -12.41979
416.94        -14.8165
417.39       -18.09467
417.83       -20.17091
418.28       -20.35682
418.73       -19.10422
419.17       -17.24439
419.62       -16.07647
420.07       -16.08081
420.51       -17.12836
420.96       -18.27732
421.41       -18.10911
421.85       -16.40429
422.30       -13.40882
422.74       -11.17508
423.19       -12.91831
423.64         -18.939
424.08       -28.08386
424.53       -36.63382
424.98       -38.73878
425.42       -33.24307
425.87       -21.97014
426.31       -9.209607
426.76       -1.853853
427.21       -1.731525
427.65       -7.006923
428.10       -14.09637
428.54       -17.13606
428.99       -14.67159
429.44       -8.622828
429.88       -2.087063
430.33      0.05010571
430.77       -3.212252
431.22       -9.807675
431.66       -16.95646
432.11       -20.39708
432.56       -19.07593
433.00       -14.81229
433.45       -9.144507
433.89        -4.41722
434.34       -1.666682
434.78     -0.04731281
435.23      -0.2343359
435.67       -3.380302
436.12       -9.165679
436.57       -17.08805
437.01       -24.75293
437.46       -28.20392
437.90        -26.6408
438.35       -21.30924
438.79       -14.41027
439.24       -9.637221
439.68       -8.239646
440.13       -9.240461
440.57       -11.94767
441.02       -15.20908
441.46       -18.28266
441.91        -21.2512
442.35       -23.69308
442.80       -24.86355
443.24       -24.53106
443.69       -22.85107
444.13       -19.63114
444.58       -14.73571
445.02       -8.647754
445.47       -1.904769
445.91        3.846294
446.36         6.15828
446.80        4.499302
447.24      -0.4467979
447.69       -7.180194
448.13       -13.14708
448.58       -17.42432
449.02       -20.46359
449.47       -22.66291
449.91        -24.8438
450.36       -27.21258
450.80       -29.23693
451.25        -30.7399
451.69         -31.648
452.13       -31.88063
452.58       -31.55323
453.02       -30.70518
453.47       -29.25536
453.91       -27.36222
454.36       -25.36846
454.80       -23.31876
455.24       -21.23168
455.69       -19.26305
456.13       -17.37956
456.58       -16.35627
457.02       -17.41329
457.46       -20.51284
457.91       -25.09973
458.35       -29.56121
458.79       -31.28014
459.24       -29.84855
459.68       -26.37935
460.13       -22.35903
460.57       -20.22372
461.01       -20.74934
461.46       -22.98459
461.90       -26.88904
462.34        -32.4019
462.79       -38.87896
463.23       -46.05995
463.68       -51.96203
464.12       -53.43752
464.56       -49.97994
465.01       -42.57852
465.45       -33.51962
465.89       -26.64729
466.34       -23.14443
466.78       -22.07171
467.22       -22.42928
467.67       -22.39241
468.11       -21.36738
468.55       -20.15514
468.99       -18.75704
469.44       -17.06837
469.88       -15.16446
470.32       -12.75556
470.77       -10.60878
471.21       -10.09729
471.65       -11.41603
472.10       -14.30899
472.54       -17.27276
472.98       -17.85554
473.42       -15.60211
473.87       -11.17554
474.31       -6.653028
474.75       -5.378129
475.20       -8.014713
475.64       -13.48637
476.08       -19.32864
476.52       -21.64379
476.97       -19.46428
477.41       -13.90742
477.85       -7.314795
478.29       -3.432577
478.74       -3.231508
479.18       -5.664531
479.62       -8.628973
480.06       -8.732494
480.50       -5.345718
480.95       0.1405378
481.39        5.492654
481.83        7.260638
482.27        4.695002
482.72      -0.7508419
483.16       -7.328756
483.60       -12.36294
484.04        -14.8276
484.48       -15.43068
484.93       -14.38675
485.37       -12.06881
485.81       -8.906195
486.25       -4.882905
486.69      -0.7181312
487.14        2.351707
487.58        3.974823
488.02        4.333959
488.46        3.764098
488.90        3.001199
489.34        2.386679
489.79        1.771051
490.23        1.439067
490.67        1.826851
491.11        2.919261
491.55        4.583438
491.99        6.299272
492.43        7.131916
492.88        6.899041
493.32        5.936697
493.76        4.385592
494.20        2.863184
494.64        1.557341
495.08      -0.4483757
495.52       -2.728619
495.96       -1.817733
496.41       -2.111029
496.85     -0.01647378
497.29         1.47524
497.73      -0.2354212
498.17       -5.476721
498.61       -13.36478
499.05       -20.84033
499.49       -23.15163
499.93       -19.33966
500.37       -10.82531
500.82       -1.171749
501.26        3.855754
501.70        2.879442
502.14       -2.395262
502.58       -8.722138
503.02       -10.81121
503.46        -7.45806
503.90      -0.6426742
504.34        6.918864
504.78        10.98522
505.22        10.41159
505.66         6.83015
506.10         1.74637
506.54       -2.543759
506.98        -5.13965
507.42       -6.855166
507.86       -7.594373
508.30       -7.132215
508.74       -5.672868
509.18        -3.12718
509.62      -0.5911514
510.06      0.03116706
510.50       -1.622252
510.94       -5.102875
511.38       -9.037101
511.82       -11.11124
512.26       -10.73739
512.70       -8.551724
513.14       -5.794127
513.58        -4.45487
514.02       -5.101406
514.46       -7.212104
514.90       -9.687685
515.34       -10.81706
515.78       -10.18314
516.22       -8.250503
516.66       -6.334542
517.10       -6.481172
517.54        -9.04215
517.98         -13.322
518.42       -17.47595
518.86       -18.63634
519.30       -16.22006
519.74       -11.16819
520.18       -5.663991
520.62       -3.107012
521.06       -4.465155
521.50       -8.988588
521.93       -14.63508
522.37       -18.12115
522.81       -18.59427
523.25       -16.75958
523.69       -14.93509
524.13       -16.87455
524.57       -23.02784
525.01       -31.85179
525.45       -39.89618
525.89        -41.7464
526.32       -36.49689
526.76       -26.42669
527.20       -15.02955
527.64       -7.842319
528.08       -6.520119
528.52       -9.209986
528.96       -14.64853
529.40       -20.74236
529.83        -26.2632
530.27       -31.77175
530.71       -35.83375
531.15       -36.06763
531.59       -32.36314
532.03       -25.46992
532.46       -17.86737
532.90       -13.76568
533.34       -14.32995
533.78       -18.47252
534.22       -24.71356
534.66       -30.47067
535.09        -34.7004
535.53       -37.97104
535.97        -40.3322
536.41       -41.89501
536.85       -42.74977
537.28       -42.66037
537.72       -41.77088
538.16        -40.4911
538.60       -39.13905
539.04       -37.96956
539.47       -37.20289
539.91       -37.09189
540.35       -37.56589
540.79        -38.2329
541.22        -39.2011
541.66       -40.59013
542.10       -42.22307
542.54        -44.1984
542.97       -44.98504
543.41       -42.22769
543.85       -35.77173
544.29       -26.31961
544.72       -17.08818
545.16       -13.21265
545.60       -15.67179
546.04       -23.01025
546.47       -31.25673
546.91       -33.92748
547.35       -29.57261
547.79       -20.23694
548.22       -9.762463
548.66       -4.348629
549.10       -5.544245
549.53       -11.24733
549.97       -18.48633
550.41       -22.56016
550.84       -22.14804
551.28       -18.93079
551.72       -14.62248
552.15       -11.84815
552.59       -11.45135
553.03       -12.36576
553.46       -14.03853
553.90       -15.74673
554.34       -17.10662
554.77       -18.47706
555.21       -19.47893
555.65       -19.42325
556.08       -18.17827
556.52       -15.71975
556.96       -12.88668
557.39       -11.06443
557.83       -10.68551
558.27       -11.76099
558.70       -13.06238
559.14       -12.57147
559.57       -9.950681
560.01       -5.583622
560.45       -1.857772
560.88       -2.572742
561.32       -8.198565
561.75       -17.45163
562.19       -26.41769
562.63       -28.88009
563.06       -23.66262
563.50       -12.83433
563.93      -0.8006608
564.37        5.330337
564.80        3.805028
565.24       -3.072599
565.68         -11.876
566.11       -17.07463
566.55       -17.04386
566.98       -13.68439
567.42       -8.809966
567.85       -5.159935
568.29       -3.852936
568.72       -4.081136
569.16       -5.434808
569.60       -7.469495
570.03       -9.827365
570.47       -12.44721
570.90       -15.57903
571.34       -19.50437
571.77       -23.89861
572.21       -28.38729
572.64       -31.31001
573.08       -30.15499
573.51       -24.82657
573.95       -16.58889
574.38       -8.035373
574.82       -3.255698
