SpectraSmart Spectrum 2.9.0.0
--------- Device Information -----------
Spectrum Name :  光譜_0
Saving Time :  2024/05/01 15:20:29
Spectro-Module Model Name : SE2030-DUVN
Spectro-Module Serial Number : OS361AC55029948
Wavelength Start : 200
Wavelength End : 1025
Wavelength Unit : Wavelength(nm)
Spectrum Unit : Intensity(Counts)
-----------Spectrum Setting ------------
Integration Time : 20ms
Average : 1
Boxcar : 0
Background removal :  enabled
linearity correction :  enabled
SC :  disabled
Intensity correction :  disabled
DWT denoise :  enabled
savitzky-golay :  disabled
FFT :  disabled
Running average :  disabled
Kalman :  disabled
High pass :  disabled
---------------BEGIN--------------------
Wavelength(nm)          Intensity(Counts)
200.29       -24.14705
200.75       -22.61125
201.21       -21.11267
201.67       -20.36752
202.13       -21.48684
202.58       -24.42854
203.04       -28.72886
203.50       -32.80311
203.96       -34.06236
204.42        -32.1325
204.88       -28.09565
205.34       -23.54558
205.80       -21.10944
206.26       -21.51587
206.72       -23.66043
207.18       -27.23033
207.64       -31.73848
208.10        -36.4721
208.55       -41.40955
209.01       -44.73714
209.47       -43.56252
209.93       -37.62078
210.39       -27.99534
210.85       -17.39217
211.31       -10.22359
211.77       -7.820856
212.23       -9.186079
212.69       -12.79941
213.14       -15.97482
213.60       -17.77947
214.06       -18.94507
214.52       -19.93258
214.98       -21.47587
215.44       -23.65409
215.90        -25.7747
216.36       -27.38989
216.81       -28.05932
217.27       -27.65689
217.73       -26.49263
218.19       -24.72614
218.65       -22.52335
219.11       -20.15602
219.57       -17.79072
220.02       -15.90017
220.48       -15.16034
220.94       -15.70559
221.40       -17.33277
221.86       -19.61162
222.32       -21.81094
222.77       -23.59786
223.23       -25.01413
223.69       -26.03942
224.15       -26.71125
224.61       -27.08044
225.06       -27.13755
225.52       -26.89312
225.98       -26.43521
226.44       -25.81997
226.90        -24.9944
227.36       -24.25116
227.81       -24.04026
228.27       -24.33953
228.73       -24.99849
229.19       -25.36474
229.65       -24.31969
230.10       -21.84126
230.56       -18.62925
231.02       -15.48162
231.48       -13.66531
231.93       -13.56932
232.39       -14.59335
232.85       -16.95404
233.31       -20.97556
233.77       -26.25953
234.22       -32.52886
234.68       -37.84385
235.14       -39.16967
235.60       -36.02338
236.05       -29.29549
236.51       -21.51493
236.97        -16.8734
237.43       -16.42817
237.88       -19.00071
238.34       -22.62473
238.80       -24.00627
239.26       -22.28849
239.71       -18.73686
240.17       -14.60578
240.63       -11.75529
241.08       -10.93225
241.54       -11.61016
242.00       -13.50412
242.46       -16.25079
242.91       -19.53309
243.37       -23.22947
243.83       -27.24197
244.28       -31.44906
244.74       -35.41477
245.20       -38.65934
245.66       -40.33344
246.11       -39.23148
246.57       -35.35975
247.03       -29.61654
247.48       -22.81546
247.94       -16.22277
248.40       -10.57219
248.85       -5.625153
249.31       -2.553967
249.77       -3.066508
250.22       -7.004807
250.68        -13.6289
251.14       -20.07781
251.59       -21.75418
252.05       -17.69202
252.51        -9.28133
252.96       0.6794214
253.42        7.560824
253.88        9.893315
254.33        8.814047
254.79        5.779936
255.25        3.229112
255.70        2.009387
256.16        1.447583
256.62       0.8210661
257.07      -0.9374122
257.53       -3.884648
257.99       -7.279266
258.44       -9.937351
258.90       -10.19783
259.35       -7.843568
259.81       -3.718236
260.27       0.8798052
260.72        3.971555
261.18        4.850085
261.63        4.001229
262.09        1.797599
262.55       -1.123601
263.00       -4.232048
263.46       -7.395736
263.91       -10.20708
264.37        -11.9958
264.83       -12.60932
265.28       -12.35654
265.74       -11.00551
266.19       -8.315497
266.65        -4.61276
267.11      -0.0949666
267.56        3.501173
268.02        3.455714
268.47      -0.4938917
268.93       -7.323897
269.38       -14.43984
269.84       -17.62393
270.30       -15.86697
270.75       -10.53843
271.21       -3.592623
271.66        1.763944
272.12        4.351013
272.57        4.980823
273.03        4.072861
273.48        2.322388
273.94       0.1916153
274.39       -2.463979
274.85       -5.336828
275.31       -7.812363
275.76       -9.595484
276.22       -10.60793
276.67       -10.55456
277.13       -9.172397
277.58       -6.610552
278.04       -3.112527
278.49       0.4515531
278.95        2.713511
279.40        3.339134
279.86        2.661241
280.31         1.29876
280.77       0.3935531
281.22       0.2474719
281.68         0.38364
282.13       0.6944966
282.59        1.001145
283.04        1.154129
283.50        1.410335
283.95        1.221547
284.41      -0.4244771
284.86       -3.410462
285.32       -7.166914
285.77       -10.39647
286.22       -10.97829
286.68       -8.592185
287.13       -4.292306
287.59       0.9982729
288.04        5.783175
288.50        9.315821
288.95        12.05411
289.41        13.00352
289.86         10.6413
290.32        5.170916
290.77       -2.767338
291.22       -10.47849
291.68       -13.57483
292.13       -11.21792
292.59       -4.825042
293.04        2.967029
293.50        7.724193
293.95        8.185913
294.40         5.81275
294.86        1.692364
295.31       -2.336643
295.77       -5.455192
296.22       -8.442994
296.68       -10.53805
297.13       -10.38844
297.58       -8.058234
298.04       -3.860508
298.49       0.1783375
298.95       0.6196941
299.40       -3.158169
299.85       -10.01748
300.31       -17.78513
300.76       -22.87602
301.21       -24.25731
301.67       -23.02242
302.12       -20.33076
302.58        -18.0651
303.03       -17.01368
303.48       -16.67546
303.94       -16.96221
304.39        -17.8267
304.84       -19.06349
305.30       -20.58183
305.75       -22.28996
306.20       -23.91314
306.66       -25.20516
307.11       -26.17117
307.57       -25.97021
308.02       -23.37732
308.47       -18.42006
308.93       -11.61973
309.38       -4.792805
309.83      -0.8462759
310.29      -0.3951284
310.74       -2.601661
311.19       -5.779471
311.65       -7.036055
312.10       -5.720077
312.55       -3.018848
313.00      0.09630322
313.46        2.061916
313.91        2.325197
314.36        1.736466
314.82      -0.1099719
315.27       -4.009935
315.72       -9.548553
316.18       -16.21904
316.63        -21.7837
317.08       -22.65597
317.53       -18.24798
317.99       -9.835823
318.44       0.1534296
318.89        7.720748
319.35        11.55683
319.80         12.6438
320.25        11.79359
320.70           10.51
321.16        9.428778
321.61        7.942255
322.06        6.419385
322.51        5.600945
322.97        5.527402
323.42        6.183677
323.87        6.787179
324.32         5.85068
324.78        3.157277
325.23      -0.6530181
325.68       -4.754887
326.13       -7.841623
326.59        -9.38533
327.04       -9.682658
327.49       -8.754076
327.94       -6.651512
328.39       -3.656127
328.85      0.02042589
329.30        3.870642
329.75        7.066907
330.20        9.322131
330.66        10.81654
331.11        11.40449
331.56        11.00418
332.01         9.78369
332.46        7.741868
332.92          5.8674
333.37        5.753609
333.82        7.577584
334.27        10.84204
334.72        14.04095
335.17        14.65989
335.63        12.23708
336.08        7.755899
336.53        2.589141
336.98       -1.035409
337.43       -2.418802
337.88       -2.350206
338.34       -1.123247
338.79       0.7990988
339.24        2.939063
339.69        5.381998
340.14        7.217618
340.59         6.89218
341.05        4.325418
341.50       0.1979312
341.95       -4.299222
342.40       -7.115067
342.85       -7.707048
343.30       -6.940459
343.75        -4.88562
344.20       -1.725928
344.66        2.030545
345.11        6.458579
345.56        9.674132
346.01        8.629763
346.46        3.131164
346.91       -5.653514
347.36       -14.55972
347.81       -18.43387
348.26       -16.07644
348.72       -9.129277
349.17     -0.04063988
349.62        7.098455
350.07        10.91369
350.52        12.60568
350.97        12.69578
351.42        12.10985
351.87         11.3175
352.32        9.685678
352.77        8.013691
353.22        7.793247
353.67        9.204872
354.13        12.08115
354.58        14.82658
355.03        14.67707
355.48        11.18716
355.93        5.275278
356.38       -1.011207
356.83       -4.335906
357.28       -3.973083
357.73         -1.1092
358.18        2.566509
358.63        4.298482
359.08        3.356508
359.53       0.8686997
359.98       -2.505381
360.43       -5.726512
360.88        -8.27847
361.33        -10.7059
361.78       -12.14868
362.23       -11.16208
362.68       -7.756042
363.13       -2.285993
363.58        3.040172
364.03        4.587046
364.48        1.713326
364.93       -4.461768
365.38       -11.24919
365.83       -14.24603
366.28       -12.38211
366.73       -7.055656
367.18      -0.4874753
367.63        3.752924
368.08        4.563438
368.53        2.986094
368.98       0.2957003
369.43       -1.518372
369.88       -1.786427
370.33       -1.075421
370.78      -0.1828916
371.23      -0.2880254
371.68       -1.573151
372.13       -3.507984
372.58       -4.972314
373.03       -4.281874
373.48       -1.276973
373.93        3.186646
374.38        7.661409
374.83        9.899732
375.28        9.332172
375.72         6.80853
376.17        3.099967
376.62      -0.5521659
377.07       -3.469224
377.52       -5.875969
377.97       -7.209236
378.42       -6.583052
378.87       -4.079968
379.32      -0.1318132
379.77        4.155399
380.22        6.922719
380.67         7.60664
381.11        6.691446
381.56        4.448139
382.01        1.486602
382.46       -1.788703
382.91       -5.524466
383.36       -8.805043
383.81       -10.25763
384.26       -9.548719
384.71        -6.67848
385.15       -3.144122
385.60       -1.457128
386.05        -2.21142
386.50       -5.095199
386.95       -7.910167
387.40       -7.000534
387.85       -1.931703
388.29        5.985225
388.74        13.19419
389.19        14.03339
389.64        7.605875
390.09       -3.815683
390.54       -16.22535
390.98       -23.24192
391.43       -23.17301
391.88       -18.20956
392.33       -10.58822
392.78       -3.971801
393.23       0.1305932
393.67        2.850606
394.12        3.664682
394.57        1.724669
395.02        -2.72901
395.47       -9.669075
395.91        -16.9486
396.36       -20.86299
396.81       -20.61594
397.26       -17.03255
397.71       -12.37442
398.15       -10.57908
398.60       -12.50227
399.05       -16.72767
399.50       -21.40162
399.95       -23.51887
400.39       -22.32987
400.84       -19.19531
401.29       -14.91538
401.74       -10.67129
402.18        -7.10655
402.63       -3.692882
403.08       -1.425174
403.53       -1.961009
403.97       -5.263834
404.42       -10.83358
404.87       -16.28293
405.32       -17.65818
405.76       -14.26151
406.21       -7.445924
406.66       0.1996043
407.11        4.430117
407.55        4.053703
408.00       0.4168072
408.45       -5.039282
408.90       -9.987069
409.34       -13.40376
409.79       -15.81241
410.24       -17.18161
410.68       -17.41442
411.13       -16.65931
411.58       -14.93799
412.03       -12.42045
412.47       -9.594007
412.92       -6.749241
413.37       -3.847423
413.81       -1.723191
414.26       -1.516311
414.71       -3.331559
415.15       -6.985539
415.60       -10.69526
416.05       -11.56581
416.49       -9.068172
416.94       -3.925125
417.39         1.41156
417.83        2.895758
418.28      -0.2144197
418.73       -6.528995
419.17       -13.29681
419.62       -16.05692
420.07       -13.87096
420.51       -8.509122
420.96       -2.149431
421.41        1.742926
421.85        2.106422
422.30       0.3312286
422.74       -3.112062
423.19       -7.571514
423.64       -12.25681
424.08       -17.24431
424.53       -20.91978
424.98       -20.57456
425.42       -16.05054
425.87       -8.551868
426.31      -0.2977138
426.76        5.027379
427.21        6.267052
427.65        4.553271
428.10       0.2799449
428.54       -5.762967
428.99       -12.65542
429.44       -20.32699
429.88       -26.75471
430.33       -28.73475
430.77       -25.77066
431.22       -18.78782
431.66       -10.23824
432.11       -4.281594
432.56       -2.212771
433.00       -3.083301
433.45       -5.685744
433.89       -7.882164
434.34        -8.89135
434.78       -9.346988
435.23        -9.58339
435.67        -10.0235
436.12       -10.79459
436.57       -11.61733
437.01       -12.10407
437.46       -11.82065
437.90       -10.79351
438.35       -9.275193
438.79       -8.085294
439.24       -8.479456
439.68       -10.60806
440.13       -13.92323
440.57       -17.39033
441.02       -19.37427
441.46       -19.37827
441.91       -17.85984
442.35       -15.34617
442.80       -12.70874
443.24       -10.41089
443.69       -8.418775
444.13        -6.84747
444.58       -5.832738
445.02       -5.470037
445.47        -5.84583
445.91       -7.142467
446.36       -9.529462
446.80       -12.85799
447.24       -16.84206
447.69       -20.76912
448.13       -23.63053
448.58       -25.06041
449.02       -25.11257
449.47       -24.29664
449.91       -23.52004
450.36       -23.10033
450.80       -23.01364
451.25       -22.72678
451.69       -21.32664
452.13       -18.82507
452.58       -15.70326
453.02       -13.26739
453.47       -13.46773
453.91       -16.63768
454.36       -22.08082
454.80       -28.10186
455.24       -32.07357
455.69       -33.12907
456.13       -31.64044
456.58        -28.9526
457.02       -27.32577
457.46       -27.33136
457.91       -28.49838
458.35       -29.09222
458.79       -26.35885
459.24       -20.04133
459.68       -11.34427
460.13       -3.288307
460.57      -0.4627115
461.01       -3.890726
461.46       -12.22798
461.90       -22.18379
462.34       -28.52005
462.79       -29.70436
463.23       -26.81864
463.68       -22.72015
464.12       -22.10239
464.56       -25.96692
465.01       -32.84427
465.45       -39.24067
465.89       -39.69443
466.34       -33.30547
466.78       -22.18986
467.22       -10.72562
467.67       -5.742795
468.11       -8.771247
468.55       -17.45292
468.99       -27.87573
469.44       -33.79238
469.88       -33.37017
470.32       -28.52643
470.77       -21.44626
471.21       -15.65696
471.65       -12.35802
472.10       -10.35664
472.54        -9.02115
472.98       -7.444465
473.42       -5.410313
473.87       -3.733222
474.31       -2.485233
474.75       -1.526788
475.20        -0.85473
475.64      -0.1470889
476.08     -0.09172749
476.52       -1.844991
476.97       -5.504608
477.41       -10.89875
477.85       -16.07136
478.29       -17.96514
478.74       -16.01233
479.18       -10.79612
479.62       -5.498128
480.06         -5.2708
480.50       -10.99338
480.95       -21.13215
481.39       -31.15195
481.83       -33.78699
482.27       -27.60369
482.72       -14.96585
483.16      -0.9869113
483.60        6.117273
484.04        4.430881
484.48       -3.339249
484.93       -12.83791
485.37       -17.01214
485.81       -14.11418
486.25       -6.894133
486.69        1.883521
487.14        7.933198
487.58        9.803632
488.02        9.268481
488.46        6.605992
488.90        2.031523
489.34        -3.64294
489.79       -10.36749
490.23        -15.9471
490.67       -16.72549
491.11       -12.16744
491.55       -3.461466
491.99        6.787043
492.43        14.17438
492.88        17.33295
493.32        17.37749
493.76        15.25903
494.20        12.77388
494.64        10.60135
495.08         7.92336
495.52        5.264282
495.96        3.562534
496.41        2.934386
496.85        3.612844
497.29        4.118227
497.73        1.823418
498.17       -3.563012
498.61       -11.19487
499.05       -18.42574
499.49         -21.029
499.93       -18.14037
500.37       -11.05628
500.82        -2.74135
501.26        2.027403
501.70        2.024353
502.14       -1.411678
502.58       -5.799206
503.02       -7.063377
503.46       -4.299537
503.90       0.8924619
504.34        6.388458
504.78        8.926566
505.22         7.63668
505.66        3.828196
506.10       -1.223076
506.54       -5.649559
506.98        -8.57519
507.42       -10.37018
507.86       -11.04093
508.30       -10.55507
508.74       -9.134781
509.18       -6.989678
509.62       -4.282026
510.06       -1.360653
510.50        1.402328
510.94         3.93169
511.38         5.17806
511.82         3.60341
512.26      -0.7510781
512.70       -7.133725
513.14       -13.49093
513.58       -16.54923
514.02       -15.52665
514.46       -11.40923
514.90        -5.73601
515.34       -1.121668
515.78        1.525048
516.22        2.930479
516.66        3.350723
517.10        3.257041
517.54         2.94908
517.98        2.120704
518.42        1.320171
518.86        1.556143
519.30        2.995195
519.74        5.476286
520.18         8.12871
520.62        9.458334
521.06        9.063697
521.50        7.222126
521.93        4.774333
522.37        3.150201
522.81        2.611732
523.25        2.655631
523.69        2.276763
524.13       -0.118251
524.57       -4.745682
525.01       -10.79131
525.45       -17.10585
525.89       -21.98284
526.32       -24.78305
526.76       -25.87678
527.20        -25.6567
527.64       -24.76086
528.08       -23.64565
528.52        -22.4602
528.96       -21.24206
529.40       -20.05576
529.83       -19.01975
530.27       -18.05368
530.71       -18.00091
531.15       -20.12385
531.59       -24.26439
532.03       -29.76815
532.46       -34.40508
532.90       -34.65875
533.34       -29.98315
533.78       -21.73451
534.22       -12.39568
534.66       -5.992246
535.09       -3.773181
535.53       -4.630669
535.97       -7.599129
536.41       -10.96144
536.85       -13.96127
537.28       -17.17317
537.72       -20.06026
538.16        -21.7329
538.60       -22.02931
539.04       -20.77996
539.47       -19.10117
539.91       -19.01393
540.35       -20.91047
540.79       -24.37014
541.22       -27.73295
541.66       -28.26506
542.10       -25.49381
542.54       -20.33834
542.97       -15.02094
543.41       -13.03692
543.85       -15.16818
544.29        -20.3264
544.72       -26.20654
545.16       -29.14437
545.60       -28.16454
546.04       -24.27194
546.47       -19.44301
546.91       -16.86716
547.35       -17.29424
547.79       -19.64927
548.22       -22.06229
548.66        -21.6096
549.10       -17.69991
549.53       -11.53413
549.97       -4.927402
550.41      -0.6600088
550.84       0.4916954
551.28       -0.553858
551.72       -2.709878
552.15       -4.238193
552.59       -4.558605
553.03        -4.29702
553.46       -3.758291
553.90        -3.34825
554.34       -3.333189
554.77       -3.529694
555.21       -4.109701
555.65        -5.50662
556.08       -7.621047
556.52       -10.05571
556.96       -12.58015
557.39       -14.77488
557.83       -16.42548
558.27       -17.80517
558.70        -18.1162
559.14        -16.1374
559.57       -11.95075
560.01       -5.966544
560.45      -0.4041735
560.88        1.165598
561.32        -1.78895
561.75       -8.058635
562.19       -14.82828
562.63       -17.47056
563.06       -14.97066
563.50        -9.05648
563.93       -1.925816
564.37        2.906958
564.80        4.162402
565.24        2.879351
565.68      -0.6161765
566.11       -5.824946
566.55       -12.07941
566.98       -19.26365
567.42       -26.29983
567.85       -31.37199
568.29       -33.99255
568.72       -34.52985
569.16       -33.32841
569.60       -31.27203
570.03       -28.79459
570.47       -25.56602
570.90       -22.61401
571.34       -21.48213
571.77       -22.39279
572.21       -25.30163
572.64       -28.09623
573.08       -27.19369
573.51       -22.12967
573.95       -14.07244
574.38       -6.282651
574.82       -4.053613
