SpectraSmart Spectrum 2.9.0.0
--------- Device Information -----------
Spectrum Name :  光譜_0
Saving Time :  2024/04/26 20:38:09
Spectro-Module Model Name : SE2030-DUVN
Spectro-Module Serial Number : OS361AC55029948
Wavelength Start : 200
Wavelength End : 1025
Wavelength Unit : Wavelength(nm)
Spectrum Unit : Intensity(Counts)
-----------Spectrum Setting ------------
Integration Time : 1ms
Average : 1
Boxcar : 0
Background removal :  enabled
linearity correction :  enabled
SC :  disabled
Intensity correction :  disabled
DWT denoise :  enabled
savitzky-golay :  disabled
FFT :  disabled
Running average :  disabled
Kalman :  disabled
High pass :  disabled
---------------BEGIN--------------------
Wavelength(nm)          Intensity(Counts)
200.29       -3.142519
200.75      -0.6245525
201.21        1.798022
201.67        3.824126
202.13        4.822857
202.58        4.702946
203.04        3.539555
203.50        1.402309
203.96       -1.313103
204.42       -4.372347
204.88       -7.901646
205.34        -10.8975
205.80       -11.94804
206.26       -10.73254
206.72       -7.164831
207.18       -3.271646
207.64       -2.388967
208.10        -5.07608
208.55       -10.69666
209.01       -15.74949
209.47       -14.48814
209.93       -6.226244
210.39         6.82432
210.85        19.44687
211.31        23.35405
211.77        16.85406
212.23        2.952688
212.69       -13.50928
213.14       -24.75227
213.60       -28.39248
214.06       -26.76509
214.52       -21.91743
214.98       -17.29186
215.44       -14.22453
215.90        -11.3337
216.36       -9.079028
216.81       -8.379288
217.27       -9.239511
217.73       -12.04252
218.19       -14.97738
218.65       -14.73411
219.11       -10.84378
219.57       -4.193034
220.02        2.389366
220.48        4.195665
220.94       0.4590507
221.40         -6.9439
221.86       -14.83754
222.32       -18.19289
222.77       -15.61953
223.23       -8.763073
223.69       0.6149724
224.15        9.635453
224.61        17.14002
225.06        23.95637
225.52        29.90067
225.98        34.70092
226.44        38.43063
226.90        40.77393
227.36        42.76188
227.81        46.27359
228.27         51.7337
228.73         58.9341
229.19        66.40009
229.65        71.59283
230.10        74.07518
230.56        74.61282
231.02        75.23244
231.48        79.20422
231.93        87.00454
232.39        97.21954
232.85        107.3958
233.31        113.7113
233.77        115.1003
234.22        112.7298
234.68        108.0173
235.14        103.3276
235.60        99.49143
236.05        95.71997
236.51        91.87271
236.97        87.74909
237.43        83.16769
237.88        78.47949
238.34         73.0814
238.80        65.83525
239.26        56.64674
239.71        45.85126
240.17        34.71662
240.63        25.28545
241.08        18.14781
241.54        13.01582
242.00         8.71259
242.46        3.219479
242.91       -3.790834
243.37       -11.55947
243.83       -18.41995
244.28        -21.8065
244.74       -21.18495
245.20       -17.42723
245.66       -12.35679
246.11       -8.834414
246.57       -7.666277
247.03       -8.169055
247.48       -8.901649
247.94       -7.460653
248.40       -3.389802
248.85        2.320019
249.31         8.19088
249.77        11.93271
250.22        13.07976
250.68        12.65735
251.14        11.72472
251.59        11.96243
252.05        13.89721
252.51        16.78613
252.96        20.86097
253.42        26.42629
253.88        33.42091
254.33        42.29618
254.79        51.39937
255.25        57.92777
255.70        61.80586
256.16        64.03649
256.62        68.40477
257.07        80.92029
257.53        102.7347
257.99        132.0134
258.44        164.3022
258.90        192.3987
259.35        214.4053
259.81        232.2909
260.27        249.8027
260.72        272.9788
261.18        303.4679
261.63        339.4687
262.09        377.6448
262.55        412.8495
263.00        443.5953
263.46        470.9586
263.91        498.0419
264.37        529.9035
264.83        566.8931
265.28        606.3414
265.74        643.2269
266.19        669.9442
266.65        684.8362
267.11        690.6776
267.56         691.592
268.02        694.2629
268.47        700.9761
268.93        709.9019
269.38          720.27
269.84        730.5761
270.30        740.1884
270.75        750.4976
271.21        760.3022
271.66        767.1301
272.12        771.2483
272.57        773.7637
273.03        778.2569
273.48        790.5615
273.94        811.8804
274.39        840.2592
274.85        872.5148
275.31        903.4252
275.76        931.1417
276.22        956.9796
276.67        981.9058
277.13        1007.463
277.58        1034.731
278.04        1063.714
278.49        1094.597
278.95        1127.945
279.40        1163.671
279.86        1200.811
280.31        1240.512
280.77        1284.533
281.22        1332.022
281.68        1381.776
282.13        1427.976
282.59        1461.681
283.04        1481.658
283.50        1490.979
283.95        1497.641
284.41        1514.584
284.86        1545.238
285.32        1586.243
285.77         1631.59
286.22        1671.079
286.68        1702.018
287.13         1728.04
287.59        1752.897
288.04        1782.424
288.50         1818.19
288.95        1857.294
289.41        1897.972
289.86        1938.047
290.32        1975.944
290.77        2011.809
291.22        2044.229
291.68        2070.957
292.13        2091.712
292.59        2107.164
293.04        2118.881
293.50        2129.643
293.95        2140.711
294.40        2151.913
294.86        2163.681
295.31        2176.352
295.77        2189.864
296.22        2204.351
296.68        2219.041
297.13        2232.417
297.58        2244.278
298.04        2255.364
298.49        2266.464
298.95        2278.818
299.40        2293.292
299.85         2310.13
300.31        2330.132
300.76        2354.342
301.21        2382.968
301.67        2415.721
302.12        2451.954
302.58        2490.521
303.03         2530.65
303.48        2572.045
303.94        2614.146
304.39        2656.248
304.84        2698.173
305.30        2740.021
305.75        2781.527
306.20        2822.685
306.66        2863.194
307.11        2901.998
307.57        2940.307
308.02        2980.163
308.47        3021.347
308.93        3063.358
309.38        3101.321
309.83        3127.607
310.29        3141.256
310.74        3144.627
311.19        3145.755
311.65        3157.501
312.10         3182.65
312.55        3217.598
313.00        3253.582
313.46        3276.306
313.91         3282.38
314.36        3276.256
314.82        3266.048
315.27        3264.738
315.72        3275.583
316.18        3294.227
316.63         3313.98
317.08        3324.388
317.53        3322.644
317.99        3312.334
318.44        3298.422
318.89        3288.499
319.35        3284.738
319.80        3284.518
320.25        3284.165
320.70        3278.301
321.16        3265.073
321.61        3245.655
322.06        3223.127
322.51        3202.089
322.97        3183.793
323.42        3167.626
323.87        3148.885
324.32        3120.221
324.78        3080.835
325.23        3033.081
325.68        2985.928
326.13        2953.463
326.59            2938
327.04        2934.933
327.49        2932.304
327.94        2910.964
328.39        2866.647
328.85        2805.435
329.30        2738.856
329.75        2685.534
330.20        2650.494
330.66        2628.035
331.11        2610.101
331.56        2583.656
332.01        2545.308
332.46        2500.271
332.92        2453.623
333.37        2412.901
333.82        2380.523
334.27        2353.265
334.72         2329.56
335.17        2307.534
335.63         2285.68
336.08        2264.479
336.53        2242.422
336.98        2216.679
337.43        2187.394
337.88        2156.389
338.34        2125.729
338.79        2098.823
339.24        2077.376
339.69        2060.668
340.14        2050.753
340.59        2050.582
341.05        2059.416
341.50        2075.458
341.95        2092.729
342.40        2101.742
342.85        2100.251
343.30        2090.857
343.75         2078.38
344.20        2071.061
344.66        2071.657
345.11        2077.962
345.56        2088.278
346.01        2099.844
346.46         2111.13
346.91        2122.588
347.36        2133.956
347.81        2144.467
348.26        2153.924
348.72        2162.594
349.17        2169.191
349.62        2172.134
350.07        2171.756
350.52        2168.613
350.97        2167.316
351.42        2175.026
351.87        2192.795
352.32        2218.509
352.77        2245.138
353.22        2261.376
353.67        2264.547
354.13        2257.585
354.58        2247.781
355.03        2247.036
355.48        2258.307
355.93        2278.248
356.38        2299.887
356.83        2312.021
357.28        2312.323
357.73        2304.942
358.18        2297.219
358.63        2300.496
359.08        2317.476
359.53        2344.194
359.98        2374.174
360.43         2397.35
360.88        2410.629
361.33        2416.648
361.78        2419.541
362.23        2426.018
362.68        2437.704
363.13        2452.058
363.58        2465.487
364.03        2472.534
364.48        2472.272
364.93        2467.432
365.38        2461.413
365.83        2459.292
366.28        2462.449
366.73         2468.72
367.18        2476.752
367.63        2484.508
368.08         2490.54
368.53        2495.137
368.98         2496.16
369.43        2490.328
369.88        2477.395
370.33        2458.433
370.78        2437.279
371.23        2420.114
371.68        2409.168
372.13        2404.091
372.58        2402.392
373.03        2399.502
373.48        2394.565
373.93        2389.108
374.38        2387.261
374.83         2395.14
375.28        2413.858
375.72        2441.525
376.17        2471.576
376.62        2494.091
377.07        2506.267
377.52        2509.263
377.97        2511.113
378.42        2524.997
378.87        2553.127
379.32        2591.829
379.77        2628.258
380.22        2642.006
380.67          2629.9
381.11        2599.096
381.56        2566.904
382.01        2561.002
382.46        2587.131
382.91        2635.762
383.36        2690.905
383.81         2726.38
384.26        2736.024
384.71        2730.666
385.15        2719.611
385.60        2717.487
386.05        2730.252
386.50        2751.976
386.95        2786.631
387.40        2841.081
387.85        2913.336
388.29        3001.147
388.74        3088.825
389.19        3150.084
389.64        3180.945
390.09        3190.756
390.54        3196.547
390.98        3227.051
391.43        3289.334
391.88        3371.451
392.33        3465.979
392.78        3561.351
393.23        3649.477
393.67        3732.731
394.12        3799.758
394.57        3831.479
395.02         3829.11
395.47        3803.422
395.91        3774.258
396.36        3773.964
396.81        3811.192
397.26        3874.594
397.71        3960.873
398.15        4058.618
398.60        4157.113
399.05        4269.549
399.50        4370.315
399.95        4385.674
400.39        4326.267
400.84        4279.892
401.29        4260.694
401.74        4225.523
402.18        4183.047
402.63        4172.698
403.08        4189.033
403.53        4200.789
403.97        4202.723
404.42        4201.867
404.87        4204.872
405.32        4221.314
405.76        4251.224
406.21        4289.407
406.66        4317.537
407.11        4309.139
407.55        4260.626
408.00        4180.373
408.45        4097.514
408.90        4058.579
409.34        4074.046
409.79         4131.35
410.24        4199.384
410.68        4227.793
411.13        4204.569
411.58        4144.449
412.03         4077.92
412.47        4054.153
412.92        4083.691
413.37        4148.398
413.81        4218.519
414.26        4247.914
414.71        4224.773
415.15        4164.966
415.60        4091.151
416.05        4038.893
416.49        4019.166
416.94        4021.373
417.39        4034.229
417.83         4039.15
418.28        4032.356
418.73        4024.839
419.17        4022.554
419.62        4032.915
420.07        4058.171
420.51        4091.682
420.96        4137.065
421.41        4199.971
421.85        4276.227
422.30        4365.659
422.74        4446.545
423.19        4472.663
423.64        4442.799
424.08        4394.681
424.53        4345.141
424.98        4293.369
425.42         4248.09
425.87        4232.934
426.31        4237.969
426.76        4211.394
427.21         4164.69
427.65        4167.405
428.10        4218.515
428.54        4270.648
428.99        4319.337
429.44         4367.99
429.88        4420.428
430.33        4508.433
430.77         4610.53
431.22        4644.162
431.66        4599.241
432.11        4542.819
432.56        4479.379
433.00        4356.597
433.45        4225.821
433.89         4204.94
434.34        4275.679
434.78        4448.623
435.23         4440.88
435.67        4481.664
436.12        4492.796
436.57        4476.057
437.01        4448.583
437.46        4434.627
437.90        4446.979
438.35        4491.731
438.79         4549.26
439.24         4576.25
439.68        4566.151
440.13        4535.455
440.57        4515.126
441.02        4546.314
441.46        4635.369
441.91        4780.765
442.35        4942.354
442.80        5018.729
443.24        5012.528
443.69        5028.495
444.13        5075.838
444.58        5093.393
445.02        5086.712
445.47        5098.386
445.91        5128.088
446.36        5152.105
446.80          5169.4
447.24        5190.152
447.69        5214.113
448.13        5238.408
448.58        5263.002
449.02        5286.623
449.47        5311.719
449.91        5344.003
450.36        5383.032
450.80        5425.003
451.25        5464.781
451.69        5494.552
452.13        5512.763
452.58        5523.445
453.02        5528.697
453.47        5532.045
453.91        5536.513
454.36        5542.033
454.80        5556.497
455.24        5591.088
455.69        5648.332
456.13        5728.076
456.58         5816.75
457.02        5891.613
457.46        5947.862
457.91         5988.65
458.35        6032.616
458.79        6112.414
459.24        6228.754
459.68        6363.007
460.13        6486.233
460.57        6552.988
461.01        6554.612
461.46        6514.504
461.90        6447.666
462.34         6376.97
462.79        6319.368
463.23        6271.868
463.68        6263.739
464.12        6340.089
464.56        6500.385
465.01        6724.499
465.45        6955.913
465.89         7103.57
466.34        7142.259
466.78        7094.137
467.22        6996.068
467.67        6912.602
468.11        6866.553
468.55        6841.776
468.99        6829.211
469.44        6813.192
469.88        6789.895
470.32         6772.53
470.77        6764.987
471.21        6767.391
471.65        6781.589
472.10        6806.184
472.54        6842.152
472.98        6893.266
473.42        6957.898
473.87          7030.5
474.31        7107.979
474.75        7186.808
475.20        7262.617
475.64         7333.51
476.08        7390.872
476.52          7423.1
476.97        7430.936
477.41        7418.197
477.85        7398.389
478.29        7402.034
478.74        7431.059
479.18        7459.251
479.62        7492.425
480.06        7546.726
480.50        7616.958
480.95          7711.4
481.39        7814.354
481.83        7811.166
482.27         7819.35
482.72        7803.947
483.16        7807.417
483.60        7779.442
484.04        7742.421
484.48        7763.024
484.93         7827.64
485.37        7915.036
485.81        8252.627
486.25        8554.902
486.69         11890.7
487.14        12733.31
487.58        9274.521
488.02        8262.322
488.46        8327.726
488.90        8055.906
489.34        7682.584
489.79        7521.474
490.23        7671.152
490.67         7774.16
491.11        7805.939
491.55        7793.071
491.99        7742.695
492.43         7705.78
492.88        7696.404
493.32        7695.854
493.76        7695.774
494.20        7678.978
494.64        7641.842
495.08        7614.358
495.52        7605.359
495.96        7569.701
496.41        7524.073
496.85        7582.675
497.29        7711.118
497.73        7677.299
498.17        7591.914
498.61        7514.281
499.05        7496.434
499.49        7482.172
499.93        7491.292
500.37        7478.711
500.82        7452.974
501.26        7449.532
501.70        7467.318
502.14        7479.472
502.58        7477.143
503.02        7461.384
503.46        7431.281
503.90        7386.675
504.34        7339.208
504.78        7308.444
505.22        7298.872
505.66        7305.339
506.10        7318.154
506.54        7320.616
506.98        7308.008
507.42        7285.882
507.86        7259.168
508.30         7235.62
508.74        7218.113
509.18        7203.634
509.62        7191.691
510.06        7182.109
510.50        7174.111
510.94        7168.126
511.38        7162.322
511.82        7153.247
512.26        7140.173
512.70        7123.892
513.14        7106.141
513.58        7090.088
514.02        7076.864
514.46        7065.985
514.90        7057.333
515.34        7050.241
515.78        7045.098
516.22        7043.472
516.66        7045.096
517.10         7049.38
517.54        7055.913
517.98        7063.082
518.42        7073.651
518.86        7092.318
519.30        7118.598
519.74        7150.762
520.18        7179.198
520.62        7188.958
521.06        7177.948
521.50        7150.988
521.93        7122.264
522.37        7114.649
522.81        7133.446
523.25         7172.27
523.69        7217.918
524.13        7248.346
524.57        7258.696
525.01        7257.508
525.45        7255.219
525.89        7268.257
526.32        7301.206
526.76        7346.921
527.20        7401.239
527.64        7458.491
528.08        7514.202
528.52        7568.715
528.96        7616.792
529.40         7649.86
529.83        7667.537
530.27        7673.917
530.71        7675.775
531.15        7684.158
531.59        7704.002
532.03        7734.147
532.46        7776.459
532.90        7831.506
533.34        7896.782
533.78        7973.752
534.22        8055.177
534.66        8119.192
535.09        8166.625
535.53        8222.726
535.97        8281.497
536.41        8314.137
536.85        8321.044
537.28         8318.89
537.72        8320.781
538.16        8341.266
538.60        8384.725
539.04        8447.252
539.47        8517.855
539.91        8577.333
540.35        8620.886
540.79        8655.462
541.22        8686.093
541.66        8721.458
542.10        8764.484
542.54        8809.767
542.97         8861.02
543.41        8924.928
543.85        9000.492
544.29        9086.433
544.72        9167.595
545.16         9219.48
545.60        9238.396
546.04        9231.302
546.47        9219.899
546.91        9240.831
547.35        9301.961
547.79        9389.786
548.22         9482.19
548.66        9553.455
549.10        9582.474
549.53        9585.858
549.97        9575.519
550.41         9590.61
550.84        9627.802
551.28        9654.989
551.72        9683.038
552.15        9721.664
552.59        9760.566
553.03        9944.198
553.46        9956.983
553.90        10039.26
554.34        10096.15
554.77        10130.76
555.21        10156.52
555.65        10201.41
556.08        10273.22
556.52        10372.58
556.96        10481.04
557.39        10541.11
557.83        10559.35
558.27        10608.66
558.70         10696.6
559.14        10774.02
559.57        10847.15
560.01        10963.37
560.45        11110.25
560.88        11233.13
561.32        11324.79
561.75        11407.86
562.19        11486.19
562.63        11560.42
563.06           11634
563.50        11705.98
563.93        11787.85
564.37        11877.78
564.80        11967.41
565.24        12092.07
565.68        12265.28
566.11        12236.61
566.55        12459.32
566.98        12568.66
567.42        12690.52
567.85        12805.28
568.29        12920.73
568.72        13032.01
569.16        13159.59
569.60        13384.76
570.03        13639.11
570.47        13947.08
570.90        14261.71
571.34        14477.11
571.77        14591.15
572.21        14760.31
572.64        14977.03
573.08           14850
573.51        14533.77
573.95        14832.89
574.38        15620.97
574.82        15804.61
