SpectraSmart Spectrum 2.9.0.0
--------- Device Information -----------
Spectrum Name :  光譜_0
Saving Time :  2024/04/29 23:13:42
Spectro-Module Model Name : SE2030-DUVN
Spectro-Module Serial Number : OS361AC55029948
Wavelength Start : 200
Wavelength End : 1025
Wavelength Unit : Wavelength(nm)
Spectrum Unit : Intensity(Counts)
-----------Spectrum Setting ------------
Integration Time : 20ms
Average : 1
Boxcar : 0
Background removal :  enabled
linearity correction :  enabled
SC :  disabled
Intensity correction :  disabled
DWT denoise :  enabled
savitzky-golay :  disabled
FFT :  disabled
Running average :  disabled
Kalman :  disabled
High pass :  disabled
---------------BEGIN--------------------
Wavelength(nm)          Intensity(Counts)
200.29       -46.12759
200.75       -45.98374
201.21       -44.45889
201.67       -41.94429
202.13       -39.12701
202.58       -36.46833
203.04       -33.77108
203.50       -31.84023
203.96       -31.97379
204.42       -34.30911
204.88       -38.52191
205.34       -43.23099
205.80       -46.13779
206.26       -46.62354
206.72       -45.13683
207.18       -42.86014
207.64       -41.86066
208.10       -42.54204
208.55       -44.11988
209.01       -45.47074
209.47       -44.78581
209.93       -41.81792
210.39       -37.66238
210.85        -33.1976
211.31       -29.68439
211.77       -27.73057
212.23       -26.90518
212.69        -27.8335
213.14       -31.50266
213.60       -37.63086
214.06        -45.6404
214.52       -53.44705
214.98       -57.71971
215.44       -57.73651
215.90       -54.46527
216.36       -49.71129
216.81       -46.57257
217.27       -45.98297
217.73       -46.96711
218.19       -48.90844
218.65       -50.75284
219.11       -51.99122
219.57       -53.09355
220.02       -53.48286
220.48       -52.14125
220.94       -49.01714
221.40       -44.31447
221.86       -39.36399
222.32       -36.37138
222.77       -35.92309
223.23       -37.64431
223.69       -40.13887
224.15       -41.07365
224.61       -39.89508
225.06        -37.1818
225.52       -34.64669
225.98       -34.99678
226.44       -38.73835
226.90        -45.0139
227.36        -51.4682
227.81       -54.41595
228.27       -53.09095
228.73       -48.58479
229.19        -43.6205
229.65       -42.58263
230.10       -46.35246
230.56       -53.36687
231.02       -60.77646
231.48       -64.07703
231.93       -62.13053
232.39       -56.46181
232.85       -49.24001
233.31       -43.89273
233.77       -41.53441
234.22       -41.20045
234.68       -41.90384
235.14       -42.03529
235.60       -41.18487
236.05       -40.15692
236.51        -39.4577
236.97       -39.75761
237.43       -41.13297
237.88       -42.89753
238.34       -44.92288
238.80       -47.17204
239.26       -49.38415
239.71       -51.59761
240.17       -52.76576
240.63       -51.23735
241.08       -46.95058
241.54       -40.54103
242.00       -34.05336
242.46       -30.75544
242.91       -31.37578
243.37       -34.97985
243.83        -39.6167
244.28       -42.03933
244.74       -41.37466
245.20       -38.62685
245.66       -35.08479
246.11       -32.85226
246.57       -32.52465
247.03       -33.26788
247.48       -34.47764
247.94       -35.27242
248.40       -35.33507
248.85       -35.11638
249.31        -34.5509
249.77       -33.45471
250.22       -31.88426
250.68        -29.7572
251.14       -27.73154
251.59       -26.89768
252.05       -27.44936
252.51       -29.19409
252.96       -30.98108
253.42       -30.95319
253.88       -28.71112
254.33       -24.65233
254.79       -20.36282
255.25        -18.4183
255.70       -19.30219
256.16       -22.25573
256.62       -25.20708
257.07       -24.82699
257.53       -20.53888
257.99       -13.63183
258.44       -6.553767
258.90       -3.109244
259.35       -4.355911
259.81        -9.20601
260.27       -15.79956
260.72       -21.18081
261.18       -24.30933
261.63       -25.73609
262.09       -26.66819
262.55       -29.03118
263.00       -33.20609
263.46       -38.55234
263.91       -43.14476
264.37       -44.11734
264.83       -41.03872
265.28       -34.83763
265.74       -28.53424
266.19       -26.86069
266.65       -30.74479
267.11       -38.76784
267.56       -47.28846
268.02        -50.4338
268.47       -46.90405
268.93       -38.58897
269.38       -29.07117
269.84        -24.0996
270.30        -25.1229
270.75       -30.23993
271.21       -36.65915
271.66        -39.9482
272.12       -38.89257
272.57        -35.0988
273.03       -30.33371
273.48       -27.26663
273.94       -26.79812
274.39       -27.99684
274.85       -30.09359
275.31        -32.0416
275.76       -33.31412
276.22       -34.05981
276.67       -34.51679
277.13       -35.00558
277.58        -35.4761
278.04       -35.75418
278.49       -35.02962
278.95       -32.05582
279.40       -27.00946
279.86       -20.86336
280.31       -15.29605
280.77       -12.84651
281.22       -14.19731
281.68       -18.44312
282.13       -24.80187
282.59       -31.99159
283.04       -39.01104
283.50       -45.65472
283.95       -50.77686
284.41       -52.69304
284.86       -51.17921
285.32       -46.84562
285.77       -40.69338
286.22       -34.53262
286.68       -29.19742
287.13       -24.37017
287.59       -20.80054
288.04       -19.50148
288.50       -20.32574
288.95       -22.96998
289.41       -25.54205
289.86       -24.81936
290.32       -20.33885
290.77       -13.41075
291.22       -5.956079
291.68       -1.176102
292.13     -0.06580578
292.59       -1.459301
293.04       -5.230359
293.50       -11.09541
293.95       -18.38468
294.40       -27.13716
294.86       -35.10061
295.31        -38.6556
295.77       -37.25708
296.22       -31.80753
296.68        -25.4732
297.13       -23.60841
297.58        -27.3411
298.04       -34.90817
298.49       -43.40226
298.95       -48.03135
299.40       -47.54251
299.85       -43.73307
300.31       -38.14912
300.76       -33.27611
301.21       -30.21164
301.67       -27.80074
302.12       -25.85981
302.58        -27.2661
303.03       -32.47729
303.48       -35.49064
303.94       -32.95473
304.39       -49.81385
304.84       -37.01411
305.30       -33.99364
305.75       -28.90134
306.20       -27.12066
306.66       -29.30333
307.11       -34.87645
307.57       -41.35997
308.02       -43.42739
308.47       -40.15748
308.93       -33.07421
309.38       -25.66838
309.83       -23.49176
310.29       -27.68985
310.74        -36.3799
311.19       -45.72555
311.65       -49.67561
312.10       -46.77061
312.55       -38.95317
313.00       -29.61379
313.46       -24.15804
313.91        -24.0117
314.36       -27.40113
314.82       -31.81096
315.27        -33.2822
315.72       -30.75583
316.18       -25.72007
316.63       -19.90154
317.08       -15.87883
317.53       -14.48403
317.99       -14.86457
318.44       -16.14844
318.89       -17.04011
319.35       -17.13452
319.80        -16.9262
320.25       -16.91864
320.70       -17.81732
321.16        -19.7281
321.61       -22.21404
322.06       -24.74612
322.51       -26.58692
322.97       -27.53664
323.42       -27.87566
323.87       -27.86096
324.32       -27.91321
324.78       -28.18489
325.23       -28.47752
325.68       -28.91356
326.13       -29.68966
326.59       -30.76601
327.04        -32.1263
327.49       -33.19883
327.94       -33.07755
328.39       -31.57799
328.85       -28.87411
329.30        -25.8697
329.75        -23.9979
330.20        -23.6514
330.66       -24.65203
331.11       -25.82497
331.56       -25.26473
332.01       -22.61847
332.46       -18.34237
332.92         -14.315
333.37       -13.53756
333.82       -16.45098
334.27       -22.02672
334.72       -27.57024
335.17       -28.77809
335.63        -24.8516
336.08       -17.37919
336.53       -9.183227
336.98       -4.785119
337.43       -5.383071
337.88       -9.457141
338.34       -15.32897
338.79       -20.24718
339.24         -23.254
339.69       -25.34691
340.14       -26.54322
340.59       -26.85698
341.05       -26.46807
341.50       -24.93129
341.95        -23.4375
342.40       -24.10632
342.85       -27.15981
343.30        -32.0865
343.75       -36.56968
344.20       -36.79848
344.66       -32.11983
345.11       -23.82611
345.56       -14.83017
346.01       -9.777485
346.46       -9.876789
346.91       -13.82762
347.36        -19.2139
347.81       -22.10303
348.26       -21.40454
348.72       -18.26748
349.17       -14.49167
349.62       -12.97086
350.07       -14.29621
350.52       -17.21361
350.97       -20.10241
351.42        -20.5055
351.87        -17.9256
352.32       -13.61953
352.77       -8.697343
353.22       -4.762562
353.67       -2.596638
354.13       -1.782987
354.58        -2.77817
355.03       -6.310654
355.48       -12.07964
355.93        -19.5351
356.38       -27.12039
356.83       -32.33355
357.28       -34.45086
357.73       -34.05356
358.18       -31.85244
358.63       -29.22506
359.08       -26.79775
359.53        -24.2346
359.98       -22.05016
360.43       -21.01965
360.88       -21.21547
361.33       -22.63887
361.78       -24.29483
362.23       -24.38274
362.68       -22.61073
363.13       -19.58656
363.58       -16.46521
364.03        -15.1715
364.48       -16.14662
364.93       -18.61959
365.38       -21.86514
365.83       -24.73553
366.28       -26.74351
366.73       -28.25134
367.18       -28.99327
367.63        -28.5586
368.08       -27.03246
368.53       -24.48134
368.98       -21.87521
369.43       -20.82462
369.88       -21.67122
370.33        -24.0558
370.78       -26.84173
371.23       -28.11251
371.68        -27.4167
372.13       -25.30455
372.58       -22.85586
373.03       -21.83731
373.48       -22.62364
373.93       -24.53564
374.38       -26.60057
374.83        -27.2961
375.28       -26.25941
375.72       -24.13036
376.17        -21.5097
376.62       -19.32965
377.07       -17.93948
377.52       -16.99064
377.97       -16.64569
378.42       -17.13005
378.87       -18.42804
379.32        -20.6871
379.77        -23.0708
380.22       -24.20926
380.67       -23.83921
381.11        -22.1059
381.56       -20.54921
382.01       -21.68733
382.46       -25.91744
382.91       -32.53703
383.36       -39.07264
383.81        -41.5697
384.26       -39.28919
384.71       -33.44854
385.15        -27.0912
385.60       -25.14132
386.05        -28.6014
386.50       -35.73154
386.95       -43.54336
387.40       -47.24131
387.85        -45.6407
388.29       -40.53583
388.74       -33.91123
389.19       -28.89054
389.64       -26.60968
390.09       -26.05304
390.54       -27.07666
390.98       -29.45016
391.43       -32.83532
391.88       -37.50885
392.33       -42.30355
392.78       -45.23965
393.23       -45.84343
393.67       -44.23215
394.12       -42.04649
394.57       -42.13264
395.02       -45.00526
395.47       -49.87617
395.91        -54.3728
396.36        -54.6874
396.81       -50.16038
397.26       -42.14875
397.71       -33.62786
398.15       -29.29126
398.60       -30.25146
399.05       -35.05309
399.50       -41.06646
399.95       -44.01585
400.39       -42.82468
400.84       -38.98906
401.29        -34.3539
401.74       -31.86412
402.18       -32.30558
402.63        -34.3981
403.08       -37.34809
403.53       -39.99216
403.97       -41.81205
404.42       -43.41454
404.87       -44.14373
405.32       -42.89538
405.76       -39.65594
406.21       -34.53173
406.66       -29.49863
407.11       -27.78467
407.55       -29.99661
408.00       -35.40715
408.45       -41.14266
408.90       -42.51248
409.34       -38.56449
409.79       -30.65909
410.24       -22.32393
410.68       -19.20817
411.13       -22.55836
411.58       -30.62573
412.03       -39.64931
412.47       -43.64271
412.92       -41.17798
413.37       -34.12625
413.81       -26.00675
414.26        -22.4313
414.71       -24.72054
415.15       -30.91217
415.60       -37.93461
416.05       -40.96406
416.49       -38.79987
416.94       -33.24483
417.39        -26.5225
417.83       -22.08257
418.28       -20.96231
418.73       -21.88554
419.17       -23.95537
419.62       -25.80845
420.07       -26.89383
420.51       -27.89577
420.96       -28.49398
421.41       -28.02254
421.85       -26.57019
422.30       -24.22106
422.74       -22.21636
423.19       -22.66538
423.64       -25.88244
424.08       -31.11212
424.53        -36.6704
424.98       -39.90887
425.42        -39.9422
425.87       -37.22987
426.31       -32.98996
426.76       -29.19918
427.21        -26.5939
427.65       -25.11246
428.10       -23.47247
428.54       -19.57972
428.99       -13.36206
429.44       -5.640353
429.88       0.5214216
430.33        0.389799
430.77       -6.575233
431.22       -18.48345
431.66       -30.85205
432.11        -36.5978
432.56       -33.99329
433.00       -25.18338
433.45       -13.87497
433.89        -6.13089
434.34       -3.875633
434.78        -5.48175
435.23       -9.032624
435.67       -11.41873
436.12       -11.66184
436.57       -10.85374
437.01       -10.13768
437.46       -11.10661
437.90       -14.02534
438.35       -18.02736
438.79       -21.70289
439.24       -23.05874
439.68        -21.6916
440.13       -18.33977
440.57        -14.4179
441.02       -12.17779
441.46       -12.16828
441.91       -13.59532
442.35       -15.49599
442.80       -16.30099
443.24       -15.54051
443.69       -13.88309
444.13         -11.544
444.58        -8.80403
445.02        -6.00402
445.47       -3.114173
445.91      -0.9126016
446.36      -0.6412753
446.80       -2.515691
447.24       -6.258731
447.69       -10.79466
448.13       -14.32682
448.58        -16.3189
449.02       -17.05851
449.47       -17.42985
449.91       -18.96064
450.36       -21.92415
450.80       -25.73513
451.25       -29.23672
451.69       -30.67043
452.13       -29.67653
452.58       -26.89574
453.02       -23.62256
453.47        -21.8338
453.91       -22.13338
454.36       -24.10489
454.80       -26.64876
455.24       -28.00904
455.69       -27.69271
456.13       -26.03642
456.58       -24.34281
457.02       -24.67279
457.46       -27.34887
457.91       -31.75157
458.35       -35.80853
458.79       -36.22666
459.24       -32.59406
459.68       -26.26565
460.13       -20.07121
460.57       -18.48101
461.01       -22.49915
461.46        -30.5238
461.90       -40.30313
462.34       -48.18912
462.79       -52.92439
463.23       -55.52498
463.68       -56.39039
464.12       -56.31244
464.56       -55.61211
465.01       -53.57074
465.45       -51.00319
465.89       -49.38728
466.34       -48.97589
466.78       -49.86324
467.22       -50.14989
467.67       -46.58093
468.11       -38.83263
468.55       -28.03907
468.99        -17.6823
469.44       -13.26026
469.88       -15.88774
470.32       -23.88654
470.77       -33.32119
471.21       -37.84642
471.65       -35.85775
472.10        -29.1661
472.54       -21.14401
472.98        -17.3028
473.42       -18.94884
473.87       -24.10093
474.31       -30.00831
474.75       -32.34032
475.20       -30.08892
475.64       -25.13474
476.08       -19.25035
476.52       -15.13302
476.97       -13.65642
477.41       -13.56454
477.85       -14.89869
478.29       -17.82498
478.74       -21.87534
479.18       -27.13911
479.62       -31.40319
480.06        -31.0268
480.50       -25.60617
480.95        -16.2967
481.39       -6.600438
481.83       -2.266049
482.27       -4.580574
482.72       -11.76172
483.16        -20.6816
483.60       -26.17283
484.04       -26.78717
484.48       -24.21892
484.93       -20.18005
485.37       -17.42006
485.81       -16.87072
486.25       -17.40648
486.69       -18.71134
487.14       -20.49463
487.58       -22.32827
488.02       -24.31236
488.46         -25.729
488.90       -25.24417
489.34       -22.73652
489.79       -18.80863
490.23       -14.17555
490.67       -10.07804
491.11       -7.060147
491.55       -4.788988
491.99       -3.853264
492.43       -5.077146
492.88       -8.329837
493.32       -13.34588
493.76       -18.29986
494.20       -20.25478
494.64       -18.59691
495.08       -14.02746
495.52       -8.679084
495.96        -6.11353
496.41        -7.18031
496.85       -10.84577
497.29       -15.09161
497.73       -16.65458
498.17       -14.74607
498.61       -10.47254
499.05       -5.638456
499.49       -3.047534
499.93       -3.449274
500.37       -5.960947
500.82       -9.159125
501.26        -10.7935
501.70       -10.33676
502.14       -8.628076
502.58       -6.823683
503.02       -6.744871
503.46       -8.723853
503.90       -11.80455
504.34       -15.16397
504.78       -17.57692
505.22       -18.59347
505.66       -18.77773
506.10       -17.80996
506.54       -15.17846
506.98        -11.1039
507.42       -5.736243
507.86       -0.807295
508.30       0.9110171
508.74       -1.058355
509.18        -6.02192
509.62       -11.64005
510.06       -14.00196
510.50       -12.31744
510.94       -7.884711
511.38       -3.033529
511.82       -1.576548
512.26       -4.390341
512.70       -9.954688
513.14       -16.66524
513.58       -22.00638
514.02       -25.06262
514.46       -26.72089
514.90       -26.94867
515.34       -25.66796
515.78       -23.21265
516.22       -19.49423
516.66       -15.86154
517.10        -14.6382
517.54       -16.11714
517.98       -19.54029
518.42       -23.13893
518.86       -23.91472
519.30        -21.2125
519.74       -16.23605
520.18        -10.1517
520.62       -4.823681
521.06       -1.133854
521.50        1.356168
521.93        2.069354
522.37        0.145595
522.81       -4.290831
523.25       -10.94112
523.69       -18.21797
524.13       -23.51026
524.57       -26.05827
525.01       -26.25208
525.45       -25.30007
525.89       -25.39487
526.32       -27.06064
526.76        -29.5988
527.20        -31.9496
527.64       -32.40815
528.08       -30.72016
528.52       -27.80697
528.96       -24.72519
529.40       -23.00924
529.83        -23.1538
530.27       -24.58664
530.71       -26.99567
531.15       -29.93737
531.59        -32.9289
532.03       -35.83466
532.46       -38.03471
532.90       -38.53186
533.34       -37.23502
533.78       -34.67716
534.22       -31.28876
534.66       -27.81591
535.09       -24.78917
535.53       -22.11895
535.97       -20.77086
536.41        -22.2397
536.85       -26.38321
537.28       -32.36144
537.72       -38.22919
538.16       -40.81987
538.60       -39.43198
539.04       -35.30608
539.47       -29.49501
539.91       -23.78407
540.35       -19.18326
540.79       -15.29514
541.22       -13.40921
541.66       -15.54241
542.10       -21.56176
542.54        -30.5691
542.97       -39.82568
543.41       -44.81595
543.85       -44.45499
544.29       -40.13492
544.72       -33.64943
545.16        -28.1158
545.60       -24.73916
546.04       -22.59151
546.47       -21.98962
546.91       -23.41638
547.35       -26.51841
547.79       -31.18546
548.22       -35.66225
548.66          -36.91
549.10       -34.42738
549.53       -29.27095
549.97       -23.18402
550.41       -19.12627
550.84       -18.04527
551.28       -18.97276
551.72       -21.59192
552.15       -25.37126
552.59       -29.62603
553.03       -34.25558
553.46        -37.9041
553.90       -38.39995
554.34       -35.36288
554.77       -29.46253
555.21       -22.11818
555.65       -15.71822
556.08       -11.28679
556.52        -8.63076
556.96        -7.58766
557.39       -7.696063
557.83       -8.695852
558.27       -10.60294
558.70       -13.51592
559.14       -17.50453
559.57       -22.22315
560.01        -27.2582
560.45       -31.34317
560.88        -32.6663
561.32        -31.0093
561.75       -27.05278
562.19       -22.43404
562.63       -19.83318
563.06       -19.97844
563.50       -22.09203
563.93       -25.24257
564.37       -27.81917
564.80       -29.23307
565.24       -30.04424
565.68       -30.23272
566.11        -29.7067
566.55       -28.68243
566.98       -27.22059
567.42       -26.01881
567.85       -26.26375
568.29       -28.21219
568.72        -31.4987
569.16         -35.474
569.60       -39.09904
570.03       -41.79031
570.47       -43.41338
570.90       -44.01307
571.34       -43.75544
571.77       -42.72459
572.21       -41.13545
572.64        -38.4869
573.08         -33.938
573.51       -27.89693
573.95       -21.18353
574.38       -15.87642
574.82        -15.1618
