SpectraSmart Spectrum 2.9.0.0
--------- Device Information -----------
Spectrum Name :  光譜_0
Saving Time :  2024/05/03 19:24:31
Spectro-Module Model Name : SE2030-DUVN
Spectro-Module Serial Number : OS361AC55029948
Wavelength Start : 200
Wavelength End : 1025
Wavelength Unit : Wavelength(nm)
Spectrum Unit : Intensity(Counts)
-----------Spectrum Setting ------------
Integration Time : 20ms
Average : 10
Boxcar : 0
Background removal :  enabled
linearity correction :  enabled
SC :  disabled
Intensity correction :  disabled
DWT denoise :  enabled
savitzky-golay :  disabled
FFT :  disabled
Running average :  disabled
Kalman :  disabled
High pass :  disabled
---------------BEGIN--------------------
Wavelength(nm)          Intensity(Counts)
200.29       -25.56775
200.75       -26.32947
201.21       -27.53953
201.67       -28.82863
202.13       -29.57175
202.58       -29.59392
203.04       -29.01913
203.50       -28.11944
203.96        -27.3578
204.42       -26.96687
204.88       -26.95806
205.34       -27.20933
205.80       -27.54137
206.26       -27.84021
206.72       -27.93717
207.18       -28.21308
207.64       -29.27852
208.10       -31.06028
208.55       -33.35026
209.01       -34.83252
209.47       -33.42315
209.93       -28.97297
210.39       -22.39098
210.85       -15.77212
211.31       -12.44489
211.77       -13.21429
212.23       -17.02515
212.69       -22.33621
213.14       -26.57423
213.60        -28.8618
214.06       -29.95115
214.52       -30.12911
214.98       -29.91485
215.44       -29.57616
215.90       -28.70363
216.36       -27.83204
216.81       -27.96068
217.27       -29.21711
217.73        -31.4882
218.19       -33.69507
218.65       -33.98716
219.11       -32.05938
219.57       -28.50315
220.02       -24.75809
220.48       -23.15001
220.94       -24.18995
221.40       -27.10692
221.86       -30.55193
222.32       -32.35312
222.77       -31.93543
223.23       -30.03063
223.69       -27.53252
224.15       -25.86261
224.61       -25.46776
225.06       -25.82892
225.52       -26.60536
225.98       -27.31095
226.44       -27.71161
226.90       -28.00211
227.36       -28.11016
227.81       -27.84277
228.27       -27.23546
228.73       -26.38027
229.19       -25.46644
229.65       -24.83961
230.10       -24.62877
230.56       -24.73462
231.02       -25.23825
231.48       -26.25311
231.93       -27.66635
232.39       -29.34407
232.85       -30.86903
233.31       -31.56297
233.77       -31.33345
234.22       -30.49766
234.68       -29.36582
235.14       -28.47168
235.60       -28.03709
236.05       -27.84504
236.51       -28.21194
236.97       -29.59217
237.43       -31.82281
237.88       -34.88053
238.34       -37.77713
238.80       -38.31071
239.26       -36.07478
239.71       -34.07779
240.17       -29.27713
240.63       -27.01325
241.08       -26.54352
241.54       -27.32566
242.00       -28.66841
242.46       -29.50355
242.91       -29.46236
243.37       -28.91789
243.83       -27.78116
244.28       -25.87081
244.74       -23.31258
245.20       -20.13001
245.66       -17.04986
246.11       -15.28811
246.57        -15.0853
247.03       -16.15086
247.48       -17.62482
247.94       -18.05412
248.40       -17.07294
248.85       -15.08277
249.31       -12.80397
249.77       -11.43146
250.22       -11.23751
250.68       -11.75856
251.14       -12.42059
251.59       -12.33132
252.05        -11.2711
252.51       -9.647272
252.96        -7.75805
253.42       -6.038132
253.88       -4.687687
254.33        -3.52151
254.79       -2.699316
255.25       -2.516491
255.70       -2.884347
256.16       -3.631459
256.62       -4.219632
257.07       -3.759656
257.53       -2.104146
257.99       0.3560553
258.44        3.187338
258.90         5.68619
259.35         7.49884
259.81        8.739555
260.27        9.137783
260.72        8.311334
261.18        6.333765
261.63        3.406319
262.09        0.220766
262.55       -2.106062
263.00       -3.226335
263.46       -3.330049
263.91       -2.815783
264.37       -2.416097
264.83       -2.400368
265.28       -2.617939
265.74       -2.900151
266.19       -2.988373
266.65       -2.816633
267.11       -2.478554
267.56       -2.277392
268.02       -2.621384
268.47        -3.56952
268.93       -5.039522
269.38       -6.419791
269.84       -6.750371
270.30       -5.895274
270.75       -4.138149
271.21       -2.457451
271.66        -2.42354
272.12       -4.323135
272.57       -7.628905
273.03       -11.17208
273.48       -13.08184
273.94       -12.88651
274.39       -11.14022
274.85       -8.796809
275.31        -7.41449
275.76       -7.399364
276.22        -8.19978
276.67       -9.146371
277.13       -9.213102
277.58       -8.092812
278.04       -6.185371
278.49       -3.900263
278.95       -1.789209
279.40      -0.1696185
279.86       0.9170389
280.31        1.599303
280.77        2.085007
281.22        2.387938
281.68        2.518645
282.13        1.894574
282.59      -0.3761889
283.04       -4.226703
283.50       -9.180196
283.95       -13.75347
284.41       -15.67727
284.86       -14.45741
285.32       -10.71388
285.77       -6.041954
286.22       -3.049289
286.68       -2.480635
287.13       -3.733061
287.59       -5.528211
288.04       -5.756419
288.50       -3.923097
288.95      -0.7288295
289.41        2.492851
289.86         3.69186
290.32        2.446141
290.77      -0.5100825
291.22       -3.697202
291.68        -4.82085
292.13       -3.370071
292.59       -0.133984
293.04         3.45447
293.50        5.139854
293.95        4.319151
294.40        1.702685
294.86       -1.609157
295.31       -3.886162
295.77       -4.590045
296.22        -4.19183
296.68       -3.421605
297.13       -3.423912
297.58       -4.468909
298.04       -6.144989
298.49       -7.701268
298.95       -7.998275
299.40       -6.869985
299.85       -4.839015
300.31       -2.816139
300.76       -2.194606
301.21       -3.299498
301.67       -5.608037
302.12         -8.4377
302.58       -10.70943
303.03       -12.01066
303.48        -12.6104
303.94        -12.6013
304.39       -12.15063
304.84         -11.408
305.30       -10.33484
305.75       -9.145603
306.20        -8.22578
306.66       -7.703818
307.11        -7.56279
307.57       -7.743217
308.02       -8.065092
308.47       -8.447563
308.93       -8.930017
309.38       -9.404099
309.83       -9.712949
310.29       -9.802454
310.74       -9.632207
311.19       -9.352457
311.65       -9.238632
312.10       -9.344939
312.55       -9.629129
313.00       -9.818159
313.46       -9.470242
313.91       -8.528961
314.36       -7.142776
314.82       -5.770331
315.27       -5.133763
315.72       -5.371264
316.18       -6.254674
316.63       -7.245553
317.08       -7.475612
317.53       -6.744789
317.99       -5.338633
318.44       -3.743931
318.89       -2.736993
319.35       -2.538325
319.80       -2.900982
320.25       -3.487697
320.70        -3.78576
321.16       -3.601178
321.61       -3.039095
322.06       -2.325393
322.51        -1.78362
322.97       -1.535201
323.42       -1.590916
323.87       -1.586218
324.32      -0.9631824
324.78       0.3278894
325.23        2.166405
325.68        3.683816
326.13        3.501851
326.59        1.478461
327.04       -1.890446
327.49       -5.193959
327.94       -6.164678
328.39        -4.38562
328.85      -0.6892284
329.30        3.490234
329.75        5.831593
330.20        5.695159
330.66        3.872033
331.11         1.08873
331.56       -1.471178
332.01       -3.299074
332.46       -4.775828
332.92       -5.665689
333.37       -5.568326
333.82       -4.533625
334.27       -2.601397
334.72      -0.5290373
335.17       0.3803419
335.63       -0.177059
336.08       -1.921014
336.53       -4.079519
336.98       -5.330964
337.43       -5.341134
337.88       -4.497754
338.34       -3.476754
338.79        -3.35403
339.24       -4.397318
339.69       -6.234563
340.14       -8.228919
340.59       -9.425337
341.05       -9.542328
341.50       -8.806247
341.95       -7.812031
342.40       -7.492064
342.85       -8.059191
343.30       -9.278919
343.75       -10.39074
344.20       -10.18354
344.66        -8.50247
345.11       -5.839708
345.56       -3.303155
346.01       -2.618168
346.46       -4.146961
346.91        -7.28471
347.36       -10.96451
347.81       -13.48179
348.26       -14.31791
348.72       -13.93171
349.17       -12.89347
349.62       -12.16553
350.07       -12.02158
350.52       -12.06002
350.97       -12.03068
351.42       -11.59196
351.87       -10.64759
352.32        -9.46611
352.77       -8.095142
353.22        -6.50391
353.67       -4.840285
354.13       -3.236966
354.58       -2.008193
355.03       -1.649374
355.48       -2.229498
355.93       -3.493715
356.38       -5.223975
356.83       -7.070349
357.28       -8.773011
357.73       -10.31342
358.18        -11.3116
358.63       -11.21022
359.08       -10.00282
359.53        -7.93103
359.98       -5.599825
360.43        -4.02056
360.88       -3.462967
361.33       -3.613438
361.78       -4.234121
362.23       -4.870437
362.68       -5.314047
363.13       -5.773379
363.58       -5.912429
364.03       -5.179707
364.48       -3.590538
364.93       -1.298352
365.38       0.8289009
365.83         1.36973
366.28      0.05735814
366.73        -2.67543
367.18       -5.800908
367.63       -7.651337
368.08       -7.756773
368.53       -6.532992
368.98       -4.780506
369.43       -3.808101
369.88       -3.983114
370.33       -4.944775
370.78       -5.997854
371.23       -6.056777
371.68       -4.912345
372.13       -2.972228
372.58       -1.101193
373.03      -0.6161467
373.48       -1.775632
373.93       -4.112444
374.38        -6.65467
374.83       -7.874725
375.28        -7.39571
375.72       -5.685014
376.17       -3.561175
376.62       -2.359729
377.07       -2.412165
377.52         -3.2438
377.97       -4.304429
378.42       -4.698785
378.87       -4.242188
379.32       -3.436819
379.77       -2.498109
380.22       -1.729296
380.67       -1.285892
381.11      -0.8977972
381.56       -1.052168
382.01       -2.560389
382.46       -5.381819
382.91       -9.264125
383.36       -12.81196
383.81       -13.78212
384.26       -11.82043
384.71       -7.653245
385.15       -3.095432
385.60        -1.10692
386.05       -2.384502
386.50       -5.990511
386.95       -10.43189
387.40       -13.25374
387.85       -13.77171
388.29       -12.84801
388.74       -11.23907
389.19       -10.14439
389.64       -9.982334
390.09       -10.20726
390.54        -10.8506
390.98       -12.04831
391.43       -13.66833
391.88       -15.76517
392.33       -17.61704
392.78       -17.99117
393.23       -16.71432
393.67       -14.13745
394.12       -11.31524
394.57       -10.00216
395.02       -10.58258
395.47        -12.4987
395.91       -14.81017
396.36       -15.95597
396.81       -15.54903
397.26       -14.19053
397.71       -12.39565
398.15       -11.00015
398.60       -10.26855
399.05       -9.751918
399.50       -9.603177
399.95       -10.10194
400.39       -11.16436
400.84       -12.85365
401.29       -14.19614
401.74       -13.57506
402.18         -10.836
402.63       -6.505953
403.08       -2.288422
403.53      -0.9431133
403.97       -3.015172
404.42       -7.593447
404.87       -12.90325
405.32       -16.05892
405.76       -16.28662
406.21       -14.49275
406.66       -11.83106
407.11       -10.18424
407.55       -10.13884
408.00       -11.01609
408.45       -12.40584
408.90       -13.70013
409.34       -14.64671
409.79       -15.57953
410.24       -16.33474
410.68       -16.56449
411.13       -16.24732
411.58       -15.34899
412.03       -14.39743
412.47         -14.311
412.92       -15.23859
413.37       -16.94405
413.81        -18.6106
414.26       -18.90792
414.71       -17.57867
415.15       -15.05156
415.60       -12.30054
416.05       -10.87363
416.49       -11.15484
416.94       -12.68448
417.39       -14.55651
417.83         -15.338
418.28       -14.62175
418.73       -12.78527
419.17       -10.63082
419.62       -9.407308
420.07       -9.452619
420.51       -10.47607
420.96       -11.57419
421.41       -11.33337
421.85       -9.507535
422.30        -6.53431
422.74       -3.742877
423.19       -3.228564
423.64       -5.324814
424.08       -9.261975
424.53       -13.33177
424.98       -14.82837
425.42       -13.14477
425.87       -9.210617
426.31       -4.548085
426.76       -1.584555
427.21       -1.074027
427.65       -2.333745
428.10       -4.560429
428.54       -6.449644
428.99       -7.553905
429.44       -8.278746
429.88       -8.944509
430.33       -10.01892
430.77        -11.5419
431.22       -13.11856
431.66       -14.37048
432.11       -14.83282
432.56        -14.3835
433.00       -13.24883
433.45       -11.63986
433.89       -9.856313
434.34       -8.117843
434.78       -6.479434
435.23       -5.137516
435.67       -4.349564
436.12        -4.17926
436.57       -4.586309
437.01       -5.421166
437.46       -6.404821
437.90       -7.376694
438.35       -8.288292
438.79        -9.05663
439.24       -9.610315
439.68       -9.904749
440.13        -9.91154
440.57       -9.623095
441.02       -9.059674
441.46       -8.299027
441.91       -7.441495
442.35       -6.629532
442.80       -6.058184
443.24       -5.799413
443.69       -5.807108
444.13       -6.103005
444.58       -6.691666
445.02       -7.510172
445.47       -8.530733
445.91       -9.507285
446.36       -10.05135
446.80       -10.11359
447.24       -9.822915
447.69       -9.490624
448.13       -9.647587
448.58       -10.40685
449.02       -11.55608
449.47       -12.91414
449.91       -14.17271
450.36       -15.21483
450.80       -16.18966
451.25       -16.95386
451.69       -17.27559
452.13       -17.18447
452.58        -16.7267
453.02       -16.41465
453.47       -17.07523
453.91       -18.83946
454.36       -21.45454
454.80       -24.16071
455.24       -25.75671
455.69       -25.89717
456.13       -24.80199
456.58       -23.21682
457.02       -22.35883
457.46       -22.54386
457.91       -23.53547
458.35        -24.4264
458.79       -23.75588
459.24       -21.34138
459.68        -17.7498
460.13       -14.44049
460.57       -13.67062
461.01       -15.88285
461.46       -20.32179
461.90       -25.34164
462.34       -28.32324
462.79       -28.56005
463.23        -26.7589
463.68       -24.21667
464.12       -23.06228
464.56       -23.83027
465.01       -25.78265
465.45       -27.86186
465.89       -28.43243
466.34       -27.09515
466.78       -24.49177
467.22       -21.46109
467.67       -19.26519
468.11       -18.27373
468.55       -18.05896
468.99        -18.1388
469.44        -17.7631
469.88       -16.71044
470.32       -15.28958
470.77       -13.70676
471.21       -12.25493
471.65       -11.03702
472.10       -9.875467
472.54       -8.801146
472.98       -7.912123
473.42        -7.17091
473.87       -6.578418
474.31       -5.890869
474.75       -4.670355
475.20       -2.918156
475.64      -0.8853319
476.08        1.064869
476.52         2.34067
476.97        2.801847
477.41         2.74229
477.85        2.208038
478.29         1.27285
478.74       0.1321865
479.18       -1.198744
479.62       -2.099064
480.06       -1.569634
480.50       0.4277143
480.95        3.442551
481.39        6.483109
481.83        7.936475
482.27        7.399726
482.72        5.432069
483.16        2.587167
483.60      -0.2066466
484.04       -2.477598
484.48       -4.411252
484.93       -5.649775
485.37       -5.637261
485.81       -4.414588
486.25       -2.189436
486.69       0.3210205
487.14        1.874672
487.58        2.163219
488.02        1.582164
488.46        0.454274
488.90       -0.610767
489.34       -1.326217
489.79       -1.928184
490.23       -1.979243
490.67      -0.7898002
491.11        1.639163
491.55        5.144217
491.99        8.628171
492.43        10.29223
492.88        9.767217
493.32        7.501048
493.76        4.770937
494.20        3.714462
494.64         4.78167
495.08        7.248995
495.52         9.88952
495.96         10.7162
496.41         9.27728
496.85         6.37623
497.29        2.870948
497.73       0.1084402
498.17       -1.467147
498.61       -2.388556
499.05       -2.680018
499.49       -2.379448
499.93       -1.646624
500.37      -0.3119155
500.82       0.8009487
501.26       0.3239638
501.70       -1.915611
502.14       -5.605487
502.58       -9.216233
503.02       -10.26456
503.46       -8.233425
503.90        -3.78138
504.34        1.169213
504.78        3.531793
505.22        2.546524
505.66       -1.018438
506.10       -5.102498
506.54       -6.385959
506.98       -4.157092
507.42       0.5633155
507.86        5.374739
508.30        6.485417
508.74        3.132813
509.18       -3.367331
509.62        -10.3374
510.06       -13.56843
510.50       -12.06072
510.94       -7.187665
511.38       -1.342731
511.82        1.668147
512.26       0.8198441
512.70       -2.668827
513.14       -7.060135
513.58       -9.605173
514.02       -9.537544
514.46       -7.819125
514.90         -5.5697
515.34       -4.505821
515.78        -5.06157
516.22        -6.46587
516.66       -8.012755
517.10       -8.697056
517.54       -8.204496
517.98       -7.013653
518.42       -5.328944
518.86       -3.380609
519.30       -1.442811
519.74       0.4431149
520.18        1.838557
520.62        2.044449
521.06       0.9507465
521.50       -1.215238
521.93       -4.004742
522.37       -6.646866
522.81        -8.81971
523.25       -10.62249
523.69       -12.01739
524.13       -13.02074
524.57       -13.69168
525.01       -13.99387
525.45        -14.1408
525.89       -14.52118
526.32       -15.24309
526.76        -16.2555
527.20       -17.41664
527.64       -18.43944
528.08       -19.24413
528.52       -19.92638
528.96       -20.52789
529.40       -21.12499
529.83       -21.72215
530.27       -22.22039
530.71       -22.65671
531.15        -23.1053
531.59       -23.57449
532.03        -24.1073
532.46       -24.48138
532.90       -24.34154
533.34       -23.65492
533.78       -22.49485
534.22       -21.38092
534.66       -21.14258
535.09       -21.91022
535.53       -23.45284
535.97       -25.00459
536.41       -25.31298
536.85       -24.16582
537.28       -22.02935
537.72       -19.77981
538.16       -18.81692
538.60       -19.48267
539.04       -21.26556
539.47       -23.52867
539.91       -25.28275
540.35       -26.11235
540.79       -26.20463
541.22       -25.66502
541.66       -24.67216
542.10       -23.35862
542.54       -21.74717
542.97       -19.83389
543.41       -17.63572
543.85       -15.32135
544.29        -13.0753
544.72       -11.40494
545.16       -11.02348
545.60       -12.00658
546.04        -14.0525
546.47       -16.50216
546.91       -18.29837
547.35       -19.08321
547.79        -19.0552
548.22       -18.46248
548.66       -17.79154
549.10       -17.20748
549.53       -16.52447
549.97       -15.74383
550.41       -14.88655
550.84       -13.97843
551.28       -13.15659
551.72       -12.33906
552.15       -11.33008
552.59       -10.12407
553.03       -8.749286
553.46       -7.513629
553.90       -6.917205
554.34       -7.009187
554.77       -7.622141
555.21       -8.248604
555.65       -8.055984
556.08       -6.930452
556.52       -5.236921
556.96       -3.517092
557.39       -2.649337
557.83       -2.856888
558.27       -3.752502
558.70       -5.165966
559.14       -6.835092
559.57       -8.510845
560.01       -10.23847
560.45       -11.49634
560.88        -11.4354
561.32       -10.04078
561.75       -7.691681
562.19       -5.254735
562.63       -4.158014
563.06       -4.759236
563.50       -6.559224
563.93       -9.116157
564.37       -11.68139
564.80       -13.84484
565.24       -15.76001
565.68       -17.01926
566.11       -16.97805
566.55       -15.67724
566.98       -13.41917
567.42       -11.03513
567.85        -9.87752
568.29       -10.38028
568.72       -12.25871
569.16       -15.09866
569.60       -18.17643
570.03       -21.06357
570.47       -23.66885
570.90       -25.90963
571.34       -27.72481
571.77       -28.98135
572.21       -29.61304
572.64       -29.18284
573.08       -27.05088
573.51       -23.44245
573.95       -19.00315
574.38       -14.89877
574.82       -12.89801
