SpectraSmart Spectrum 2.9.0.0
--------- Device Information -----------
Spectrum Name :  光譜_0
Saving Time :  2024/04/25 22:31:41
Spectro-Module Model Name : SE2030-DUVN
Spectro-Module Serial Number : OS361AC55029948
Wavelength Start : 200
Wavelength End : 1025
Wavelength Unit : Wavelength(nm)
Spectrum Unit : Intensity(Counts)
-----------Spectrum Setting ------------
Integration Time : 1ms
Average : 10
Boxcar : 0
Background removal :  enabled
linearity correction :  enabled
SC :  disabled
Intensity correction :  disabled
DWT denoise :  enabled
savitzky-golay :  disabled
FFT :  disabled
Running average :  disabled
Kalman :  disabled
High pass :  disabled
---------------BEGIN--------------------
Wavelength(nm)          Intensity(Counts)
200.29       -19.57882
200.75       -19.20165
201.21       -18.89275
201.67       -18.30857
202.13       -16.82668
202.58       -14.44909
203.04       -11.42481
203.50       -8.571526
203.96        -7.17034
204.42       -7.569517
204.88       -9.500594
205.34       -12.13786
205.80       -14.15433
206.26       -15.07219
206.72       -14.93877
207.18       -14.51214
207.64       -15.10238
208.10        -16.7961
208.55        -19.0792
209.01       -20.40641
209.47       -18.34867
209.93       -12.72602
210.39       -4.786569
210.85        3.273903
211.31         8.06539
211.77        8.598619
212.23        5.878661
212.69        1.005875
213.14       -4.162718
213.60       -8.697125
214.06       -12.86214
214.52       -16.21286
214.98       -18.11078
215.44       -18.44846
215.90       -17.19368
216.36       -14.84679
216.81       -12.44106
217.27       -10.36726
217.73       -8.522531
218.19       -6.903361
218.65       -5.370908
219.11       -3.847389
219.57       -2.437401
220.02      -0.9864883
220.48       0.8306433
220.94        3.093962
221.40        5.755572
221.86        8.742273
222.32        11.86893
222.77        15.08921
223.23        18.52237
223.69         22.1068
224.15        25.72309
224.61        29.41368
225.06        33.22576
225.52        37.45241
225.98         42.5792
226.44        48.64059
226.90         55.3977
227.36        62.45602
227.81        69.18225
228.27        75.37392
228.73        81.21689
229.19        86.78345
229.65        92.21181
230.10        97.61162
230.56         102.906
231.02        108.2968
231.48         114.149
231.93        120.3791
232.39        126.6475
232.85        132.4169
233.31        136.9085
233.77        139.7097
234.22        140.7557
234.68        139.9951
235.14        137.4715
235.60        133.2852
236.05        127.5628
236.51        120.4032
236.97        111.9604
237.43        102.5308
237.88        92.39737
238.34        82.25089
238.80        73.01588
239.26        64.97099
239.71        58.06098
240.17        51.72035
240.63        44.89814
241.08         37.4315
241.54        29.75737
242.00        22.54916
242.46        16.87066
242.91        12.99248
243.37        10.50363
243.83        9.010457
244.28        7.907676
244.74         6.90452
245.20         6.12002
245.66        5.434272
246.11         4.67223
246.57         3.83463
247.03        2.914912
247.48        2.152841
247.94        2.001966
248.40        2.562956
248.85        3.706432
249.31        5.257906
249.77        6.902166
250.22        8.546725
250.68        10.32725
251.14        12.25117
251.59        14.33492
252.05        16.64663
252.51        19.19854
252.96         22.2862
253.42         26.3656
253.88        31.61395
254.33        38.12865
254.79        45.67057
255.25        53.74566
255.70        62.46736
256.16        72.29863
256.62        84.06094
257.07        98.91823
257.53        117.2838
257.99        139.0233
258.44        163.6725
258.90        190.3758
259.35        218.8474
259.81        249.1985
260.27        281.6964
260.72        316.8335
261.18        354.4049
261.63         393.688
262.09         433.765
262.55        473.4073
263.00        511.9927
263.46        549.4303
263.91        585.5399
264.37        620.3285
264.83        653.5848
265.28        684.7501
265.74        713.8475
266.19        741.1331
266.65        766.4725
267.11        789.7864
267.56        810.1694
268.02        826.2121
268.47        837.9033
268.93        845.9841
269.38        852.3479
269.84        859.8533
270.30        869.5516
270.75        881.3629
271.21        894.0974
271.66        905.5004
272.12        915.4085
272.57        924.9762
273.03        936.4324
273.48        953.1217
273.94        975.7324
274.39        1003.111
274.85        1033.123
275.31        1062.319
275.76         1089.83
276.22        1116.869
276.67         1144.74
277.13         1175.58
277.58        1210.023
278.04        1247.015
278.49         1286.39
278.95        1328.043
279.40        1371.387
279.86        1416.171
280.31        1460.759
280.77        1502.581
281.22        1541.094
281.68        1576.876
282.13        1611.565
282.59        1648.033
283.04        1687.013
283.50        1727.605
283.95        1768.797
284.41        1808.842
284.86        1847.283
285.32        1885.013
285.77        1922.149
286.22        1958.793
286.68        1995.142
287.13        2030.826
287.59        2066.922
288.04        2105.253
288.50        2145.795
288.95        2187.781
289.41        2228.509
289.86        2263.789
290.32        2292.523
290.77        2315.468
291.22        2335.369
291.68        2356.881
292.13        2381.009
292.59        2406.398
293.04        2430.007
293.50        2446.922
293.95        2456.405
294.40        2460.728
294.86        2463.476
295.31        2470.133
295.77        2482.372
296.22        2498.725
296.68        2517.456
297.13        2535.573
297.58        2552.243
298.04        2568.946
298.49        2586.209
298.95        2604.638
299.40        2624.845
299.85        2646.641
300.31        2671.259
300.76        2700.769
301.21        2735.404
301.67        2774.568
302.12        2816.456
302.58        2857.981
303.03        2898.392
303.48        2938.624
303.94        2979.798
304.39         3023.87
304.84        3071.257
305.30        3120.717
305.75        3171.809
306.20        3224.115
306.66        3276.653
307.11        3328.702
307.57        3378.292
308.02        3422.542
308.47        3460.643
308.93        3493.108
309.38        3521.185
309.83        3547.198
310.29        3572.064
310.74        3595.413
311.19        3617.221
311.65        3637.271
312.10        3655.551
312.55        3672.515
313.00        3688.061
313.46         3701.78
313.91          3713.6
314.36        3723.517
314.82         3731.86
315.27        3739.227
315.72        3745.704
316.18        3751.118
316.63        3754.894
317.08        3756.129
317.53        3754.663
317.99        3750.776
318.44        3745.202
318.89        3739.128
319.35        3732.751
319.80        3725.566
320.25        3716.758
320.70        3705.081
321.16        3690.106
321.61        3672.126
322.06         3651.53
322.51        3628.957
322.97        3604.703
323.42         3578.72
323.87        3550.846
324.32        3520.868
324.78         3488.78
325.23         3454.67
325.68        3419.223
326.13        3383.384
326.59        3347.386
327.04        3311.255
327.49        3273.728
327.94        3232.767
328.39        3188.147
328.85        3140.464
329.30        3092.203
329.75        3047.333
330.20        3006.586
330.66        2968.852
331.11         2931.09
331.56        2888.275
332.01        2839.674
332.46         2787.59
332.92        2735.442
333.37        2688.534
333.82        2648.599
334.27        2614.174
334.72        2584.138
335.17        2556.529
335.63        2530.391
336.08        2506.404
336.53        2483.783
336.98        2461.159
337.43        2438.411
337.88        2415.704
338.34        2394.523
338.79        2377.504
339.24         2365.29
339.69        2357.222
340.14         2351.96
340.59        2347.257
341.05        2342.426
341.50         2338.03
341.95        2334.991
342.40        2334.769
342.85        2337.696
343.30         2343.23
343.75        2350.251
344.20        2357.104
344.66        2363.359
345.11        2369.336
345.56        2376.211
346.01        2385.953
346.46        2398.645
346.91        2413.148
347.36        2427.564
347.81        2439.046
348.26        2446.796
348.72        2451.708
349.17        2454.908
349.62        2458.221
350.07         2462.56
350.52        2467.816
350.97        2474.182
351.42        2481.819
351.87        2490.843
352.32        2501.449
352.77        2513.677
353.22        2527.438
353.67        2542.335
354.13        2557.795
354.58        2573.175
355.03        2587.631
355.48        2600.832
355.93        2613.053
356.38        2623.996
356.83        2633.303
357.28        2641.309
357.73        2648.358
358.18        2656.143
358.63        2667.277
359.08        2682.179
359.53        2699.981
359.98        2718.522
360.43        2734.325
360.88         2746.22
361.33        2754.746
361.78        2761.225
362.23         2767.99
362.68        2775.624
363.13        2783.474
363.58        2790.139
364.03        2793.389
364.48        2793.126
364.93        2790.639
365.38        2788.024
365.83        2788.494
366.28        2792.588
366.73        2798.661
367.18        2805.236
367.63        2810.013
368.08         2811.85
368.53        2811.344
368.98        2807.194
369.43        2797.549
369.88        2782.603
370.33        2763.056
370.78        2742.795
371.23        2727.865
371.68        2720.197
372.13          2719.5
372.58        2721.828
373.03        2720.409
373.48        2713.916
373.93        2704.043
374.38        2697.293
374.83         2703.76
375.28        2725.289
375.72          2759.1
376.17        2795.346
376.62        2818.524
377.07        2825.375
377.52        2819.851
377.97        2814.231
378.42        2828.493
378.87        2866.145
379.32        2919.969
379.77         2975.14
380.22        3008.195
380.67        3013.782
381.11        2999.993
381.56        2979.552
382.01        2972.916
382.46        2985.946
382.91         3012.06
383.36        3045.066
383.81        3074.578
384.26        3098.013
384.71        3121.558
385.15        3145.687
385.60        3170.392
386.05        3196.887
386.50         3222.79
386.95        3256.418
387.40        3311.945
387.85        3389.649
388.29        3484.909
388.74        3579.755
389.19        3644.238
389.64        3674.742
390.09        3684.328
390.54        3692.681
390.98        3732.104
391.43         3809.47
391.88        3908.844
392.33        4024.167
392.78        4142.947
393.23        4253.562
393.67        4369.661
394.12        4468.796
394.57        4481.601
395.02        4425.237
395.47        4395.465
395.91        4409.425
396.36        4424.139
396.81        4446.514
397.26        4511.279
397.71        4616.022
398.15        4728.823
398.60        4837.606
399.05        4958.459
399.50        5065.845
399.95         5090.04
400.39        5039.863
400.84        4994.213
401.29        4966.993
401.74         4922.97
402.18        4872.381
402.63        4850.702
403.08        4857.117
403.53        4870.248
403.97        4884.855
404.42        4903.344
404.87        4927.624
405.32         4955.76
405.76        4984.866
406.21        5025.412
406.66         5056.11
407.11        5021.456
407.55        4933.334
408.00        4852.934
408.45        4806.201
408.90        4803.317
409.34        4839.064
409.79        4882.131
410.24        4910.586
410.68        4920.037
411.13        4902.862
411.58        4844.338
412.03        4771.713
412.47        4744.147
412.92        4771.779
413.37        4833.813
413.81        4902.662
414.26        4935.726
414.71        4921.388
415.15        4874.195
415.60        4813.768
416.05        4770.735
416.49        4754.891
416.94        4757.543
417.39        4769.879
417.83        4776.625
418.28        4776.097
418.73        4779.834
419.17        4792.242
419.62        4818.302
420.07        4857.577
420.51        4900.967
420.96        4956.694
421.41        5031.585
421.85        5120.232
422.30        5240.881
422.74        5353.639
423.19        5340.585
423.64        5217.911
424.08         5128.36
424.53        5097.096
424.98        5047.504
425.42        4987.199
425.87        5000.125
426.31        5058.644
426.76        5029.479
427.21        4932.617
427.65        4914.838
428.10        4979.378
428.54        5043.754
428.99        5104.545
429.44        5160.705
429.88        5227.581
430.33        5389.469
430.77        5595.455
431.22        5665.371
431.66         5578.52
432.11        5443.819
432.56        5297.195
433.00        5140.479
433.45        5044.014
433.89        5078.985
434.34        5173.587
434.78        5466.088
435.23        5339.538
435.67        5275.644
436.12        5286.148
436.57        5287.653
437.01        5317.109
437.46         5338.79
437.90        5338.029
438.35        5295.262
438.79        5391.946
439.24        5411.498
439.68        5406.736
440.13        5399.524
440.57         5418.47
441.02        5467.679
441.46        5554.479
441.91        5750.747
442.35          5994.2
442.80        6048.147
443.24        5941.351
443.69        5955.859
444.13        6094.342
444.58        6146.025
445.02         6110.89
445.47        6119.401
445.91        6178.521
446.36        6219.373
446.80        6236.852
447.24        6293.098
447.69        6356.176
448.13        6336.965
448.58        6399.815
449.02        6426.448
449.47        6467.256
449.91        6503.834
450.36        6536.949
450.80        6573.241
451.25        6610.772
451.69        6644.987
452.13        6675.979
452.58        6709.219
453.02        6741.882
453.47        6766.831
453.91        6783.907
454.36        6796.648
454.80        6816.293
455.24        6852.724
455.69        6905.765
456.13        6997.548
456.58        7115.228
457.02        7171.602
457.46        7172.035
457.91        7324.357
458.35        7413.257
458.79        7537.733
459.24        7628.995
459.68        7723.221
460.13        7811.136
460.57        7883.217
461.01        7943.918
461.46        7945.074
461.90        7946.728
462.34        7974.434
462.79        7884.493
463.23         7844.62
463.68        7833.326
464.12        7920.131
464.56        8097.724
465.01        8248.648
465.45        8413.651
465.89        8575.769
466.34        8705.712
466.78        8719.216
467.22         8642.95
467.67         8449.78
468.11        8388.327
468.55        8386.041
468.99        8472.806
469.44        8488.946
469.88        8425.076
470.32        8381.169
470.77         8371.96
471.21        8376.375
471.65        8397.899
472.10        8441.323
472.54        8502.004
472.98        8567.169
473.42        8631.024
473.87        8708.677
474.31        8794.551
474.75         8841.01
475.20        8867.215
475.64        8955.404
476.08        9126.892
476.52        9188.285
476.97        9136.798
477.41        9126.814
477.85        9132.177
478.29        9035.387
478.74        9131.074
479.18        9231.853
479.62        9255.546
480.06        9333.248
480.50        9398.832
480.95        9511.843
481.39        9670.919
481.83        9556.688
482.27        9597.831
482.72        9664.739
483.16        9604.355
483.60        9579.037
484.04        9560.538
484.48        9606.113
484.93        9674.627
485.37        9762.008
485.81        10051.25
486.25        10336.06
486.69        14091.52
487.14        15276.82
487.58        11218.33
488.02         10200.1
488.46         10166.2
488.90        9803.257
489.34        9600.395
489.79        9491.923
490.23        9608.493
490.67        9631.683
491.11        9559.228
491.55        9520.108
491.99        9513.835
492.43        9475.858
492.88        9419.846
493.32        9415.575
493.76         9452.02
494.20        9455.789
494.64        9416.378
495.08        9383.273
495.52        9369.431
495.96        9320.005
496.41        9258.446
496.85        9338.387
497.29        9499.637
497.73        9450.661
498.17         9224.95
498.61        9129.309
499.05        9181.883
499.49        9207.443
499.93        9188.625
500.37        9182.963
500.82        9187.253
501.26        9175.244
501.70        9157.333
502.14        9173.858
502.58        9211.884
503.02        9212.961
503.46        9173.446
503.90        9127.959
504.34        9085.805
504.78        9046.344
505.22        9013.692
505.66        8990.137
506.10        8976.683
506.54        8962.006
506.98        8942.188
507.42        8940.531
507.86        8959.421
508.30        8889.992
508.74        8910.322
509.18        8877.502
509.62        8848.915
510.06         8827.77
510.50        8816.891
510.94        8812.167
511.38        8808.137
511.82        8800.773
512.26        8788.348
512.70        8772.927
513.14        8756.291
513.58        8743.264
514.02        8735.492
514.46        8727.411
514.90        8718.313
515.34        8728.618
515.78        8723.903
516.22        8732.148
516.66        8740.715
517.10        8746.397
517.54        8748.153
517.98        8746.758
518.42         8746.96
518.86        8755.354
519.30        8773.063
519.74         8798.95
520.18        8826.071
520.62        8841.173
521.06        8843.313
521.50        8841.046
521.93        8841.492
522.37        8851.847
522.81        8874.688
523.25        8908.743
523.69        8947.959
524.13        8981.309
524.57        9005.991
525.01        9025.845
525.45        9044.284
525.89        9066.538
526.32        9094.947
526.76        9127.871
527.20        9164.726
527.64         9206.07
528.08        9250.756
528.52        9294.669
528.96         9337.81
529.40         9385.94
529.83        9435.677
530.27        9474.886
530.71        9502.011
531.15         9526.52
531.59        9550.844
532.03        9569.835
532.46        9594.096
532.90        9644.303
533.34        9721.946
533.78        9817.677
534.22        9918.051
534.66        10001.42
535.09         10060.9
535.53        10103.63
535.97        10131.59
536.41         10148.7
536.85        10160.18
537.28        10166.18
537.72        10179.53
538.16        10220.78
538.60        10292.73
539.04        10389.24
539.47        10493.84
539.91        10578.32
540.35        10635.52
540.79        10674.34
541.22         10704.1
541.66        10741.03
542.10        10790.64
542.54        10845.81
542.97        10908.37
543.41        10981.77
543.85        11063.84
544.29        11154.83
544.72        11241.54
545.16        11300.09
545.60        11327.76
546.04        11337.07
546.47        11346.64
546.91        11377.78
547.35        11443.51
547.79        11550.92
548.22        11677.02
548.66        11781.58
549.10        11842.79
549.53        11839.41
549.97           11795
550.41        11781.99
550.84        11811.02
551.28        11855.56
551.72        11918.33
552.15        11973.47
552.59        12042.43
553.03        12201.79
553.46        12276.82
553.90        12366.56
554.34        12412.58
554.77        12467.38
555.21        12475.96
555.65        12537.83
556.08        12637.69
556.52        12775.87
556.96        12921.09
557.39        12994.71
557.83        13003.22
558.27        13032.51
558.70        13098.98
559.14        13169.39
559.57        13253.66
560.01        13376.95
560.45        13535.22
560.88        13713.32
561.32        13886.58
561.75        14026.83
562.19        14127.61
562.63        14182.36
563.06        14219.17
563.50        14316.93
563.93        14469.83
564.37        14592.68
564.80        14678.96
565.24        14776.64
565.68         14889.3
566.11        15001.08
566.55        15115.05
566.98        15239.73
567.42        15376.63
567.85        15528.35
568.29        15700.58
568.72        15895.21
569.16        16127.97
569.60        16408.97
570.03        16676.29
570.47        17013.99
570.90        17417.75
571.34        17478.77
571.77        17701.08
572.21        18030.76
572.64        18195.63
573.08        18170.07
573.51        17638.61
573.95        17937.36
574.38        18888.64
574.82        19039.27
