SpectraSmart Spectrum 2.9.0.0
--------- Device Information -----------
Spectrum Name :  反射率_0
Saving Time :  2024/05/01 15:42:46
Spectro-Module Model Name : SE2030-DUVN
Spectro-Module Serial Number : OS361AC55029948
Wavelength Start : 200
Wavelength End : 1025
Wavelength Unit : Wavelength(nm)
Spectrum Unit : Reflectance(%)
-----------Spectrum Setting ------------
Integration Time : 20ms
Average : 10
Boxcar : 0
Background removal :  enabled
linearity correction :  enabled
SC :  disabled
Intensity correction :  disabled
DWT denoise :  enabled
savitzky-golay :  disabled
FFT :  disabled
Running average :  disabled
Kalman :  disabled
High pass :  disabled
---------------BEGIN--------------------
Wavelength(nm)             Reflectance(%)
200.29               0
200.75        347.7591
201.21        1281.951
201.67       -490.1308
202.13       -180.8317
202.58       -94.13795
203.04       -48.97286
203.50       -23.96445
203.96       -15.36663
204.42       -21.48006
204.88       -61.24084
205.34       -1190.641
205.80        186.6022
206.26        128.4281
206.72        126.3041
207.18        225.7189
207.64       -120.7766
208.10       -18.33125
208.55      -0.2784975
209.01        2.821579
209.47      0.03660031
209.93       -6.427369
210.39       -16.85855
210.85       -32.07375
211.31       -58.73981
211.77       -144.8652
212.23        520.8341
212.69        119.7844
213.14         105.988
213.60        182.4257
214.06       -791.8421
214.52       -125.4831
214.98       -86.65478
215.44       -87.60567
215.90       -129.3265
216.36       -868.8937
216.81        274.3261
217.27        342.3132
217.73       -776.9046
218.19       -183.0039
218.65       -144.1919
219.11       -168.0494
219.57       -286.0204
220.02       -759.2614
220.48       -365.9541
220.94       -114.8547
221.40       -54.05019
221.86       -33.53016
222.32       -25.72618
222.77       -22.43241
223.23       -21.47615
223.69       -21.04519
224.15       -18.33595
224.61       -14.09995
225.06       -10.52023
225.52        -8.58497
225.98        -8.18917
226.44       -8.944736
226.90       -10.81521
227.36       -13.27522
227.81       -14.11164
228.27       -12.71131
228.73       -10.57654
229.19       -8.998883
229.65       -8.745277
230.10        -9.67197
230.56       -11.21618
231.02       -13.10367
231.48       -14.18099
231.93       -13.79386
232.39       -12.81899
232.85       -11.14985
233.31       -8.487667
233.77       -5.257417
234.22       -1.692848
234.68        1.016292
235.14        1.670754
235.60     -0.01311314
236.05       -4.450113
236.51       -11.40887
236.97       -18.06039
237.43       -21.21814
237.88       -20.22497
238.34       -17.40561
238.80       -17.47368
239.26       -22.48479
239.71       -33.48779
240.17       -50.97618
240.63       -67.95087
241.08       -72.79034
241.54       -64.57819
242.00       -52.26303
242.46        -43.7588
242.91       -38.84099
243.37       -35.90644
243.83       -28.16486
244.28       -1.735791
244.74        28.49772
245.20        45.99692
245.66        51.81455
246.11         50.1048
246.57        42.60051
247.03        27.25823
247.48       -1.345297
247.94       -39.97384
248.40       -72.24043
248.85       -91.99438
249.31       -89.26283
249.77       -64.95804
250.22       -33.91023
250.68       -4.823545
251.14        15.08521
251.59        21.43416
252.05        14.28634
252.51       -13.59913
252.96       -88.46635
253.42       -205.9455
253.88       -211.2473
254.33       -112.9352
254.79       -48.66327
255.25       -24.80261
255.70       -18.47506
256.16       -17.51563
256.62       -16.36363
257.07       -11.80667
257.53       -5.600587
257.99      0.08234528
258.44        4.158763
258.90        5.772761
259.35         5.35847
259.81         3.93222
260.27        1.998203
260.72        0.186529
261.18       -1.097331
261.63       -1.992855
262.09       -2.416975
262.55       -2.225022
263.00       -1.560535
263.46      -0.6658798
263.91       0.2547176
264.37       0.8684671
264.83        1.138803
265.28         1.20555
265.74        1.046646
266.19       0.6100649
266.65     -0.01508775
267.11       -0.808915
267.56       -1.503881
268.02       -1.635501
268.47       -1.158386
268.93      -0.2612383
269.38       0.7296571
269.84         1.18942
270.30       0.9917496
270.75       0.3383605
271.21      -0.5163378
271.66       -1.253398
272.12       -1.704234
272.57       -1.976875
273.03       -2.033616
273.48       -1.814001
273.94       -1.378169
274.39      -0.7658992
274.85      -0.1443003
275.31       0.2704485
275.76       0.4327437
276.22        0.397048
276.67       0.2259666
277.13     0.006241791
277.58       -0.216933
278.04      -0.4375386
278.49      -0.6188783
278.95      -0.6710023
279.40      -0.6016931
279.86      -0.4502662
280.31      -0.2550625
280.77       -0.083206
281.22      0.04344942
281.68       0.1483662
282.13       0.1823122
282.59      0.07679816
283.04      -0.1533098
283.50      -0.4769223
283.95      -0.7656929
284.41      -0.8157638
284.86      -0.6065352
285.32      -0.2396111
285.77       0.1494645
286.22       0.3432514
286.68       0.3123405
287.13       0.1375646
287.59      -0.1154569
288.04      -0.3656282
288.50      -0.5503772
288.95      -0.7132997
289.41      -0.7796061
289.86      -0.6467628
290.32      -0.3357908
290.77       0.1223458
291.22       0.5580567
291.68       0.7143221
292.13       0.5563748
292.59       0.1813962
293.04      -0.2601339
293.50       -0.493052
293.95      -0.4629658
294.40      -0.2567662
294.86      0.02916771
295.31       0.2600724
295.77       0.3741656
296.22       0.4331859
296.68       0.4171246
297.13       0.3003379
297.58      0.09930631
298.04      -0.1656577
298.49      -0.4071283
298.95      -0.4618817
299.40      -0.3079681
299.85    -0.001647914
300.31       0.3513221
300.76       0.6184992
301.21       0.7472575
301.67       0.7833913
302.12       0.7437844
302.58       0.6658271
303.03       0.5728025
303.48       0.4650376
303.94       0.3717219
304.39       0.3400166
304.84       0.3726562
305.30       0.4486192
305.75       0.5507913
306.20       0.6408212
306.66        0.699864
307.11       0.7400064
307.57       0.7320167
308.02       0.6345168
308.47       0.4513384
308.93        0.204213
309.38     -0.04418843
309.83      -0.1738435
310.29      -0.1647041
310.74     -0.05232775
311.19      0.08932319
311.65       0.1351227
312.10      0.06282604
312.55     -0.08151505
313.00      -0.2404381
313.46      -0.3239439
313.91      -0.3095722
314.36      -0.2350939
314.82      -0.1149101
315.27      0.03563439
315.72       0.1925603
316.18       0.3507371
316.63       0.4702991
317.08       0.4717303
317.53       0.3484914
317.99       0.1318504
318.44      -0.1220914
318.89      -0.2892129
319.35      -0.3336522
319.80      -0.2926991
320.25      -0.2065505
320.70      -0.1534691
321.16      -0.1574598
321.61      -0.1853289
322.06      -0.2285983
322.51      -0.2755424
322.97      -0.3140719
323.42      -0.3539719
323.87      -0.3661737
324.32      -0.2965885
324.78      -0.1460531
325.23      0.06632925
325.68       0.2820819
326.13       0.4085358
326.59       0.4191251
327.04       0.3393258
327.49       0.2018848
327.94      0.06929334
328.39     -0.03091868
328.85       -0.107127
329.30      -0.1684278
329.75      -0.2188976
330.20      -0.2624781
330.66      -0.2932028
331.11      -0.3097169
331.56      -0.3101382
332.01      -0.2981621
332.46      -0.2753701
332.92      -0.2689144
333.37      -0.3155802
333.82      -0.4204035
334.27      -0.5679603
334.72      -0.7066358
335.17      -0.7460673
335.63      -0.6694566
336.08      -0.5067311
336.53      -0.3044322
336.98      -0.1389624
337.43     -0.03813667
337.88      0.02294799
338.34      0.03334792
338.79     -0.02797838
339.24      -0.1495084
339.69      -0.3269954
340.14      -0.4890477
340.59      -0.5186383
341.05      -0.4044477
341.50      -0.1808337
341.95      0.06055631
342.40         0.16608
342.85      0.09940775
343.30     -0.08026525
343.75       -0.315606
344.20      -0.5163865
344.66      -0.6426237
345.11      -0.7332674
345.56      -0.7605304
346.01      -0.6829942
346.46       -0.511446
346.91      -0.2649795
347.36     -0.03353485
347.81       0.0455131
348.26     -0.05047932
348.72      -0.2716404
349.17      -0.5499074
349.62      -0.7408946
350.07      -0.8019899
350.52      -0.7712902
350.97      -0.6902555
351.42      -0.6318448
351.87      -0.6170942
352.32      -0.6122819
352.77      -0.6105236
353.22      -0.6033769
353.67      -0.5880482
354.13      -0.5823053
354.58      -0.5674689
355.03      -0.4972137
355.48      -0.3703666
355.93      -0.1937085
356.38     -0.03989519
356.83     -0.03349031
357.28      -0.1865225
357.73      -0.4453232
358.18       -0.695078
358.63      -0.7646684
359.08      -0.6239432
359.53      -0.3367342
359.98      0.01420035
360.43       0.2815873
360.88       0.4100699
361.33       0.4485184
361.78       0.4054083
362.23       0.2959588
362.68       0.1432394
363.13     -0.06135616
363.58      -0.2435571
364.03      -0.2778264
364.48      -0.1458644
364.93       0.1168609
365.38       0.3992508
365.83       0.5240161
366.28       0.4517044
366.73       0.2336945
367.18      -0.0344174
367.63      -0.1930988
368.08      -0.1946989
368.53     -0.08558814
368.98      0.06179423
369.43       0.1415177
369.88       0.1231901
370.33      0.03133268
370.78     -0.07468393
371.23     -0.09453869
371.68    -0.007802428
372.13       0.1498215
372.58        0.282414
373.03        0.247002
373.48      0.02636202
373.93      -0.3210177
374.38      -0.6740091
374.83      -0.8339978
375.28      -0.7509447
375.72      -0.4940496
376.17      -0.1661411
376.62      0.08618905
377.07       0.2128478
377.52       0.2549933
377.97       0.2294326
378.42       0.1633391
378.87       0.0765867
379.32     -0.03906453
379.77      -0.1582509
380.22      -0.2373222
380.67       -0.265331
381.11      -0.2434452
381.56       -0.188798
382.01      -0.1365528
382.46     -0.09709369
382.91     -0.06071298
383.36     -0.02651362
383.81      0.01164691
384.26      0.04933615
384.71      0.06659089
385.15      0.06891447
385.60      0.07803895
386.05      0.09158088
386.50       0.1176764
386.95       0.1102146
387.40    -0.004133151
387.85      -0.2158347
388.29      -0.4898648
388.74      -0.7112852
389.19      -0.7384224
389.64      -0.5574794
390.09      -0.2310286
390.54       0.1359982
390.98       0.3747374
391.43       0.4283164
391.88       0.3637026
392.33       0.2293535
392.78       0.0964409
393.23    -0.006137485
393.67      -0.1033737
394.12      -0.1643784
394.57      -0.1469901
395.02     -0.04845798
395.47       0.1273592
395.91       0.3185334
396.36       0.4085673
396.81         0.37996
397.26       0.2605336
397.71       0.1246229
398.15      0.08968106
398.60       0.1747194
399.05       0.3299565
399.50       0.4884163
399.95       0.5642394
400.39       0.5371467
400.84       0.4299009
401.29       0.2849895
401.74       0.1791559
402.18       0.1363816
402.63       0.1369004
403.08       0.1641778
403.53       0.1967393
403.97        0.224853
404.42       0.2525141
404.87       0.2739994
405.32       0.2741021
405.76       0.2500877
406.21       0.2100942
406.66       0.1627119
407.11       0.1261004
407.55       0.1080616
408.00       0.1052465
408.45       0.1209572
408.90       0.1592763
409.34       0.2163919
409.79       0.2812758
410.24       0.3431799
410.68       0.3832919
411.13        0.398551
411.58       0.3981515
412.03       0.3797734
412.47       0.3408847
412.92       0.2899148
413.37       0.2251343
413.81       0.1762238
414.26       0.1894206
414.71       0.2686476
415.15       0.4076256
415.60       0.5499616
416.05       0.6049026
416.49        0.550955
416.94       0.4161495
417.39       0.2724342
417.83       0.2375507
418.28       0.3367643
418.73       0.5302185
419.17       0.7457646
419.62       0.8576686
420.07       0.8421527
420.51         0.74323
420.96       0.6232103
421.41       0.5662296
421.85       0.5943829
422.30       0.6737955
422.74       0.7849127
423.19        0.899295
423.64        1.004833
424.08        1.114819
424.53        1.206228
424.98        1.243539
425.42        1.222964
425.87        1.164428
426.31        1.097849
426.76        1.088082
427.21        1.148347
427.65        1.259541
428.10         1.41678
428.54        1.609071
428.99        1.807917
429.44        2.013317
429.88         2.18377
430.33        2.254432
430.77        2.227489
431.22        2.129702
431.66        2.017796
432.11        1.998907
432.56        2.092991
433.00        2.276852
433.45        2.493263
433.89        2.617212
434.34        2.618519
434.78        2.689918
435.23        2.878779
435.67        3.036157
436.12        3.165104
436.57        3.363075
437.01        3.608681
437.46        3.787382
437.90         3.87943
438.35        3.925705
438.79        3.972269
439.24        4.081723
439.68         4.27591
440.13        4.563012
440.57        4.884826
441.02        5.110495
441.46        5.213364
441.91        5.215277
442.35        5.188996
442.80         5.33249
443.24        5.632481
443.69        5.851272
444.13        5.967236
444.58        6.172407
445.02        6.468348
445.47         6.73358
445.91        6.966896
446.36        7.241586
446.80        7.556746
447.24        7.876519
447.69        8.177632
448.13        8.434538
448.58        8.634531
449.02        8.781025
449.47        8.881145
449.91        8.939278
450.36        8.964903
450.80        8.960475
451.25        8.928544
451.69        8.865609
452.13        8.777274
452.58        8.670825
453.02        8.562203
453.47        8.481772
453.91        8.429745
454.36        8.394935
454.80        8.346217
455.24        8.230785
455.69        8.039119
456.13        7.782897
456.58         7.49927
457.02         7.23095
457.46         6.99426
457.91        6.781689
458.35        6.572063
458.79        6.321958
459.24        6.039259
459.68        5.759711
460.13        5.528989
460.57        5.292253
461.01        5.212104
461.46        5.148329
461.90        5.118398
462.34        5.048901
462.79         4.95131
463.23        4.811523
463.68        4.658505
464.12        4.528845
464.56        4.437212
465.01        4.378685
465.45        4.321765
465.89        4.219016
466.34        4.066216
466.78         3.87367
467.22        3.682742
467.67         3.57416
468.11        3.548577
468.55        3.595491
468.99        3.663483
469.44        3.679827
469.88        3.625647
470.32        3.517775
470.77        3.380182
471.21        3.246652
471.65        3.134005
472.10        3.030594
472.54        2.933403
472.98         2.84196
473.42        2.756341
473.87         2.68664
474.31        2.623557
474.75         2.55405
475.20        2.477508
475.64        2.392617
476.08        2.319144
476.52        2.294378
476.97        2.322165
477.41        2.383019
477.85        2.435119
478.29        2.482779
478.74        2.408746
479.18        2.308575
479.62        2.198683
480.06        2.169954
480.50        2.236145
480.95        2.321099
481.39        2.451197
481.83        2.479868
482.27         2.41143
482.72        2.261147
483.16        2.081898
483.60        1.990296
484.04         2.01281
484.48        2.092508
484.93        2.168711
485.37        2.242476
485.81        2.202512
486.25        2.048019
486.69        1.445995
487.14        1.441015
487.58        1.953094
488.02        2.056996
488.46         2.04016
488.90        2.107579
489.34        2.241382
489.79        2.346196
490.23        2.431936
490.67        2.451994
491.11         2.42294
491.55        2.348534
491.99        2.257036
492.43        2.193633
492.88        2.171252
493.32        2.170306
493.76        2.187316
494.20        2.220661
494.64        2.266346
495.08        2.324393
495.52        2.381201
495.96         2.42423
496.41        2.447428
496.85        2.429876
497.29        2.402183
497.73        2.447711
498.17        2.566976
498.61        2.687664
499.05        2.772311
499.49        2.818481
499.93        2.816282
500.37        2.751167
500.82        2.658621
501.26        2.602654
501.70        2.602538
502.14        2.640893
502.58        2.692616
503.02        2.716774
503.46        2.704441
503.90        2.672802
504.34         2.64385
504.78        2.650986
505.22        2.701819
505.66        2.780461
506.10        2.870009
506.54        2.945083
506.98        2.993892
507.42         3.02187
507.86        3.029056
508.30        3.015511
508.74        2.986227
509.18        2.945247
509.62        2.901587
510.06        2.871014
510.50        2.859732
510.94        2.864086
511.38        2.888227
511.82        2.936146
512.26        3.002538
512.70        3.082326
513.14        3.151757
513.58        3.174736
514.02        3.145086
514.46        3.073949
514.90        2.987568
515.34        2.930028
515.78        2.915115
516.22        2.932297
516.66          2.9667
517.10        2.993373
517.54        3.004138
517.98        3.006258
518.42         3.00631
518.86         3.01405
519.30        3.031133
519.74        3.051676
520.18        3.067825
520.62        3.069155
521.06        3.054945
521.50        3.031548
521.93        3.009269
522.37        3.000768
522.81        3.011635
523.25        3.037772
523.69        3.075135
524.13        3.117146
524.57        3.159582
525.01        3.201625
525.45        3.239807
525.89        3.269964
526.32        3.290084
526.76        3.297016
527.20        3.292435
527.64         3.27815
528.08        3.257583
528.52        3.236199
528.96        3.213092
529.40        3.186017
529.83        3.155857
530.27        3.122749
530.71         3.10182
531.15        3.118038
531.59        3.170507
532.03        3.247922
532.46        3.315283
532.90        3.314093
533.34        3.237815
533.78        3.108198
534.22        2.964612
534.66        2.870934
535.09        2.839964
535.53         2.84473
535.97        2.874098
536.41        2.920828
536.85        2.975303
537.28        3.037499
537.72        3.091389
538.16        3.117226
538.60        3.110752
539.04        3.073246
539.47        3.026584
539.91        3.010352
540.35        3.031096
540.79        3.081005
541.22        3.134762
541.66        3.143796
542.10        3.109475
542.54        3.041277
542.97        2.971141
543.41        2.949258
543.85        2.982919
544.29        3.053651
544.72        3.133843
545.16         3.17993
545.60        3.180645
546.04         3.14854
546.47        3.097297
546.91        3.053194
547.35        3.024979
547.79        3.005172
548.22        2.987609
548.66        2.967946
549.10        2.944737
549.53        2.906885
549.97        2.888481
550.41        2.877875
550.84        2.883506
551.28        2.902333
551.72        2.924031
552.15        2.930297
552.59        2.919067
553.03        2.900535
553.46         2.88269
553.90        2.879508
554.34        2.894421
554.77         2.91838
555.21        2.942408
555.65        2.985172
556.08        2.986143
556.52        2.991978
556.96        2.990949
557.39         2.99387
557.83         3.00216
558.27        3.010456
558.70        3.009245
559.14        2.998367
559.57        2.949985
560.01        2.898064
560.45         2.84929
560.88        2.824265
561.32        2.833132
561.75        2.867753
562.19        2.909595
562.63        2.946882
563.06         2.95869
563.50         2.89701
563.93        2.790034
564.37        2.737285
564.80        2.746746
565.24        2.773359
565.68        2.805098
566.11        2.841387
566.55         2.87331
566.98        2.898254
567.42        2.913825
567.85         2.91961
568.29        2.914419
568.72        2.896032
569.16         2.86106
569.60        2.806336
570.03         2.73631
570.47        2.648086
570.90        2.576344
571.34         2.53459
571.77        2.531024
572.21        2.536654
572.64        2.538746
573.08        2.558156
573.51        2.618715
573.95        2.504114
574.38        2.314372
574.82        2.280253
