SpectraSmart Spectrum 2.9.0.0
--------- Device Information -----------
Spectrum Name :  反射率_0
Saving Time :  2024/04/27 00:20:28
Spectro-Module Model Name : SE2030-DUVN
Spectro-Module Serial Number : OS361AC55029948
Wavelength Start : 200
Wavelength End : 1025
Wavelength Unit : Wavelength(nm)
Spectrum Unit : Reflectance(%)
-----------Spectrum Setting ------------
Integration Time : 20ms
Average : 10
Boxcar : 0
Background removal :  enabled
linearity correction :  enabled
SC :  disabled
Intensity correction :  disabled
DWT denoise :  enabled
savitzky-golay :  disabled
FFT :  disabled
Running average :  disabled
Kalman :  disabled
High pass :  disabled
---------------BEGIN--------------------
Wavelength(nm)             Reflectance(%)
200.29               0
200.75         36.7624
201.21        35.08802
201.67        33.27545
202.13        31.98638
202.58        31.23634
203.04        30.81879
203.50        31.47829
203.96        34.92069
204.42        41.70415
204.88         51.4472
205.34        60.82152
205.80         64.2536
206.26        60.84725
206.72        52.86436
207.18        44.66447
207.64        39.68143
208.10        37.88409
208.55        38.76878
209.01        41.19454
209.47         41.6017
209.93        39.00871
210.39        36.15841
210.85        35.00965
211.31        36.87337
211.77         42.9338
212.23        57.41253
212.69        94.77522
213.14        162.5155
213.60        168.4385
214.06        127.1187
214.52          97.087
214.98        83.52657
215.44         77.8543
215.90        74.27363
216.36        71.98023
216.81         70.5303
217.27        69.99958
217.73        72.21931
218.19        76.10688
218.65        75.62476
219.11        70.39555
219.57        64.23138
220.02        61.95698
220.48        67.48946
220.94         81.3074
221.40         105.777
221.86        140.4705
222.32        163.3934
222.77        155.1952
223.23        130.6566
223.69        106.1417
224.15        90.94071
224.61        83.58736
225.06        79.60925
225.52        78.40611
225.98        79.16017
226.44        81.28069
226.90           85.15
227.36        88.97646
227.81        89.49421
228.27        86.61126
228.73        81.42059
229.19        76.88946
229.65        76.53584
230.10        80.35853
230.56         87.1184
231.02        93.90598
231.48        96.08505
231.93        92.94506
232.39        86.92751
232.85        80.82142
233.31        78.18434
233.77        79.40979
234.22        83.14861
234.68        87.77505
235.14        90.84465
235.60        91.53944
236.05         90.6733
236.51        88.67641
236.97        86.70924
237.43        85.40266
237.88        84.42112
238.34        83.70998
238.80        83.55785
239.26        84.02686
239.71        85.79288
240.17        88.34307
240.63        90.75518
241.08        92.52161
241.54        92.93785
242.00        93.23621
242.46        96.20396
242.91        104.1716
243.37        118.1846
243.83        138.8272
244.28        156.8875
244.74        157.7535
245.20         141.063
245.66         119.554
246.11        104.4686
246.57        96.44025
247.03        91.98396
247.48         88.2969
247.94        82.16574
248.40        75.12628
248.85        69.49164
249.31        65.86216
249.77        63.52027
250.22        61.69579
250.68        59.56324
251.14        57.86013
251.59         58.9634
252.05        63.58864
252.51        70.62225
252.96        75.51571
253.42        74.78828
253.88        69.69374
254.33        62.26639
254.79        57.41356
255.25        59.23837
255.70        67.11779
256.16        79.07295
256.62        90.05209
257.07        92.30779
257.53          87.368
257.99        79.93063
258.44        73.73553
258.90        72.06413
259.35        73.56011
259.81        76.85087
260.27        80.01979
260.72        80.78879
261.18        79.41117
261.63        76.72744
262.09        74.22809
262.55        72.78983
263.00        72.29742
263.46        72.45946
263.91         72.5237
264.37         71.9947
264.83        70.79141
265.28        69.19633
265.74        67.80869
266.19         66.9534
266.65        66.76168
267.11        66.92552
267.56        67.21262
268.02        67.28764
268.47        67.01643
268.93        66.55067
269.38        65.85189
269.84        64.94843
270.30        63.86589
270.75        62.58208
271.21        61.33767
271.66        60.41628
272.12        59.87718
272.57        59.61923
273.03        59.38552
273.48        58.72311
273.94        57.62499
274.39        56.20304
274.85        54.82742
275.31         53.8173
275.76        53.18736
276.22        52.85631
276.67        52.56835
277.13        52.11619
277.58        51.37057
278.04        50.46305
278.49        49.44195
278.95        48.53903
279.40          47.735
279.86         47.0648
280.31        46.36713
280.77        45.57558
281.22        44.63287
281.68        43.68206
282.13        42.80186
282.59        42.22502
283.04         41.9124
283.50        41.80385
283.95        41.73494
284.41        41.48762
284.86        40.99984
285.32        40.38242
285.77        39.71252
286.22        39.17901
286.68        38.81685
287.13        38.52284
287.59        38.25783
288.04        37.90351
288.50        37.47151
288.95        36.97748
289.41        36.48074
289.86        35.97231
290.32        35.50876
290.77        35.06598
291.22        34.69181
291.68        34.43862
292.13        34.29712
292.59        34.27274
293.04        34.32948
293.50        34.43476
293.95        34.56459
294.40        34.73063
294.86        34.93988
295.31        35.19481
295.77        35.50072
296.22        35.83126
296.68        36.19014
297.13        36.56656
297.58        36.96106
298.04        37.37908
298.49        37.79597
298.95        38.19197
299.40        38.55898
299.85        38.91358
300.31        39.28666
300.76        39.71063
301.21        40.18967
301.67        40.70829
302.12        41.21857
302.58        41.71877
303.03        42.15892
303.48        42.55703
303.94        42.89194
304.39        43.08949
304.84         43.1675
305.30        43.16674
305.75        43.12538
306.20        43.16621
306.66        43.32531
307.11        43.55084
307.57        43.80515
308.02        43.96785
308.47          44.024
308.93        44.01039
309.38         43.9547
309.83        43.95711
310.29        44.03508
310.74        44.15179
311.19        44.23732
311.65        44.17565
312.10        43.94464
312.55        43.59089
313.00        43.22297
313.46        42.99909
313.91        42.93296
314.36        42.98043
314.82        43.04024
315.27        42.96087
315.72        42.69984
316.18        42.32432
316.63         41.8958
317.08        41.52626
317.53        41.24967
317.99        41.02521
318.44        40.84179
318.89        40.67086
319.35        40.49657
319.80        40.32866
320.25        40.15471
320.70        39.95018
321.16        39.70938
321.61        39.45249
322.06        39.18007
322.51        38.90403
322.97        38.62671
323.42        38.34296
323.87        38.09266
324.32         37.9463
324.78         37.8941
325.23         37.9412
325.68        37.95751
326.13         37.7336
326.59        37.23566
327.04        36.54861
327.49        35.85083
327.94        35.42602
328.39        35.33495
328.85        35.47953
329.30        35.74622
329.75         35.8507
330.20        35.69973
330.66        35.37081
331.11        34.96989
331.56        34.63988
332.01        34.43123
332.46        34.28331
332.92        34.16111
333.37        34.07051
333.82        33.97973
334.27        33.91209
334.72        33.83823
335.17        33.69511
335.63        33.47381
336.08        33.21048
336.53        32.95862
336.98        32.82465
337.43        32.83297
337.88         32.9414
338.34        33.10277
338.79          33.269
339.24        33.39207
339.69         33.4861
340.14        33.50766
340.59        33.39225
341.05        33.15382
341.50        32.81508
341.95        32.47605
342.40        32.29201
342.85        32.29666
343.30        32.44283
343.75        32.65569
344.20        32.80715
344.66        32.85569
345.11        32.83561
345.56         32.7633
346.01        32.66717
346.46        32.57065
346.91        32.46947
347.36        32.38568
347.81         32.3611
348.26        32.39824
348.72        32.47802
349.17        32.58132
349.62        32.68912
350.07        32.78214
350.52        32.86385
350.97        32.87782
351.42        32.73869
351.87        32.44812
352.32        32.04546
352.77        31.64185
353.22        31.39848
353.67        31.34652
354.13        31.44161
354.58         31.5935
355.03        31.64593
355.48        31.55338
355.93          31.363
356.38        31.14055
356.83        30.98648
357.28        30.91978
357.73        30.89304
358.18        30.86236
358.63        30.76398
359.08        30.58225
359.53        30.35247
359.98        30.08767
360.43        29.79917
360.88         29.4978
361.33        29.17759
361.78        28.87812
362.23        28.66492
362.68        28.54962
363.13        28.52042
363.58        28.50634
364.03        28.39205
364.48          28.153
364.93        27.81558
365.38        27.46768
365.83        27.25831
366.28        27.21712
366.73        27.29246
367.18        27.37859
367.63        27.31014
368.08        27.05262
368.53          26.667
368.98        26.24494
369.43        25.92921
369.88        25.76229
370.33        25.69976
370.78        25.69379
371.23        25.66674
371.68        25.58719
372.13        25.47652
372.58        25.34773
373.03        25.21804
373.48        25.09192
373.93        24.95733
374.38        24.79989
374.83        24.60582
375.28        24.37663
375.72        24.11626
376.17        23.86997
376.62        23.67056
377.07        23.52743
377.52        23.43757
377.97        23.36712
378.42         23.2626
378.87        23.11482
379.32        22.93538
379.77          22.778
380.22        22.72129
380.67        22.77243
381.11        22.91194
381.56        23.04221
382.01        23.02311
382.46        22.82825
382.91        22.51296
383.36         22.1858
383.81        21.99702
384.26        21.97079
384.71        22.05632
385.15        22.17517
385.60          22.198
386.05        22.08965
386.50        21.89971
386.95        21.67936
387.40         21.5062
387.85        21.40388
388.29        21.32795
388.74        21.29139
389.19        21.26518
389.64        21.23639
390.09        21.20931
390.54        21.16598
390.98        21.07047
391.43        20.93481
391.88        20.77125
392.33        20.60678
392.78        20.47961
393.23        20.39879
393.67         20.3443
394.12         20.3249
394.57        20.31294
395.02        20.29773
395.47        20.27395
395.91        20.24736
396.36        20.21594
396.81        20.19107
397.26        20.17848
397.71        20.15204
398.15        20.08652
398.60        20.00966
399.05        19.85133
399.50        19.68509
399.95         19.7623
400.39        20.02874
400.84        20.09955
401.29         19.9533
401.74        19.87183
402.18        19.85884
402.63        19.72742
403.08        19.51577
403.53        19.37302
403.97        19.31967
404.42        19.31916
404.87        19.34075
405.32        19.33218
405.76         19.2762
406.21        19.19911
406.66        19.12773
407.11        19.10467
407.55        19.14295
408.00        19.21707
408.45        19.29228
408.90        19.30117
409.34        19.22588
409.79        19.09287
410.24        18.94826
410.68        18.85011
411.13        18.81672
411.58        18.83013
412.03        18.85773
412.47        18.84555
412.92        18.77438
413.37        18.67124
413.81        18.56863
414.26        18.52717
414.71        18.55118
415.15        18.62829
415.60        18.71951
416.05        18.77445
416.49        18.77765
416.94        18.74095
417.39        18.69446
417.83        18.68367
418.28        18.71724
418.73        18.77517
419.17        18.83519
419.62        18.86309
420.07        18.85063
420.51        18.80965
420.96        18.75306
421.41         18.6954
421.85        18.63728
422.30        18.56643
422.74        18.48824
423.19        18.49447
423.64        18.55769
424.08         18.5626
424.53         18.4948
424.98        18.47356
425.42        18.51152
425.87         18.4868
426.31        18.42319
426.76        18.49437
427.21        18.65076
427.65        18.62049
428.10        18.43991
428.54        18.35963
428.99        18.40055
429.44        18.49083
429.88        18.57521
430.33        18.49525
430.77          18.306
431.22        18.34897
431.66        18.60573
432.11        18.72752
432.56        18.70359
433.00        18.79576
433.45        18.91065
433.89         18.7518
434.34        18.45456
434.78        17.94521
435.23        18.27022
435.67        18.29453
436.12        18.27945
436.57        18.25836
437.01        18.24007
437.46        18.24402
437.90        18.25811
438.35        18.23346
438.79        18.16447
439.24        18.10465
439.68        18.05885
440.13        18.00677
440.57        17.97738
441.02        18.02337
441.46        18.13881
441.91         18.2962
442.35         18.4272
442.80        18.52465
443.24        18.54816
443.69         18.4397
444.13        18.25192
444.58        18.15715
445.02        18.17524
445.47        18.23535
445.91        18.30331
446.36        18.35285
446.80        18.36594
447.24        18.35793
447.69        18.33703
448.13        18.30585
448.58        18.27387
449.02        18.23289
449.47        18.19924
449.91        18.19178
450.36        18.21733
450.80        18.26704
451.25        18.32273
451.69        18.34299
452.13        18.32215
452.58        18.26715
453.02        18.20261
453.47        18.17216
453.91        18.18427
454.36        18.22755
454.80        18.26568
455.24        18.24031
455.69        18.14737
456.13        17.99739
456.58        17.85094
457.02        17.76794
457.46        17.76928
457.91        17.83424
458.35        17.90622
458.79        17.90115
459.24        17.81874
459.68        17.67827
460.13        17.55294
460.57        17.50683
461.01        17.56638
461.46        17.68963
461.90        17.84463
462.34        17.96408
462.79        18.01723
463.23        18.02985
463.68        17.99564
464.12        17.91773
464.56         17.8064
465.01        17.68769
465.45         17.5686
465.89        17.50768
466.34        17.51011
466.78        17.55663
467.22        17.63256
467.67        17.69156
468.11         17.7267
468.55        17.74137
468.99        17.73617
469.44        17.71188
469.88        17.67397
470.32        17.61964
470.77        17.56615
471.21         17.5458
471.65        17.56295
472.10        17.61304
472.54        17.67043
472.98        17.69919
473.42        17.69116
473.87        17.66312
474.31        17.62433
474.75        17.60645
475.20         17.6211
475.64        17.65131
476.08        17.69153
476.52        17.72439
476.97        17.74496
477.41        17.76704
477.85        17.79904
478.29        17.82732
478.74        17.86629
479.18         17.9571
479.62        18.07353
480.06        18.14413
480.50        18.16447
480.95        18.14777
481.39          18.097
481.83         18.1896
482.27        18.16167
482.72        18.22608
483.16        18.30853
483.60        18.34942
484.04        18.31908
484.48        18.42664
484.93        18.71285
485.37        18.48692
485.81        18.40205
486.25        18.92397
486.69        18.95738
487.14        19.00963
487.58        19.60051
488.02        19.56725
488.46        18.99596
488.90        19.03674
489.34        19.22569
489.79        19.49588
490.23        19.58969
490.67        19.72557
491.11        19.86376
491.55        19.83957
491.99         19.7176
492.43        19.70942
492.88        19.84541
493.32        20.02607
493.76        20.21233
494.20        20.38975
494.64        20.54618
495.08        20.64814
495.52        20.70419
495.96        20.85156
496.41        21.04923
496.85        21.00804
497.29         20.7873
497.73        20.89395
498.17        21.05951
498.61        21.30341
499.05        21.47571
499.49         21.5874
499.93        21.57979
500.37        21.66247
500.82        21.82228
501.26        21.94545
501.70         22.0291
502.14         22.1442
502.58         22.3006
503.02        22.47315
503.46        22.65553
503.90        22.85197
504.34        23.02533
504.78        23.11426
505.22        23.10934
505.66        23.03021
506.10         22.9279
506.54        22.88616
506.98         22.9267
507.42        23.02531
507.86         23.1517
508.30        23.25285
508.74        23.31093
509.18        23.34542
509.62        23.36073
510.06        23.36332
510.50        23.36004
510.94        23.34535
511.38        23.33845
511.82        23.37236
512.26         23.4519
512.70        23.57028
513.14        23.69636
513.58        23.77712
514.02        23.80048
514.46        23.78031
514.90          23.749
515.34        23.76077
515.78        23.82664
516.22         23.9255
516.66        24.02677
517.10        24.08252
517.54        24.07985
517.98        24.03693
518.42        23.97034
518.86        23.90561
519.30        23.85423
519.74        23.80916
520.18        23.77459
520.62        23.75679
521.06        23.75546
521.50        23.77232
521.93          23.797
522.37        23.80124
522.81        23.78298
523.25        23.74724
523.69        23.70852
524.13        23.69182
524.57        23.69925
525.01        23.71673
525.45        23.72993
525.89        23.71671
526.32        23.66823
526.76        23.60156
527.20        23.51473
527.64        23.40598
528.08         23.2834
528.52        23.15178
528.96        23.03888
529.40        22.98717
529.83        23.00086
530.27        23.06591
530.71        23.14571
531.15        23.18255
531.59        23.16015
532.03        23.09344
532.46         22.9987
532.90        22.92034
533.34        22.86712
533.78        22.81385
534.22        22.75821
534.66        22.72509
535.09        22.69657
535.53        22.62508
535.97         22.5187
536.41        22.44673
536.85        22.41533
537.28        22.38486
537.72        22.36539
538.16         22.3899
538.60        22.45753
539.04        22.55791
539.47        22.65802
539.91        22.72168
540.35        22.73805
540.79        22.72155
541.22        22.70207
541.66        22.73621
542.10        22.83239
542.54        22.97091
542.97        23.12348
543.41        23.25524
543.85         23.3532
544.29        23.43562
544.72        23.50591
545.16        23.58458
545.60        23.67562
546.04        23.77524
546.47        23.90148
546.91        24.07931
547.35        24.30453
547.79        24.56677
548.22        24.82629
548.66        25.01742
549.10        25.15766
549.53        25.25267
549.97        25.33487
550.41        25.40149
550.84        25.49255
551.28        25.66289
551.72        25.87036
552.15        26.06754
552.59        26.27419
553.03         26.1238
553.46        26.41624
553.90        26.48748
554.34         26.5738
554.77        26.66616
555.21        26.78251
555.65        26.92946
556.08        27.09335
556.52        27.25774
556.96        27.39246
557.39        27.52567
557.83         27.6318
558.27        27.56446
558.70        27.38921
559.14        27.37655
559.57        27.53004
560.01        27.69035
560.45         27.8205
560.88        27.95098
561.32        28.08184
561.75        28.17679
562.19        28.24761
562.63         28.3067
563.06        28.35539
563.50        28.39516
563.93        28.41498
564.37        28.47253
564.80        28.58315
565.24        28.66547
565.68        28.65551
566.11        29.07539
566.55         28.8781
566.98        28.93758
567.42        29.00066
567.85        29.12411
568.29        29.32154
568.72        29.59554
569.16        29.94706
569.60        30.16619
570.03        30.32765
570.47        30.53718
570.90        30.85135
571.34        30.68568
571.77        30.86782
572.21        31.40933
572.64        31.11093
573.08        31.60349
573.51         31.4677
573.95        31.70078
574.38        31.95686
574.82        32.20804
