SpectraSmart Spectrum 2.9.0.0
--------- Device Information -----------
Spectrum Name :  反射率_0
Saving Time :  2024/04/27 00:18:08
Spectro-Module Model Name : SE2030-DUVN
Spectro-Module Serial Number : OS361AC55029948
Wavelength Start : 200
Wavelength End : 1025
Wavelength Unit : Wavelength(nm)
Spectrum Unit : Reflectance(%)
-----------Spectrum Setting ------------
Integration Time : 20ms
Average : 10
Boxcar : 0
Background removal :  enabled
linearity correction :  enabled
SC :  disabled
Intensity correction :  disabled
DWT denoise :  enabled
savitzky-golay :  disabled
FFT :  disabled
Running average :  disabled
Kalman :  disabled
High pass :  disabled
---------------BEGIN--------------------
Wavelength(nm)             Reflectance(%)
200.29               0
200.75        20.68484
201.21        20.63788
201.67        20.88675
202.13        20.88251
202.58        20.54741
203.04        20.53062
203.50        21.00791
203.96        22.24123
204.42        24.32745
204.88        26.49813
205.34        29.64564
205.80        35.36413
206.26        42.62483
206.72         49.6065
207.18        53.68329
207.64         52.7217
208.10        46.57393
208.55        34.67825
209.01        17.38254
209.47        6.798838
209.93        10.68227
210.39        21.72227
210.85        31.67127
211.31        37.13958
211.77        39.23566
212.23         39.0276
212.69        36.36495
213.14        38.81546
213.60        49.78454
214.06        56.25635
214.52        56.54238
214.98        53.64594
215.44        48.77496
215.90        42.28144
216.36        35.89232
216.81        32.30296
217.27        32.79248
217.73        37.44764
218.19        45.61184
218.65        50.45937
219.11        48.48427
219.57        43.87331
220.02        40.92426
220.48         42.4674
220.94        48.52993
221.40        59.51349
221.86        75.69543
222.32        88.23551
222.77         87.6574
223.23        79.75458
223.69        70.05928
224.15        61.75911
224.61        55.33125
225.06        49.80983
225.52        46.52015
225.98        46.73572
226.44        49.99255
226.90        55.58104
227.36        61.50377
227.81        64.13019
228.27        62.92028
228.73        59.25039
229.19        55.31083
229.65        53.61712
230.10        54.35308
230.56        56.60642
231.02        59.11176
231.48        59.92563
231.93        58.65711
232.39        56.48423
232.85        54.28334
233.31        53.16537
233.77        53.27415
234.22        54.15585
234.68        55.42044
235.14        56.64425
235.60        57.62923
236.05         58.5875
236.51        59.30736
236.97        59.39115
237.43        58.73995
237.88        57.43258
238.34         55.9039
238.80        55.17264
239.26        55.63279
239.71        57.62542
240.17        60.67629
240.63         63.6178
241.08        65.63826
241.54        66.17204
242.00        66.46258
242.46         69.4156
242.91         77.1981
243.37        90.86377
243.83        109.7346
244.28        121.6727
244.74        112.4933
245.20        86.30685
245.66        59.48501
246.11         43.8665
246.57         39.0808
247.03        40.63206
247.48        46.51167
247.94        52.51896
248.40        56.02714
248.85        57.81077
249.31        58.21644
249.77        56.79193
250.22        53.31335
250.68        47.15396
251.14        38.32812
251.59        30.15671
252.05        26.51456
252.51        27.40053
252.96        30.63492
253.42        33.67074
253.88        35.95614
254.33         37.6786
254.79        40.10669
255.25        44.26624
255.70        49.98335
256.16        56.81354
256.62         62.2592
257.07        62.56363
257.53        59.06504
257.99        54.31397
258.44        50.50996
258.90        49.71274
259.35        50.96986
259.81         53.4578
260.27         55.8349
260.72        56.47728
261.18        55.54629
261.63        53.61686
262.09        51.78803
262.55        50.73376
263.00        50.38475
263.46        50.53531
263.91        50.59146
264.37        50.10044
264.83        49.02643
265.28        47.60535
265.74        46.40083
266.19        45.82094
266.65        45.95324
267.11        46.50379
267.56        47.12275
268.02        47.26511
268.47        46.78073
268.93        45.88332
269.38        44.74183
269.84        43.67384
270.30        42.77362
270.75        41.94094
271.21        41.21737
271.66        40.60976
272.12        40.10648
272.57        39.69974
273.03        39.30342
273.48        38.74476
273.94        38.05053
274.39        37.24969
274.85        36.48943
275.31        35.84423
275.76         35.3101
276.22        34.87645
276.67        34.50986
277.13        34.25766
277.58        34.05111
278.04        33.90686
278.49        33.67312
278.95        33.24709
279.40        32.57913
279.86        31.79617
280.31        30.98287
280.77         30.3693
281.22        29.94982
281.68        29.70551
282.13        29.52368
282.59        29.33611
283.04        29.08218
283.50        28.80632
283.95        28.51258
284.41        28.22812
284.86        27.96017
285.32        27.71833
285.77         27.4817
286.22        27.28251
286.68        27.12265
287.13        26.96733
287.59        26.82228
288.04        26.64868
288.50        26.46211
288.95        26.24459
289.41        26.01882
289.86        25.75427
290.32        25.48626
290.77        25.21434
291.22        24.97402
291.68        24.80175
292.13         24.6995
292.59        24.67511
293.04        24.72812
293.50        24.87687
293.95        25.10623
294.40        25.40673
294.86         25.7485
295.31        26.07783
295.77        26.38417
296.22         26.6686
296.68        26.94712
297.13        27.23385
297.58        27.54247
298.04         27.8704
298.49        28.21488
298.95        28.59036
299.40        28.98215
299.85        29.37558
300.31        29.75974
300.76        30.10911
301.21         30.4142
301.67        30.69528
302.12        30.90674
302.58        31.03508
303.03        31.06806
303.48        31.04117
303.94        31.03022
304.39        31.11665
304.84         31.3226
305.30        31.62536
305.75        31.93662
306.20        32.17038
306.66          32.307
307.11        32.35676
307.57        32.36199
308.02        32.34662
308.47        32.33132
308.93        32.30935
309.38        32.26519
309.83        32.22181
310.29        32.18093
310.74        32.13807
311.19        32.07573
311.65        31.95725
312.10        31.77569
312.55        31.54509
313.00        31.30571
313.46        31.11499
313.91        30.97249
314.36        30.86911
314.82        30.76538
315.27        30.60708
315.72        30.38131
316.18        30.11662
316.63        29.84252
317.08        29.61819
317.53        29.45382
317.99        29.32109
318.44        29.20041
318.89        29.05016
319.35        28.85841
319.80        28.64273
320.25        28.40435
320.70        28.14437
321.16        27.86878
321.61        27.58647
322.06        27.32233
322.51        27.12133
322.97        26.98663
323.42        26.90568
323.87         26.8477
324.32        26.76719
324.78        26.63481
325.23        26.47113
325.68        26.25621
326.13        25.97299
326.59        25.63335
327.04        25.26394
327.49        24.90632
327.94        24.62564
328.39        24.43374
328.85        24.30143
329.30        24.23201
329.75        24.17921
330.20        24.12349
330.66        24.06925
331.11        24.00292
331.56        23.88563
332.01         23.7123
332.46        23.48369
332.92        23.22812
333.37        23.04207
333.82        22.93766
334.27        22.89843
334.72         22.8864
335.17        22.83136
335.63        22.71323
336.08        22.57168
336.53        22.42991
336.98        22.33249
337.43        22.29473
337.88        22.29358
338.34        22.32748
338.79        22.41992
339.24        22.55066
339.69        22.70659
340.14        22.82867
340.59        22.82508
341.05        22.68574
341.50        22.43763
341.95        22.14591
342.40        21.91143
342.85        21.76706
343.30        21.69049
343.75        21.65889
344.20        21.63331
344.66        21.60258
345.11        21.57788
345.56        21.56302
346.01        21.56085
346.46        21.57237
346.91        21.59241
347.36         21.6088
347.81         21.6098
348.26        21.59243
348.72        21.55736
349.17        21.52268
349.62        21.52832
350.07        21.57966
350.52        21.66911
350.97        21.74563
351.42        21.72834
351.87        21.60423
352.32        21.39713
352.77        21.18504
353.22        21.08245
353.67        21.10899
354.13        21.23438
354.58        21.36579
355.03         21.3542
355.48        21.16758
355.93        20.85617
356.38         20.5309
356.83        20.35528
357.28        20.36197
357.73        20.49972
358.18        20.66318
358.63        20.68224
359.08         20.5152
359.53        20.21714
359.98        19.89096
360.43        19.68772
360.88        19.63848
361.33         19.6937
361.78         19.7629
362.23        19.70508
362.68        19.49256
363.13        19.18076
363.58        18.85999
364.03        18.66453
364.48        18.62526
364.93        18.69495
365.38         18.8052
365.83        18.84712
366.28        18.78657
366.73        18.65635
367.18        18.49322
367.63        18.35487
368.08        18.25615
368.53        18.17155
368.98        18.08287
369.43        17.96423
369.88        17.81014
370.33        17.64069
370.78         17.4619
371.23        17.27996
371.68        17.10574
372.13        16.93923
372.58        16.80658
373.03        16.74854
373.48        16.76414
373.93         16.8331
374.38        16.90709
374.83        16.90884
375.28        16.81918
375.72        16.65867
376.17        16.46885
376.62        16.29316
377.07        16.15009
377.52        16.02748
377.97         15.9326
378.42        15.87867
378.87        15.86201
379.32        15.87585
379.77        15.89563
380.22        15.88229
380.67        15.82338
381.11         15.7291
381.56        15.59937
382.01        15.45827
382.46        15.32466
382.91        15.20524
383.36        15.10448
383.81         15.0238
384.26         14.9613
384.71        14.91367
385.15        14.89237
385.60        14.91803
386.05        14.98485
386.50        15.08078
386.95        15.15935
387.40        15.15321
387.85        15.05559
388.29        14.88318
388.74        14.70925
389.19        14.60159
389.64        14.57111
390.09        14.59096
390.54        14.62068
390.98        14.59069
391.43        14.49439
391.88        14.35742
392.33        14.20862
392.78        14.08576
393.23        13.99954
393.67        13.93155
394.12        13.88673
394.57        13.84488
395.02        13.80077
395.47        13.75629
395.91        13.72067
396.36        13.69882
396.81        13.69907
397.26        13.71674
397.71        13.73373
398.15        13.73392
398.60         13.7298
399.05        13.66823
399.50         13.5801
399.95        13.61024
400.39        13.71936
400.84        13.65621
401.29        13.43575
401.74        13.29536
402.18        13.25305
402.63        13.17427
403.08        13.07638
403.53        13.04362
403.97        13.07821
404.42        13.15413
404.87        13.23623
405.32        13.26559
405.76        13.22629
406.21        13.14433
406.66        13.04776
407.11        12.98342
407.55        12.96782
408.00        12.97777
408.45        13.00289
408.90        13.01907
409.34        13.01388
409.79        12.99687
410.24        12.96541
410.68        12.90847
411.13        12.83062
411.58        12.73322
412.03        12.62659
412.47        12.53619
412.92        12.46987
413.37        12.42758
413.81         12.4059
414.26        12.40695
414.71        12.42308
415.15        12.45723
415.60        12.49337
416.05        12.51236
416.49        12.50917
416.94        12.48466
417.39        12.45293
417.83        12.43792
418.28        12.44284
418.73        12.45724
419.17        12.47136
419.62        12.46925
420.07        12.44729
420.51        12.41188
420.96        12.36574
421.41        12.30945
421.85        12.24356
422.30        12.16652
422.74        12.08882
423.19        12.08179
423.64        12.12846
424.08        12.14778
424.53        12.12705
424.98         12.1409
425.42        12.19356
425.87        12.20557
426.31        12.18048
426.76        12.21551
427.21        12.27664
427.65        12.19169
428.10        12.00868
428.54        11.92819
428.99        11.96901
429.44        12.06878
429.88        12.17225
430.33        12.14633
430.77        12.01888
431.22        12.02571
431.66        12.15486
432.11        12.17468
432.56        12.08383
433.00        12.04992
433.45        12.03715
433.89         11.9036
434.34         11.7467
434.78        11.50032
435.23        11.79841
435.67        11.85786
436.12        11.83516
436.57        11.77077
437.01        11.69201
437.46        11.65086
437.90        11.65128
438.35        11.64207
438.79        11.61859
439.24        11.61443
439.68        11.62835
440.13        11.65076
440.57        11.66862
441.02         11.6718
441.46        11.65751
441.91        11.60198
442.35         11.5228
442.80        11.55712
443.24        11.65789
443.69        11.61943
444.13        11.46809
444.58        11.42943
445.02         11.5087
445.47        11.58634
445.91        11.62715
446.36        11.63292
446.80        11.59339
447.24        11.51276
447.69        11.42105
448.13        11.36045
448.58        11.34497
449.02        11.35978
449.47         11.3913
449.91        11.41112
450.36        11.41419
450.80        11.41052
451.25        11.40401
451.69        11.39381
452.13         11.3822
452.58        11.36154
453.02        11.34402
453.47        11.35294
453.91        11.38939
454.36        11.44967
454.80        11.49755
455.24        11.47299
455.69        11.37352
456.13        11.21462
456.58         11.0626
457.02        10.99714
457.46        11.03795
457.91        11.15565
458.35        11.28847
458.79        11.33922
459.24        11.29632
459.68        11.18547
460.13        11.06872
460.57         11.0071
461.01        11.02535
461.46        11.08991
461.90        11.17951
462.34        11.24882
462.79         11.2778
463.23        11.28638
463.68        11.27091
464.12        11.23256
464.56          11.175
465.01        11.11042
465.45        11.04176
465.89        11.00556
466.34        11.00492
466.78        11.03007
467.22        11.06627
467.67        11.07539
468.11        11.05473
468.55        11.01132
468.99        10.96523
469.44        10.94705
469.88        10.96504
470.32        11.00837
470.77        11.06323
471.21        11.11036
471.65        11.14061
472.10        11.16066
472.54        11.17117
472.98        11.17865
473.42        11.18504
473.87        11.19079
474.31        11.18836
474.75        11.17854
475.20        11.16546
475.64        11.14769
476.08        11.13337
476.52        11.12753
476.97        11.13195
477.41        11.15049
477.85        11.18295
478.29        11.21151
478.74        11.24256
479.18        11.30552
479.62        11.38638
480.06        11.44475
480.50        11.47711
480.95        11.48578
481.39        11.47357
481.83        11.55577
482.27        11.56795
482.72        11.64867
483.16        11.73605
483.60          11.787
484.04        11.78274
484.48        11.80458
484.93        11.92513
485.37        11.85606
485.81        11.94089
486.25        12.26232
486.69        12.20587
487.14        12.00818
487.58        12.53196
488.02         12.5362
488.46        12.35244
488.90        12.39493
489.34        12.46154
489.79        12.55258
490.23        12.56308
490.67        12.70093
491.11        12.90699
491.55        12.92065
491.99        12.78085
492.43        12.76205
492.88        12.88594
493.32        12.99691
493.76        13.07609
494.20        13.17421
494.64        13.28976
495.08        13.38114
495.52        13.45192
495.96         13.5961
496.41        13.78466
496.85        13.80938
497.29        13.69953
497.73        13.82192
498.17        13.97702
498.61        14.07559
499.05        14.05842
499.49         14.0943
499.93        14.16283
500.37        14.32704
500.82        14.54104
501.26        14.68949
501.70        14.75385
502.14        14.79885
502.58         14.8494
503.02        14.91571
503.46        15.00525
503.90        15.11289
504.34         15.2177
504.78        15.28516
505.22        15.30799
505.66        15.30023
506.10         15.2819
506.54        15.28391
506.98        15.31616
507.42        15.36924
507.86        15.43713
508.30        15.50958
508.74        15.58021
509.18        15.65116
509.62        15.71617
510.06        15.76525
510.50        15.79684
510.94        15.81249
511.38        15.82014
511.82        15.83381
512.26        15.85828
512.70        15.89163
513.14         15.9301
513.58        15.96645
514.02        15.99854
514.46        16.02833
514.90        16.05906
515.34        16.09554
515.78        16.13762
516.22        16.18175
516.66        16.22095
517.10        16.24539
517.54        16.25243
517.98        16.24446
518.42        16.22783
518.86        16.21291
519.30        16.20293
519.74        16.19617
520.18        16.18811
520.62        16.17061
521.06        16.14336
521.50        16.11139
521.93        16.08273
522.37        16.06362
522.81        16.05797
523.25         16.0598
523.69        16.06535
524.13        16.06969
524.57        16.06808
525.01        16.05945
525.45        16.03696
525.89        15.98993
526.32        15.91814
526.76        15.83344
527.20        15.74493
527.64        15.66811
528.08         15.6088
528.52        15.56185
528.96        15.53334
529.40        15.53147
529.83        15.55263
530.27        15.59343
530.71        15.62731
531.15        15.61387
531.59        15.54562
532.03        15.43274
532.46        15.30562
532.90        15.22434
533.34        15.19998
533.78        15.20986
534.22        15.22428
534.66        15.21495
535.09        15.16216
535.53        15.04741
535.97        14.90985
536.41        14.84851
536.85        14.87704
537.28        14.95009
537.72        15.03875
538.16        15.10775
538.60        15.14257
539.04        15.15634
539.47        15.15608
539.91        15.16163
540.35         15.1785
540.79        15.20248
541.22        15.23914
541.66        15.30439
542.10        15.39607
542.54        15.50838
542.97        15.62802
543.41        15.73913
543.85        15.83413
544.29        15.91979
544.72        15.99334
545.16        16.06281
545.60        16.13099
546.04        16.20123
546.47        16.28923
546.91        16.41658
547.35        16.58266
547.79        16.77698
548.22        16.97871
548.66        17.15314
549.10        17.31066
549.53        17.45075
549.97         17.5771
550.41        17.65346
550.84        17.69797
551.28        17.77596
551.72         17.8851
552.15        17.98855
552.59        18.10076
553.03        18.14637
553.46        18.34199
553.90         18.4695
554.34        18.58906
554.77        18.70706
555.21        18.83063
555.65        18.96129
556.08        19.09156
556.52        19.20588
556.96        19.29067
557.39        19.37915
557.83        19.45659
558.27        19.41791
558.70        19.30354
559.14        19.29362
559.57        19.38958
560.01        19.48465
560.45           19.56
560.88        19.64701
561.32        19.74808
561.75        19.83376
562.19        19.90807
562.63        19.97333
563.06        20.02785
563.50        20.07403
563.93        20.10374
564.37        20.15749
564.80        20.24617
565.24        20.31095
565.68        20.30906
566.11        20.61437
566.55        20.48678
566.98        20.54795
567.42        20.61383
567.85        20.71852
568.29        20.87044
568.72        21.06681
569.16        21.31679
569.60        21.51042
570.03        21.71967
570.47        21.93686
570.90         22.1549
571.34        22.17895
571.77        22.38571
572.21         22.3941
572.64        22.31751
573.08        22.62431
573.51        22.75729
573.95        22.95227
574.38        23.01516
574.82        23.38235
