SpectraSmart Spectrum 2.9.0.0
--------- Device Information -----------
Spectrum Name :  反射率_0
Saving Time :  2024/04/27 00:12:56
Spectro-Module Model Name : SE2030-DUVN
Spectro-Module Serial Number : OS361AC55029948
Wavelength Start : 200
Wavelength End : 1025
Wavelength Unit : Wavelength(nm)
Spectrum Unit : Reflectance(%)
-----------Spectrum Setting ------------
Integration Time : 20ms
Average : 10
Boxcar : 0
Background removal :  enabled
linearity correction :  enabled
SC :  disabled
Intensity correction :  disabled
DWT denoise :  enabled
savitzky-golay :  disabled
FFT :  disabled
Running average :  disabled
Kalman :  disabled
High pass :  disabled
---------------BEGIN--------------------
Wavelength(nm)             Reflectance(%)
200.29               0
200.75        24.85595
201.21        27.56521
201.67        30.35149
202.13         32.0205
202.58        32.41744
203.04        32.38362
203.50        31.94892
203.96        30.97588
204.42        29.53904
204.88         27.3217
205.34        25.10607
205.80        24.44545
206.26        25.43501
206.72        27.50269
207.18        29.15617
207.64        28.88796
208.10        26.48245
208.55        21.79067
209.01        15.06128
209.47        11.62725
209.93        14.36377
210.39        19.82044
210.85        24.54348
211.31        27.43677
211.77        29.30082
212.23        31.13319
212.69        35.06486
213.14        47.61012
213.60         56.0736
214.06        53.91434
214.52        49.16812
214.98        44.54037
215.44        39.46133
215.90        33.35497
216.36        27.00008
216.81        21.62028
217.27        17.97534
217.73        15.82005
218.19        15.44936
218.65        17.25568
219.11        20.47556
219.57        23.74833
220.02        27.54561
220.48        34.08507
220.94        44.87827
221.40        62.08961
221.86        85.91772
222.32        102.7524
222.77        99.30142
223.23        84.22726
223.69        68.34663
224.15        58.00254
224.61        52.59792
225.06        49.68559
225.52        48.53415
225.98        48.26693
226.44        48.62103
226.90        49.86376
227.36        51.88093
227.81        54.20111
228.27        56.47873
228.73        58.25191
229.19         59.6312
229.65        60.97217
230.10        62.29768
230.56        63.64662
231.02        64.29848
231.48        63.20974
231.93        60.46848
232.39        56.96281
232.85        53.91898
233.31        52.93706
233.77        54.05834
234.22        56.70912
234.68         59.7377
235.14        61.38677
235.60        61.11594
236.05        59.37646
236.51         56.7025
236.97        54.46177
237.43        53.31163
237.88        52.94288
238.34        53.04726
238.80        53.26415
239.26        53.45041
239.71         54.2352
240.17        55.26837
240.63        56.01464
241.08        56.30314
241.54        55.52062
242.00        55.12558
242.46        58.35135
242.91        67.52266
243.37        84.43057
243.83        108.9974
244.28        127.7333
244.74        122.9481
245.20        96.75994
245.66        66.29422
246.11        45.18441
246.57        33.66192
247.03         27.2201
247.48        25.32595
247.94        27.34711
248.40        31.16993
248.85        35.55204
249.31        38.83712
249.77        39.57192
250.22         37.7674
250.68        33.46546
251.14        27.18387
251.59        22.53411
252.05        22.54282
252.51        26.12705
252.96        30.77666
253.42        34.15604
253.88         36.0698
254.33        36.98581
254.79        38.43982
255.25        41.61843
255.70        46.42482
256.16        52.43812
256.62        57.36578
257.07        57.75684
257.53        54.72934
257.99        50.49722
258.44        47.10513
258.90        46.49448
259.35        47.76218
259.81        50.16886
260.27        52.32661
260.72        52.55193
261.18        51.10084
261.63        48.67609
262.09        46.52822
262.55        45.52885
263.00         45.5655
263.46         46.2726
263.91        46.93361
264.37         46.9036
264.83         46.1068
265.28        44.85032
265.74        43.70036
266.19        43.08112
266.65        43.10277
267.11        43.47507
267.56         43.9311
268.02        44.05837
268.47        43.73979
268.93        43.16627
269.38        42.40843
269.84        41.62212
270.30        40.86786
270.75        40.08111
271.21        39.41367
271.66        39.04667
272.12        38.99115
272.57        39.17402
273.03        39.34375
273.48        39.07296
273.94        38.33606
274.39        37.24768
274.85        36.14291
275.31        35.35336
275.76        34.92053
276.22        34.75758
276.67        34.66476
277.13        34.45311
277.58         34.0213
278.04        33.46898
278.49        32.83796
278.95        32.30027
279.40        31.84058
279.86        31.48159
280.31        31.08387
280.77        30.56322
281.22        29.88578
281.68         29.1639
282.13          28.513
282.59        28.17201
283.04        28.12394
283.50        28.29676
283.95        28.50293
284.41        28.46476
284.86         28.1105
285.32        27.55183
285.77        26.92387
286.22        26.47494
286.68        26.25096
287.13        26.14682
287.59        26.06059
288.04         25.7949
288.50         25.3454
288.95        24.77326
289.41        24.21091
289.86        23.78334
290.32        23.54514
290.77        23.42336
291.22        23.36907
291.68        23.29922
292.13        23.18019
292.59        23.05976
293.04        22.94887
293.50        22.88437
293.95        22.87112
294.40        22.89216
294.86        22.96636
295.31         23.1192
295.77        23.35316
296.22        23.65726
296.68        23.97675
297.13        24.21131
297.58        24.34895
298.04        24.41505
298.49        24.48624
298.95        24.70267
299.40        25.07681
299.85         25.5549
300.31        26.03417
300.76        26.35222
301.21        26.47598
301.67        26.47573
302.12        26.40969
302.58        26.41403
303.03        26.50555
303.48        26.65908
303.94        26.85495
304.39        27.04024
304.84        27.20698
305.30        27.38363
305.75        27.54766
306.20        27.70593
306.66        27.86404
307.11        28.00178
307.57        28.13272
308.02        28.24561
308.47         28.3468
308.93        28.44364
309.38        28.52303
309.83        28.60612
310.29        28.69202
310.74        28.76404
311.19        28.81064
311.65        28.80814
312.10        28.74787
312.55        28.64333
313.00        28.50257
313.46        28.33512
313.91        28.14089
314.36        27.92778
314.82        27.71994
315.27        27.56561
315.72        27.47127
316.18        27.43094
316.63        27.40035
317.08        27.32099
317.53        27.17866
317.99        26.98653
318.44        26.77913
318.89        26.60558
319.35         26.4794
319.80        26.37925
320.25        26.28714
320.70        26.17654
321.16        26.03525
321.61        25.88326
322.06        25.71135
322.51        25.50581
322.97        25.26622
323.42        24.99856
323.87        24.74163
324.32        24.56372
324.78        24.46847
325.23        24.45306
325.68        24.44051
326.13         24.3056
326.59        24.02227
327.04        23.64004
327.49        23.24942
327.94         22.9951
328.39        22.90693
328.85        22.93003
329.30        23.00863
329.75         22.9975
330.20        22.85319
330.66        22.61935
331.11        22.35675
331.56        22.14327
332.01        22.00603
332.46         21.9114
332.92        21.84017
333.37        21.80043
333.82        21.77034
334.27        21.75893
334.72        21.73788
335.17        21.65405
335.63        21.49942
336.08        21.30247
336.53        21.10621
336.98         20.9931
337.43         20.9852
337.88        21.05358
338.34        21.16886
338.79        21.29931
339.24        21.41143
339.69         21.5108
340.14        21.56163
340.59        21.51146
341.05        21.36368
341.50        21.13102
341.95        20.87781
342.40        20.70461
342.85        20.63871
343.30        20.65906
343.75         20.7208
344.20        20.74662
344.66        20.71837
345.11        20.65749
345.56         20.5981
346.01        20.59326
346.46        20.65564
346.91        20.76434
347.36        20.88235
347.81        20.95869
348.26        20.97934
348.72        20.95636
349.17        20.92094
349.62        20.93438
350.07        21.00584
350.52        21.11603
350.97        21.20617
351.42        21.18351
351.87        21.03542
352.32        20.80061
352.77        20.55566
353.22        20.41032
353.67        20.38791
354.13        20.45606
354.58         20.5554
355.03        20.59159
355.48        20.53533
355.93        20.41531
356.38        20.27248
356.83        20.16745
357.28        20.11303
357.73        20.08452
358.18        20.04986
358.63        19.96239
359.08        19.81305
359.53        19.62357
359.98        19.42325
360.43        19.25051
360.88        19.11407
361.33        19.00142
361.78        18.89627
362.23        18.77417
362.68        18.63095
363.13        18.47868
363.58        18.32714
364.03        18.18953
364.48        18.06733
364.93        17.95039
365.38        17.83948
365.83        17.73782
366.28        17.64425
366.73        17.56142
367.18        17.47009
367.63         17.3392
368.08        17.16671
368.53        16.96278
368.98        16.76581
369.43         16.6365
369.88        16.58722
370.33        16.60165
370.78         16.6358
371.23         16.6148
371.68        16.52015
372.13        16.37441
372.58        16.21929
373.03         16.1235
373.48        16.09962
373.93        16.11529
374.38        16.13769
374.83        16.11657
375.28        16.03641
375.72        15.91684
376.17        15.76859
376.62        15.58424
377.07        15.37518
377.52        15.14518
377.97        14.94069
378.42        14.84004
378.87        14.85285
379.32        14.94845
379.77        15.06344
380.22        15.10173
380.67        15.03794
381.11        14.90147
381.56        14.71496
382.01        14.54148
382.46        14.41279
382.91        14.31884
383.36        14.25585
383.81        14.21574
384.26        14.19167
384.71        14.18562
385.15        14.19782
385.60        14.22902
386.05        14.27044
386.50        14.31416
386.95        14.33578
387.40        14.30344
387.85        14.21617
388.29        14.08033
388.74        13.94395
389.19        13.84061
389.64        13.77678
390.09        13.73943
390.54        13.71128
390.98        13.66001
391.43        13.58844
391.88        13.50945
392.33        13.43279
392.78        13.37021
393.23        13.32496
393.67        13.28397
394.12        13.26229
394.57        13.25697
395.02        13.26421
395.47        13.27805
395.91        13.28973
396.36        13.27507
396.81        13.23822
397.26        13.18966
397.71        13.13343
398.15        13.08425
398.60        13.06194
399.05        13.00631
399.50        12.94106
399.95        12.99568
400.39        13.12953
400.84        13.10668
401.29        12.93176
401.74        12.81737
402.18        12.77697
402.63        12.68008
403.08        12.56083
403.53         12.5297
403.97         12.5943
404.42        12.72346
404.87         12.8555
405.32        12.88897
405.76        12.80147
406.21        12.63241
406.66        12.44812
407.11        12.35405
407.55        12.37733
408.00        12.47788
408.45        12.60337
408.90        12.65322
409.34        12.59747
409.79        12.47795
410.24         12.3354
410.68        12.21972
411.13        12.15052
411.58        12.10679
412.03         12.0896
412.47        12.10492
412.92        12.14326
413.37        12.20753
413.81        12.27036
414.26        12.30134
414.71        12.29074
415.15        12.24502
415.60        12.18523
416.05        12.16202
416.49        12.18996
416.94         12.2552
417.39        12.32527
417.83         12.3479
418.28         12.3125
418.73         12.2358
419.17         12.1584
419.62        12.14441
420.07        12.20684
420.51        12.31883
420.96         12.4379
421.41        12.49755
421.85        12.47762
422.30        12.39624
422.74        12.28351
423.19        12.23999
423.64        12.25754
424.08        12.24476
424.53        12.18631
424.98        12.15413
425.42        12.15562
425.87        12.12369
426.31        12.06743
426.76        12.08633
427.21         12.1483
427.65        12.07816
428.10        11.93202
428.54        11.92195
428.99        12.06233
429.44        12.28321
429.88        12.49535
430.33        12.51311
430.77        12.35988
431.22        12.29442
431.66        12.34469
432.11        12.34234
432.56        12.30383
433.00        12.38366
433.45        12.50685
433.89        12.44583
434.34        12.27667
434.78        11.96049
435.23        12.19607
435.67        12.22597
436.12        12.22615
436.57        12.21562
437.01        12.20404
437.46        12.21517
437.90        12.24072
438.35        12.24033
438.79        12.20801
439.24         12.1751
439.68        12.14562
440.13        12.11195
440.57        12.08141
441.02        12.08055
441.46        12.11091
441.91        12.13013
442.35        12.13361
442.80        12.23615
443.24        12.38209
443.69        12.36422
444.13        12.20757
444.58         12.1483
445.02        12.19759
445.47        12.23068
445.91        12.23459
446.36        12.25023
446.80        12.27021
447.24        12.28263
447.69        12.29043
448.13        12.29113
448.58        12.28734
449.02        12.28137
449.47        12.26631
449.91        12.22522
450.36        12.16323
450.80        12.08567
451.25        12.02245
451.69        12.01262
452.13        12.06123
452.58        12.14994
453.02        12.24473
453.47        12.29235
453.91        12.27923
454.36        12.22652
454.80        12.14808
455.24        12.06585
455.69         11.9971
456.13        11.92752
456.58        11.88738
457.02        11.90241
457.46        11.97698
457.91        12.10019
458.35        12.22023
458.79        12.25473
459.24        12.20036
459.68        12.07668
460.13        11.95042
460.57           11.89
461.01         11.9213
461.46        12.00908
461.90        12.12796
462.34         12.2231
462.79        12.26972
463.23        12.28928
463.68        12.27501
464.12        12.22456
464.56        12.14405
465.01        12.05118
465.45        11.95493
465.89        11.90209
466.34         11.8972
466.78        11.92615
467.22        11.97462
467.67        12.00357
468.11        12.00761
468.55        11.99267
468.99        11.96775
469.44        11.94614
469.88        11.93423
470.32        11.92704
470.77         11.9276
471.21        11.94419
471.65        11.97541
472.10        12.02141
472.54        12.07046
472.98        12.10868
473.42        12.13149
473.87        12.14438
474.31        12.14641
474.75        12.14957
475.20        12.15968
475.64        12.16953
476.08        12.17911
476.52         12.1813
476.97        12.17653
477.41        12.17539
477.85        12.18681
478.29        12.20601
478.74        12.24388
479.18        12.32618
479.62        12.43365
480.06        12.51655
480.50        12.56623
480.95         12.5851
481.39        12.57089
481.83        12.64134
482.27        12.61737
482.72        12.65745
483.16        12.70261
483.60        12.71887
484.04        12.69452
484.48        12.71431
484.93        12.86325
485.37        12.84172
485.81        13.00503
486.25        13.40241
486.69        13.37583
487.14        13.13541
487.58        13.74048
488.02        13.82365
488.46          13.488
488.90        13.55092
489.34        13.18234
489.79        13.29952
490.23         13.5776
490.67        13.81044
491.11        13.91773
491.55        13.86024
491.99        13.71921
492.43           13.73
492.88        13.92105
493.32        14.13185
493.76        14.30984
494.20        14.46199
494.64         14.5769
495.08        14.62249
495.52        14.62732
495.96        14.73725
496.41        14.93415
496.85        14.97705
497.29        14.89101
497.73        15.06593
498.17        15.27853
498.61        15.43421
499.05          15.452
499.49        15.49038
499.93        15.52339
500.37        15.62747
500.82         15.7743
501.26        15.87625
501.70        15.92468
502.14        15.98149
502.58        16.05899
503.02        16.14296
503.46        16.23441
503.90        16.33588
504.34         16.4343
504.78        16.50766
505.22        16.55078
505.66        16.57009
506.10        16.57831
506.54        16.59648
506.98        16.63219
507.42        16.68143
507.86        16.73995
508.30        16.80018
508.74        16.85826
509.18        16.91447
509.62        16.97117
510.06        17.03205
510.50        17.09627
510.94        17.16161
511.38        17.21752
511.82        17.24767
512.26        17.25144
512.70        17.23643
513.14        17.22085
513.58        17.23402
514.02        17.28229
514.46        17.35458
514.90         17.4365
515.34        17.50464
515.78        17.54953
516.22        17.57691
516.66        17.58562
517.10        17.57449
517.54        17.54702
517.98        17.50498
518.42        17.45998
518.86        17.43097
519.30        17.42346
519.74        17.43428
520.18        17.45615
520.62        17.47536
521.06        17.48752
521.50        17.49596
521.93         17.5035
522.37         17.5086
522.81        17.51291
523.25        17.51204
523.69        17.50542
524.13        17.49385
524.57        17.47643
525.01        17.45321
525.45        17.42014
525.89        17.37065
526.32        17.30397
526.76        17.22847
527.20        17.15224
527.64        17.08887
528.08        17.04166
528.52         17.0063
528.96        16.97803
529.40        16.94883
529.83        16.91495
530.27        16.87948
530.71        16.83972
531.15        16.79284
531.59         16.7409
532.03        16.68613
532.46        16.63213
532.90        16.59679
533.34        16.58005
533.78        16.56696
534.22        16.55565
534.66        16.56335
535.09        16.57494
535.53        16.55172
535.97        16.49457
536.41        16.44872
536.85        16.41912
537.28        16.38088
537.72         16.3472
538.16        16.35136
538.60        16.39595
539.04        16.46999
539.47        16.55156
539.91        16.61674
540.35        16.65585
540.79         16.6791
541.22        16.69538
541.66        16.72565
542.10        16.77361
542.54        16.83159
542.97         16.8988
543.41        16.98142
543.85        17.07611
544.29        17.18531
544.72        17.29256
545.16        17.38388
545.60        17.45504
546.04        17.51351
546.47        17.58336
546.91        17.70066
547.35        17.86794
547.79        18.07007
548.22         18.2761
548.66        18.43577
549.10        18.56032
549.53        18.65688
549.97        18.74297
550.41        18.80384
550.84        18.86886
551.28        18.98377
551.72        19.13133
552.15        19.29939
552.59        19.50589
553.03        19.46745
553.46        19.76611
553.90        19.88694
554.34        19.99942
554.77        20.10291
555.21        20.21012
555.65          20.325
556.08        20.44004
556.52        20.54338
556.96        20.62472
557.39        20.72487
557.83        20.82781
558.27        20.81808
558.70        20.72983
559.14        20.74237
559.57        20.85283
560.01        20.94857
560.45        21.01435
560.88         21.0926
561.32        21.18853
561.75        21.26883
562.19        21.33502
562.63        21.38515
563.06        21.41764
563.50        21.43815
563.93        21.44373
564.37        21.48595
564.80        21.57724
565.24        21.65085
565.68        21.65503
566.11        21.97907
566.55        21.83137
566.98        21.87863
567.42        21.92662
567.85        22.01371
568.29        22.15234
568.72        22.34167
569.16        22.59495
569.60        22.79795
570.03        23.02166
570.47        23.25931
570.90        23.51376
571.34        23.52108
571.77        23.70539
572.21        23.74877
572.64        23.78023
573.08        23.82379
573.51        23.89833
573.95        24.03762
574.38         24.2313
574.82        24.49101
