SpectraSmart Spectrum 2.9.0.0
--------- Device Information -----------
Spectrum Name :  反射率_0
Saving Time :  2024/04/27 00:16:28
Spectro-Module Model Name : SE2030-DUVN
Spectro-Module Serial Number : OS361AC55029948
Wavelength Start : 200
Wavelength End : 1025
Wavelength Unit : Wavelength(nm)
Spectrum Unit : Reflectance(%)
-----------Spectrum Setting ------------
Integration Time : 20ms
Average : 10
Boxcar : 0
Background removal :  enabled
linearity correction :  enabled
SC :  disabled
Intensity correction :  disabled
DWT denoise :  enabled
savitzky-golay :  disabled
FFT :  disabled
Running average :  disabled
Kalman :  disabled
High pass :  disabled
---------------BEGIN--------------------
Wavelength(nm)             Reflectance(%)
200.29               0
200.75        25.15336
201.21        26.82622
201.67        28.34489
202.13        28.66295
202.58        27.70858
203.04        25.91687
203.50        24.43921
203.96        26.38398
204.42         33.3728
204.88        44.51168
205.34        56.23332
205.80         62.3304
206.26         61.1807
206.72        55.00861
207.18         47.6237
207.64         41.9151
208.10        37.80946
208.55        34.37511
209.01        30.73615
209.47        27.68788
209.93        26.76184
210.39        27.86278
210.85        30.03683
211.31        33.30992
211.77        38.89106
212.23        50.32736
212.69        77.76654
213.14        123.8467
213.60        121.3173
214.06         88.2992
214.52        65.57813
214.98        54.40427
215.44        48.26097
215.90        43.33652
216.36        39.75733
216.81        38.33463
217.27        39.73878
217.73        45.46447
218.19        54.47729
218.65        58.15872
219.11         53.6697
219.57        46.37493
220.02         42.7219
220.48        47.20155
220.94        60.35339
221.40        84.16016
221.86        119.0455
222.32        145.1903
222.77        142.6069
223.23         123.497
223.69        102.1834
224.15        87.28693
224.61        78.44228
225.06        72.22895
225.52        68.94621
225.98        68.73316
226.44        71.00376
226.90        75.66644
227.36        80.81257
227.81        82.90183
228.27        81.52354
228.73        77.79286
229.19        74.29313
229.65        74.11782
230.10         77.3701
230.56        82.99541
231.02         88.6576
231.48        90.66068
231.93        88.41241
232.39        83.91155
232.85        79.40614
233.31         77.8027
233.77        79.37412
234.22        82.95229
234.68        87.11766
235.14        89.74799
235.60        90.11005
236.05         88.9062
236.51        86.34688
236.97        83.22521
237.43        80.13736
237.88         76.9884
238.34         74.1597
238.80         72.4601
239.26        72.13027
239.71        73.83162
240.17        77.06716
240.63        80.53105
241.08        83.38793
241.54        84.85926
242.00        86.29823
242.46        91.14602
242.91        102.1613
243.37        120.7249
243.83        146.4987
244.28        165.3494
244.74        158.4251
245.20        128.3151
245.66        94.73692
246.11        72.89813
246.57        62.67102
247.03        59.27884
247.48        59.47149
247.94         58.4884
248.40        55.77269
248.85        53.15234
249.31        51.41666
249.77          50.452
250.22        49.86752
250.68        49.18975
251.14         48.2444
251.59        47.25578
252.05        46.95489
252.51        47.84112
252.96         48.9521
253.42        49.55014
253.88         49.7378
254.33        49.49697
254.79         50.6468
255.25        54.64328
255.70        61.17507
256.16        69.59765
256.62        76.84978
257.07        78.16336
257.53        74.79018
257.99         69.6573
258.44        65.32377
258.90        64.23738
259.35        65.35255
259.81        67.84842
260.27        70.19543
260.72        70.57092
261.18        69.25527
261.63        66.88203
262.09        64.84624
262.55        64.03291
263.00        64.28636
263.46        65.28539
263.91        66.12103
264.37        66.02935
264.83          64.932
265.28        63.19744
265.74        61.64577
266.19        60.93247
266.65            61.2
267.11         62.0371
267.56        62.94927
268.02        63.16983
268.47        62.50262
268.93        61.28527
269.38        59.78643
269.84        58.48373
270.30        57.51358
270.75        56.69994
271.21        56.09824
271.66        55.72579
272.12        55.53896
272.57        55.50066
273.03        55.38083
273.48        54.76717
273.94        53.67405
274.39        52.21168
274.85        50.73301
275.31        49.55521
275.76        48.72311
276.22        48.17881
276.67        47.77283
277.13        47.42406
277.58         47.0116
278.04        46.60455
278.49        46.11004
278.95        45.54233
279.40        44.84174
279.86        44.09957
280.31        43.27701
280.77        42.47756
281.22         41.6743
281.68        40.93946
282.13        40.25948
282.59        39.73391
283.04        39.31031
283.50        38.98133
283.95        38.67077
284.41        38.29404
284.86        37.82446
285.32        37.32483
285.77        36.80156
286.22         36.3374
286.68         35.9478
287.13        35.57038
287.59        35.21523
288.04        34.84321
288.50        34.47504
288.95        34.08801
289.41        33.70071
289.86        33.25441
290.32         32.7899
290.77        32.31062
291.22        31.86483
291.68        31.50456
292.13        31.23063
292.59        31.04314
293.04        30.94367
293.50        30.96125
293.95        31.07473
294.40        31.26898
294.86        31.48925
295.31        31.63968
295.77        31.70789
296.22        31.71353
296.68        31.70465
297.13        31.74032
297.58        31.85094
298.04        32.02349
298.49        32.25149
298.95        32.54287
299.40        32.87598
299.85        33.23949
300.31        33.60624
300.76        33.92247
301.21        34.17162
301.67        34.37355
302.12        34.50192
302.58        34.58142
303.03        34.60244
303.48        34.59243
303.94        34.59318
304.39         34.6302
304.84        34.72313
305.30        34.87201
305.75        35.03896
306.20        35.21736
306.66        35.40194
307.11        35.57336
307.57        35.72173
308.02        35.78756
308.47        35.77297
308.93        35.69574
309.38        35.58081
309.83        35.51685
310.29          35.521
310.74        35.56898
311.19        35.60553
311.65        35.53357
312.10        35.33406
312.55        35.04438
313.00        34.75054
313.46        34.57724
313.91        34.53542
314.36        34.59214
314.82        34.66267
315.27        34.62044
315.72        34.43008
316.18        34.14182
316.63        33.81779
317.08        33.57022
317.53        33.42486
317.99        33.33794
318.44         33.2691
318.89        33.14287
319.35        32.93904
319.80        32.68869
320.25        32.41653
320.70        32.15808
321.16        31.92745
321.61        31.72502
322.06        31.54892
322.51        31.40111
322.97        31.27392
323.42         31.1672
323.87        31.08318
324.32        31.03053
324.78        30.99147
325.23        30.97473
325.68        30.91748
326.13        30.72966
326.59        30.40096
327.04        29.97569
327.49        29.54293
327.94        29.24571
328.39        29.11309
328.85        29.09222
329.30        29.13849
329.75        29.10787
330.20        28.95812
330.66         28.7316
331.11        28.47947
331.56        28.26064
332.01        28.09731
332.46        27.95545
332.92        27.83285
333.37        27.77699
333.82         27.7726
334.27        27.82462
334.72         27.8702
335.17        27.79774
335.63        27.58847
336.08        27.29086
336.53          27.003
336.98        26.90119
337.43        27.02596
337.88        27.31467
338.34        27.66776
338.79        27.94161
339.24        28.06368
339.69        28.07333
340.14        27.97948
340.59        27.80471
341.05        27.58551
341.50        27.31828
341.95        27.06297
342.40        26.91261
342.85        26.88884
343.30        26.97385
343.75        27.12142
344.20        27.24678
344.66        27.32188
345.11        27.35966
345.56        27.37039
346.01        27.37697
346.46        27.38777
346.91        27.39147
347.36        27.38367
347.81        27.36321
348.26        27.33324
348.72        27.30369
349.17         27.2799
349.62        27.28067
350.07         27.3069
350.52        27.34855
350.97        27.38914
351.42        27.40341
351.87        27.38133
352.32        27.32858
352.77        27.24903
353.22        27.14587
353.67        27.02568
354.13        26.89561
354.58        26.76231
355.03        26.64236
355.48        26.54204
355.93        26.45271
356.38        26.38928
356.83        26.37141
357.28        26.39154
357.73        26.43962
358.18        26.45608
358.63        26.34703
359.08        26.10058
359.53        25.75087
359.98        25.38101
360.43        25.11477
360.88         24.9768
361.33        24.92947
361.78        24.90951
362.23        24.81395
362.68        24.61883
363.13        24.36419
363.58        24.09228
364.03        23.86472
364.48        23.69932
364.93        23.57125
365.38        23.46957
365.83        23.38101
366.28        23.29555
366.73        23.21746
367.18        23.13259
367.63        23.01601
368.08         22.8641
368.53        22.68365
368.98        22.49069
369.43        22.31274
369.88        22.15897
370.33        22.02289
370.78        21.90136
371.23        21.78925
371.68        21.68229
372.13        21.58057
372.58        21.47971
373.03        21.37066
373.48        21.25038
373.93        21.12147
374.38        20.98146
374.83        20.82911
375.28        20.66901
375.72        20.49927
376.17        20.34955
376.62         20.2373
377.07        20.16619
377.52         20.1314
377.97        20.11243
378.42        20.07767
378.87         20.0166
379.32        19.93044
379.77        19.84179
380.22        19.78451
380.67        19.76122
381.11        19.76844
381.56        19.75189
382.01        19.64448
382.46        19.44314
382.91        19.18332
383.36        18.93862
383.81        18.80673
384.26        18.80097
384.71        18.88958
385.15         19.0104
385.60        19.06161
386.05        19.01211
386.50        18.89144
386.95        18.74379
387.40        18.63989
387.85        18.59557
388.29        18.57125
388.74        18.56027
389.19        18.51099
389.64        18.41546
390.09        18.29385
390.54        18.16236
390.98        18.04212
391.43         17.9554
391.88        17.88995
392.33        17.84849
392.78         17.8356
393.23        17.84405
393.67        17.85946
394.12        17.87742
394.57        17.85565
395.02         17.7857
395.47        17.67101
395.91        17.53641
396.36        17.41689
396.81          17.339
397.26        17.30163
397.71        17.28039
398.15        17.24788
398.60        17.21815
399.05         17.1255
399.50        17.02039
399.95        17.10036
400.39        17.31665
400.84        17.34769
401.29        17.17537
401.74        17.04521
402.18        16.96786
402.63        16.78204
403.08         16.5595
403.53        16.48722
403.97        16.58361
404.42        16.79224
404.87          17.014
405.32        17.08685
405.76        16.97248
406.21         16.7352
406.66        16.46368
407.11        16.29594
407.55        16.27398
408.00        16.34813
408.45        16.46996
408.90        16.54482
409.34        16.53771
409.79        16.48378
410.24        16.41359
410.68        16.36208
411.13        16.34489
411.58        16.34509
412.03        16.34705
412.47        16.33216
412.92        16.29039
413.37        16.23552
413.81        16.18488
414.26        16.17479
414.71        16.20458
415.15        16.26967
415.60        16.33731
416.05        16.36347
416.49        16.33994
416.94        16.28244
417.39        16.22422
417.83        16.21587
418.28        16.26725
418.73         16.3545
419.17        16.46143
419.62        16.56258
420.07        16.64283
420.51        16.70472
420.96        16.73086
421.41        16.69152
421.85        16.58456
422.30        16.41958
422.74        16.23557
423.19         16.1626
423.64        16.18923
424.08        16.20192
424.53        16.17804
424.98        16.20257
425.42        16.27676
425.87        16.29938
426.31        16.28241
426.76        16.36541
427.21        16.50302
427.65        16.45584
428.10        16.27002
428.54        16.19214
428.99        16.24538
429.44        16.35802
429.88        16.47232
430.33        16.43262
430.77        16.28479
431.22        16.34161
431.66        16.58664
432.11        16.70865
432.56        16.70028
433.00        16.78456
433.45        16.89548
433.89         16.8151
434.34        16.65289
434.78        16.28561
435.23        16.63679
435.67        16.66734
436.12        16.61157
436.57        16.50171
437.01        16.36949
437.46        16.28429
437.90         16.2528
438.35        16.21345
438.79        16.17039
439.24        16.18373
439.68        16.25374
440.13         16.3604
440.57        16.47746
441.02        16.57642
441.46        16.64028
441.91        16.63055
442.35        16.56773
442.80          16.648
443.24        16.80732
443.69        16.75443
444.13        16.52789
444.58        16.45164
445.02        16.53959
445.47        16.62282
445.91        16.67204
446.36        16.72146
446.80        16.75671
447.24        16.76805
447.69        16.76472
448.13        16.75494
448.58        16.74545
449.02        16.73144
449.47        16.71072
449.91        16.67147
450.36        16.61935
450.80        16.55907
451.25        16.50716
451.69         16.4762
452.13         16.4715
452.58        16.48559
453.02        16.50944
453.47        16.53096
453.91        16.54454
454.36        16.55527
454.80        16.55592
455.24        16.53441
455.69        16.49646
456.13        16.43537
456.58        16.38464
457.02        16.36866
457.46        16.39941
457.91        16.46809
458.35        16.53643
458.79        16.54733
459.24        16.50432
459.68        16.41523
460.13        16.33675
460.57        16.31327
461.01        16.36615
461.46        16.46181
461.90        16.57707
462.34        16.65948
462.79        16.68469
463.23        16.67457
463.68         16.6218
464.12        16.52705
464.56        16.40076
465.01        16.27069
465.45        16.14523
465.89        16.07917
466.34        16.07743
466.78        16.12195
467.22        16.19908
467.67        16.26598
468.11        16.31572
468.55        16.35047
468.99        16.37069
469.44        16.37737
469.88        16.37445
470.32        16.35759
470.77        16.33904
471.21          16.344
471.65        16.37468
472.10        16.42711
472.54        16.48021
472.98        16.50558
473.42         16.4971
473.87        16.47018
474.31        16.43049
474.75        16.40255
475.20        16.39773
475.64         16.4037
476.08        16.42126
476.52        16.44308
476.97        16.46594
477.41        16.49867
477.85        16.54501
478.29        16.58523
478.74        16.63037
479.18        16.72186
479.62        16.83303
480.06        16.89501
480.50        16.90399
480.95        16.87075
481.39         16.8105
481.83        16.90723
482.27        16.92165
482.72        17.04846
483.16        17.19108
483.60        17.27292
484.04        17.26184
484.48        17.28411
484.93        17.41375
485.37        17.25146
485.81        17.34515
486.25        17.70001
486.69         17.5332
487.14         17.5713
487.58        17.84925
488.02        17.94418
488.46         17.6216
488.90        17.76966
489.34        17.84728
489.79        18.11694
490.23        18.32197
490.67        18.37501
491.11         18.2955
491.55        18.23579
491.99        18.24698
492.43        18.27855
492.88         18.3488
493.32        18.51008
493.76        18.72012
494.20        18.88987
494.64        19.00681
495.08          19.059
495.52        19.07646
495.96        19.23222
496.41        19.49673
496.85         19.5547
497.29        19.43181
497.73        19.62979
498.17        19.85727
498.61        19.99316
499.05        19.94936
499.49        19.95916
499.93        19.99693
500.37        20.15484
500.82        20.38324
501.26        20.54723
501.70        20.62584
502.14        20.69981
502.58        20.79269
503.02        20.89876
503.46        21.02145
503.90        21.16215
504.34        21.28512
504.78        21.33197
505.22        21.29618
505.66         21.2007
506.10        21.10217
506.54        21.08971
506.98        21.18298
507.42        21.35288
507.86        21.55334
508.30        21.70703
508.74        21.78859
509.18        21.82108
509.62        21.82156
510.06        21.81907
510.50        21.82635
510.94        21.83135
511.38        21.84252
511.82        21.87555
512.26        21.93194
512.70        22.01283
513.14        22.09828
513.58         22.1519
514.02        22.16675
514.46        22.15203
514.90        22.13339
515.34        22.15393
515.78        22.22154
516.22        22.31929
516.66        22.42023
517.10        22.48191
517.54        22.49278
517.98        22.46751
518.42        22.42086
518.86        22.37667
519.30        22.34409
519.74        22.31498
520.18        22.29156
520.62        22.27686
521.06        22.27066
521.50        22.27725
521.93        22.28623
522.37        22.27036
522.81        22.22923
523.25        22.16768
523.69        22.10944
524.13         22.0924
524.57        22.12073
525.01        22.17928
525.45        22.23591
525.89        22.23928
526.32        22.17535
526.76        22.06732
527.20        21.94124
527.64        21.83939
528.08        21.77563
528.52        21.73864
528.96        21.71834
529.40        21.69913
529.83        21.67349
530.27        21.64612
530.71        21.61762
531.15        21.59004
531.59        21.56308
532.03        21.53403
532.46        21.49127
532.90        21.43341
533.34        21.35959
533.78        21.26459
534.22        21.16678
534.66        21.11896
535.09         21.1118
535.53        21.08778
535.97        21.04445
536.41        21.03328
536.85        21.05287
537.28        21.06838
537.72        21.08321
538.16         21.1188
538.60        21.17308
539.04        21.23797
539.47        21.29225
539.91        21.31805
540.35        21.31066
540.79        21.28296
541.22        21.25771
541.66        21.27776
542.10        21.35015
542.54        21.46113
542.97         21.5932
543.41        21.72711
543.85        21.85087
544.29         21.9728
544.72         22.0843
545.16        22.18786
545.60        22.28231
546.04         22.3697
546.47        22.46882
546.91        22.60713
547.35        22.78499
547.79        22.99232
548.22        23.20192
548.66        23.36697
549.10        23.50581
549.53        23.62132
549.97        23.72939
550.41        23.80247
550.84        23.87272
551.28        23.99812
551.72        24.15584
552.15        24.32907
552.59        24.54094
553.03        24.43781
553.46        24.75064
553.90        24.83225
554.34        24.89902
554.77        24.95477
555.21        25.02659
555.65        25.13661
556.08        25.27856
556.52        25.43037
556.96        25.56812
557.39        25.72556
557.83        25.87529
558.27        25.87534
558.70        25.76683
559.14        25.77182
559.57         25.8892
560.01         25.9827
560.45        26.03663
560.88        26.10748
561.32        26.20414
561.75        26.28753
562.19        26.36867
562.63        26.44904
563.06        26.52875
563.50        26.62877
563.93        26.71462
564.37        26.78318
564.80        26.84325
565.24        26.84369
565.68        26.74955
566.11        27.08116
566.55        26.87294
566.98        26.92812
567.42        27.00293
567.85        27.13635
568.29         27.3354
568.72        27.60756
569.16        27.94162
569.60        28.13599
570.03        28.27629
570.47        28.40505
570.90        28.59516
571.34        28.46901
571.77         28.7883
572.21        28.98031
572.64        29.20726
573.08        29.29779
573.51        29.30573
573.95        29.43022
574.38        29.69009
574.82        29.83544
