SpectraSmart Spectrum 2.9.0.0
--------- Device Information -----------
Spectrum Name :  反射率_0
Saving Time :  2024/04/27 00:17:48
Spectro-Module Model Name : SE2030-DUVN
Spectro-Module Serial Number : OS361AC55029948
Wavelength Start : 200
Wavelength End : 1025
Wavelength Unit : Wavelength(nm)
Spectrum Unit : Reflectance(%)
-----------Spectrum Setting ------------
Integration Time : 20ms
Average : 10
Boxcar : 0
Background removal :  enabled
linearity correction :  enabled
SC :  disabled
Intensity correction :  disabled
DWT denoise :  enabled
savitzky-golay :  disabled
FFT :  disabled
Running average :  disabled
Kalman :  disabled
High pass :  disabled
---------------BEGIN--------------------
Wavelength(nm)             Reflectance(%)
200.29               0
200.75        20.71797
201.21        25.40052
201.67        29.69122
202.13        31.46049
202.58        30.50706
203.04        27.89188
203.50          23.976
203.96        20.30176
204.42        18.37138
204.88        17.66078
205.34        18.79108
205.80        22.31314
206.26        27.15265
206.72        32.38237
207.18        35.87318
207.64        35.75489
208.10        31.98492
208.55        24.34352
209.01         13.0146
209.47        6.141858
209.93        8.902076
210.39        16.24101
210.85        23.29322
211.31         28.6293
211.77        33.89759
212.23        42.84979
212.69        63.21665
213.14        98.30373
213.60        98.27988
214.06        73.72209
214.52        57.04581
214.98        50.51535
215.44         48.8412
215.90        48.79408
216.36        49.21308
216.81        48.34936
217.27        45.80264
217.73         42.4688
218.19         37.4677
218.65        31.11411
219.11        27.00196
219.57        25.54085
220.02        27.17161
220.48        33.13757
220.94        44.26133
221.40        62.97225
221.86        89.40971
222.32        107.9211
222.77        103.8444
223.23        87.22556
223.69        69.83773
224.15          58.673
224.61        53.00465
225.06        49.78204
225.52        48.84304
225.98        50.02871
226.44        52.85275
226.90        57.37697
227.36        61.98575
227.81        63.64814
228.27        62.07599
228.73        58.30595
229.19        54.63213
229.65        53.77878
230.10        55.82906
230.56        59.79392
231.02        63.82504
231.48        64.99765
231.93        62.84218
232.39        59.01165
232.85        55.08837
233.31        53.06783
233.77        53.19355
234.22        54.69045
234.68        56.80095
235.14         58.5015
235.60        59.40359
236.05        59.92141
236.51         59.9522
236.97        59.35717
237.43        58.17973
237.88        56.34925
238.34        54.38836
238.80        53.47427
239.26        53.99936
239.71        56.38706
240.17        59.80686
240.63        62.02719
241.08        61.68845
241.54        58.37083
242.00        54.31748
242.46        54.20066
242.91        61.06897
243.37        76.87994
243.83        102.1048
244.28        123.9286
244.74        124.4162
245.20         103.683
245.66        78.91391
246.11        65.89195
246.57        64.96791
247.03        70.99411
247.48        77.76644
247.94        75.30113
248.40        65.10434
248.85        53.88941
249.31        45.42952
249.77        41.07784
250.22        39.89978
250.68        40.56734
251.14        42.98351
251.59        46.38119
252.05        49.68958
252.51        53.19844
252.96        54.74051
253.42        52.80133
253.88        48.45751
254.33        42.77507
254.79        39.31185
255.25         41.0913
255.70        47.60604
256.16        57.36983
256.62        66.44224
257.07        68.68472
257.53        65.15189
257.99        59.48636
258.44        54.67245
258.90        53.32601
259.35        54.42993
259.81         56.9484
260.27        59.33638
260.72        59.76439
261.18        58.44896
261.63        56.08749
262.09        53.98009
262.55        52.98526
263.00        52.96697
263.46        53.57616
263.91        54.01973
264.37        53.60841
264.83        52.29663
265.28        50.45893
265.74        48.77293
266.19        47.76199
266.65         47.5573
267.11         47.8266
267.56        48.26574
268.02        48.40818
268.47        48.10332
268.93        47.54032
269.38        46.78363
269.84        45.98595
270.30        45.20114
270.75        44.36475
271.21        43.59405
271.66        43.01928
272.12        42.65831
272.57        42.45802
273.03         42.2778
273.48        41.85703
273.94        41.20283
274.39        40.37727
274.85        39.56955
275.31        38.90055
275.76        38.37494
276.22        37.96437
276.67        37.61412
277.13        37.35511
277.58        37.10492
278.04        36.88715
278.49        36.55202
278.95        36.00456
279.40        35.20094
279.86        34.28407
280.31        33.32675
280.77        32.55159
281.22        31.95524
281.68        31.52438
282.13        31.18926
282.59        30.94419
283.04        30.72701
283.50        30.56805
283.95         30.3893
284.41        30.08702
284.86        29.65499
285.32        29.15728
285.77        28.68626
286.22        28.43959
286.68        28.43523
287.13        28.56342
287.59        28.72973
288.04        28.73882
288.50        28.56798
288.95        28.25824
289.41        27.87114
289.86        27.42888
290.32        26.99601
290.77        26.55009
291.22          26.168
291.68        25.94944
292.13        25.89699
292.59        26.00559
293.04        26.19203
293.50        26.33923
293.95        26.40639
294.40        26.42289
294.86        26.45679
295.31         26.6112
295.77        26.90907
296.22         27.3004
296.68         27.7092
297.13        28.00584
297.58        28.17185
298.04        28.25601
298.49        28.33179
298.95        28.53106
299.40        28.87167
299.85        29.30096
300.31         29.7569
300.76        30.13692
301.21        30.41202
301.67        30.63053
302.12        30.78013
302.58        30.89546
303.03        30.97119
303.48        31.01546
303.94        31.07572
304.39        31.19664
304.84        31.38915
305.30        31.64352
305.75         31.8821
306.20        32.03327
306.66         32.0883
307.11         32.0614
307.57        31.99834
308.02        31.92808
308.47        31.87441
308.93        31.82926
309.38        31.78791
309.83        31.78803
310.29        31.82653
310.74        31.88781
311.19        31.92169
311.65        31.84012
312.10        31.62578
312.55        31.31077
313.00         30.9664
313.46         30.6977
313.91        30.51948
314.36        30.41137
314.82        30.32636
315.27        30.19604
315.72        30.00049
316.18        29.77292
316.63        29.54048
317.08        29.35674
317.53        29.23087
317.99        29.13445
318.44         29.0463
318.89        28.92498
319.35        28.75884
319.80        28.56312
320.25        28.34794
320.70        28.12888
321.16        27.91313
321.61        27.70618
322.06        27.51308
322.51        27.34556
322.97        27.20084
323.42        27.07768
323.87        26.97382
324.32        26.88902
324.78        26.80832
325.23        26.74454
325.68        26.65213
326.13        26.46805
326.59        26.18554
327.04        25.83387
327.49        25.48468
327.94        25.25355
328.39        25.16093
328.85        25.16563
329.30        25.21307
329.75        25.15269
330.20        24.94627
330.66        24.63823
331.11        24.31341
331.56        24.08715
332.01        23.99358
332.46        23.99002
332.92         24.0245
333.37        24.05005
333.82        24.02375
334.27        23.96344
334.72        23.86846
335.17        23.73427
335.63        23.56694
336.08        23.38571
336.53        23.20316
336.98        23.05171
337.43        22.94551
337.88        22.87492
338.34        22.85879
338.79        22.94706
339.24        23.12302
339.69        23.36246
340.14        23.57552
340.59        23.62063
341.05        23.47806
341.50        23.19358
341.95        22.85797
342.40        22.61373
342.85        22.50446
343.30        22.48831
343.75        22.54042
344.20        22.61879
344.66        22.70056
345.11        22.79564
345.56        22.87199
346.01        22.87562
346.46        22.80474
346.91          22.679
347.36        22.53998
347.81        22.46015
348.26        22.45849
348.72        22.51056
349.17        22.60373
349.62        22.72836
350.07        22.86642
350.52        23.01708
350.97        23.12783
351.42        23.11486
351.87        22.96965
352.32        22.72326
352.77        22.45215
353.22        22.27013
353.67        22.20488
354.13        22.22888
354.58         22.2929
355.03        22.31675
355.48        22.27191
355.93        22.17812
356.38        22.06856
356.83        21.99063
357.28        21.95383
357.73        21.94326
358.18        21.91351
358.63        21.79754
359.08        21.58829
359.53        21.31072
359.98        21.04102
360.43        20.88971
360.88        20.87046
361.33        20.94487
361.78        21.02269
362.23        20.95943
362.68        20.72792
363.13        20.38373
363.58        20.01158
364.03        19.74118
364.48        19.60692
364.93        19.56475
365.38        19.57666
365.83        19.58041
366.28        19.55093
366.73        19.51166
367.18        19.45305
367.63        19.35791
368.08        19.22755
368.53         19.0583
368.98        18.88723
369.43        18.77824
369.88        18.74386
370.33        18.77181
370.78        18.80905
371.23        18.76493
371.68        18.61855
372.13         18.3945
372.58        18.16082
373.03          18.026
373.48        18.01254
373.93        18.08559
374.38        18.16817
374.83        18.13909
375.28        17.97116
375.72        17.70053
376.17        17.41512
376.62        17.22215
377.07        17.14866
377.52        17.16387
377.97        17.20686
378.42        17.18158
378.87        17.06665
379.32         16.8936
379.77        16.72814
380.22        16.66434
380.67        16.71575
381.11        16.85233
381.56        16.98841
382.01        16.99759
382.46        16.85224
382.91        16.60452
383.36        16.33705
383.81        16.16169
384.26        16.10061
384.71         16.1167
385.15        16.16526
385.60        16.17664
386.05        16.12701
386.50        16.04216
386.95        15.94145
387.40        15.85304
387.85        15.78618
388.29        15.71761
388.74        15.66118
389.19        15.60298
389.64        15.53746
390.09        15.46513
390.54        15.38403
390.98        15.28667
391.43        15.18676
391.88         15.0912
392.33        15.00217
392.78        14.92063
393.23        14.84985
393.67        14.78293
394.12        14.74766
394.57        14.75585
395.02        14.80421
395.47         14.8773
395.91        14.95206
396.36        14.97971
396.81        14.95589
397.26        14.89808
397.71        14.81395
398.15        14.72579
398.60        14.66146
399.05        14.55467
399.50         14.4405
399.95        14.47448
400.39        14.61264
400.84         14.5904
401.29        14.40655
401.74        14.28576
402.18        14.23862
402.63        14.12123
403.08        13.97427
403.53        13.92528
403.97        13.98418
404.42        14.11541
404.87         14.2482
405.32        14.26713
405.76        14.14803
406.21         13.9369
406.66        13.71411
407.11        13.60542
407.55        13.64378
408.00        13.78532
408.45        13.96361
408.90        14.05117
409.34        14.00874
409.79        13.88224
410.24        13.73161
410.68        13.63681
411.13        13.62115
411.58        13.65262
412.03        13.70268
412.47        13.72589
412.92        13.70236
413.37        13.65856
413.81        13.60309
414.26        13.55553
414.71        13.51764
415.15        13.48259
415.60        13.45703
416.05        13.46632
416.49        13.51365
416.94        13.59155
417.39        13.66795
417.83        13.69123
418.28        13.65035
418.73        13.55637
419.17        13.45117
419.62        13.40439
420.07        13.43122
420.51        13.50662
420.96        13.58577
421.41        13.59674
421.85        13.52155
422.30        13.38393
422.74        13.22418
423.19        13.15934
423.64        13.18318
424.08        13.19678
424.53        13.17624
424.98        13.18649
425.42        13.22815
425.87        13.22233
426.31        13.18685
426.76        13.24619
427.21        13.36501
427.65        13.34466
428.10        13.21196
428.54        13.15124
428.99        13.17687
429.44        13.23392
429.88        13.28048
430.33        13.20027
430.77        13.03353
431.22        13.02794
431.66        13.16687
432.11        13.19491
432.56        13.10749
433.00        13.09022
433.45        13.09845
433.89        12.96471
434.34        12.79177
434.78        12.51106
435.23        12.82183
435.67        12.88805
436.12        12.88262
436.57        12.84332
437.01        12.79314
437.46        12.77652
437.90        12.79339
438.35          12.793
438.79        12.76988
439.24        12.76081
439.68        12.76631
440.13        12.77469
440.57        12.78134
441.02        12.79214
441.46        12.80419
441.91        12.78303
442.35        12.73109
442.80        12.77718
443.24        12.86634
443.69        12.78112
444.13        12.56318
444.58        12.47862
445.02        12.54114
445.47        12.61646
445.91        12.66746
446.36        12.69776
446.80        12.69233
447.24        12.65122
447.69        12.59982
448.13        12.57202
448.58        12.57914
449.02        12.60961
449.47        12.64272
449.91        12.63977
450.36        12.59848
450.80        12.53235
451.25        12.47195
451.69        12.45601
452.13        12.49262
452.58        12.56267
453.02        12.64122
453.47        12.69162
453.91        12.70099
454.36        12.68214
454.80        12.63699
455.24        12.56762
455.69        12.48619
456.13        12.38747
456.58        12.30267
457.02        12.25771
457.46        12.26299
457.91        12.30992
458.35        12.36735
458.79        12.38554
459.24        12.36437
459.68        12.31047
460.13        12.26316
460.57        12.25005
461.01        12.28845
461.46         12.3544
461.90        12.43914
462.34        12.51696
462.79        12.57224
463.23        12.61624
463.68        12.63329
464.12        12.60714
464.56         12.5378
465.01        12.44825
465.45        12.34896
465.89         12.2885
466.34        12.27305
466.78        12.28868
467.22        12.32141
467.67         12.3336
468.11        12.32218
468.55        12.29371
468.99        12.26262
469.44           12.25
469.88        12.26207
470.32        12.28989
470.77         12.3263
471.21        12.36323
471.65        12.39526
472.10        12.42782
472.54        12.45555
472.98        12.47548
473.42        12.48715
473.87        12.49248
474.31        12.49178
474.75        12.49931
475.20        12.51931
475.64        12.54322
476.08        12.56346
476.52        12.56068
476.97        12.53287
477.41        12.49406
477.85        12.46118
478.29          12.443
478.74        12.45596
479.18        12.52494
479.62        12.62652
480.06        12.70252
480.50        12.74411
480.95        12.75868
481.39        12.74833
481.83        12.83994
482.27        12.85055
482.72        12.92997
483.16        13.01464
483.60         13.0709
484.04        13.08256
484.48          13.122
484.93        13.25525
485.37        13.18269
485.81        13.27892
486.25        13.49545
486.69        13.36218
487.14        13.09215
487.58        13.82262
488.02         13.5943
488.46        13.64064
488.90        13.72042
489.34        13.54283
489.79        13.61892
490.23        13.73722
490.67         13.8905
491.11         14.0223
491.55        14.06468
491.99        14.04312
492.43        14.08103
492.88        14.19041
493.32        14.28415
493.76        14.35305
494.20        14.44353
494.64        14.55802
495.08          14.647
495.52        14.72532
495.96        14.90181
496.41        15.14081
496.85        15.25084
497.29        15.22366
497.73        15.30957
498.17         15.3236
498.61        15.40736
499.05        15.48927
499.49        15.53639
499.93        15.52125
500.37        15.64709
500.82        15.86789
501.26        16.00178
501.70         16.0293
502.14        16.03615
502.58        16.06088
503.02        16.13167
503.46        16.25829
503.90        16.42802
504.34        16.59384
504.78        16.68014
505.22        16.67127
505.66         16.5934
506.10        16.49962
506.54        16.47425
506.98         16.5389
507.42        16.66679
507.86        16.82256
508.30        16.94752
508.74        17.02164
509.18        17.06351
509.62        17.08559
510.06        17.10731
510.50        17.13739
510.94        17.16739
511.38        17.19953
511.82        17.24021
512.26        17.28915
512.70        17.34572
513.14        17.40424
513.58         17.4532
514.02        17.48873
514.46        17.51315
514.90        17.52655
515.34        17.53031
515.78        17.52652
516.22        17.51533
516.66        17.50257
517.10        17.49763
517.54        17.50255
517.98        17.51556
518.42        17.53078
518.86        17.53769
519.30        17.53381
519.74        17.52255
520.18         17.5083
520.62        17.49773
521.06        17.49321
521.50        17.49286
521.93        17.49592
522.37        17.49507
522.81        17.49014
523.25        17.47969
523.69        17.46501
524.13        17.44879
524.57        17.42913
525.01        17.40306
525.45        17.36366
525.89        17.29998
526.32        17.21229
526.76        17.11512
527.20        17.01716
527.64        16.93243
528.08        16.86676
528.52        16.81472
528.96         16.7856
529.40        16.79279
529.83        16.83263
530.27        16.89986
530.71        16.96088
531.15        16.96407
531.59        16.90013
532.03        16.78329
532.46        16.65108
532.90        16.57649
533.34        16.57221
533.78        16.60789
534.22        16.64992
534.66        16.66598
535.09        16.63272
535.53        16.53187
535.97        16.39686
536.41        16.32139
536.85        16.32082
537.28        16.35133
537.72        16.40254
538.16        16.47029
538.60        16.54448
539.04        16.62668
539.47        16.70056
539.91        16.75098
540.35         16.7739
540.79        16.77527
541.22        16.77414
541.66         16.8089
542.10        16.88508
542.54        16.99092
542.97        17.10816
543.41        17.21404
543.85        17.29915
544.29        17.37428
544.72        17.43987
545.16         17.5088
545.60        17.58273
546.04         17.6601
546.47        17.75193
546.91        17.87313
547.35        18.02135
547.79        18.19069
548.22        18.35946
548.66        18.49045
549.10        18.59874
549.53        18.68609
549.97        18.76875
550.41        18.83026
550.84        18.89816
551.28        19.01972
551.72        19.17183
552.15        19.33274
552.59        19.51917
553.03        19.44978
553.46        19.71639
553.90        19.82073
554.34        19.93435
554.77        20.05115
555.21        20.17238
555.65        20.28319
556.08        20.37313
556.52        20.43914
556.96        20.48117
557.39         20.5547
557.83        20.64819
558.27        20.64155
558.70         20.5682
559.14        20.60499
559.57        20.74646
560.01        20.88116
560.45         20.9834
560.88         21.0798
561.32        21.17359
561.75        21.23419
562.19        21.27823
562.63        21.32889
563.06         21.3879
563.50        21.45176
563.93        21.49908
564.37        21.55167
564.80        21.61787
565.24         21.6454
565.68        21.59749
566.11        21.88475
566.55        21.72511
566.98        21.76956
567.42        21.82449
567.85        21.94341
568.29        22.13585
568.72        22.37161
569.16        22.63359
569.60        22.88827
570.03        22.97326
570.47        23.11514
570.90         23.2971
571.34        23.18734
571.77        23.45313
572.21        23.56641
572.64        23.69474
573.08        23.81859
573.51         23.9669
573.95        24.08563
574.38        24.18764
574.82        24.46396
