SpectraSmart Spectrum 2.9.0.0
--------- Device Information -----------
Spectrum Name :  反射率_0
Saving Time :  2024/04/27 00:17:33
Spectro-Module Model Name : SE2030-DUVN
Spectro-Module Serial Number : OS361AC55029948
Wavelength Start : 200
Wavelength End : 1025
Wavelength Unit : Wavelength(nm)
Spectrum Unit : Reflectance(%)
-----------Spectrum Setting ------------
Integration Time : 20ms
Average : 10
Boxcar : 0
Background removal :  enabled
linearity correction :  enabled
SC :  disabled
Intensity correction :  disabled
DWT denoise :  enabled
savitzky-golay :  disabled
FFT :  disabled
Running average :  disabled
Kalman :  disabled
High pass :  disabled
---------------BEGIN--------------------
Wavelength(nm)             Reflectance(%)
200.29               0
200.75        18.89845
201.21        18.82006
201.67        19.03547
202.13        19.42153
202.58        19.91336
203.04        21.24924
203.50        23.09331
203.96        23.95895
204.42        22.94221
204.88        19.60068
205.34        16.44641
205.80         18.1954
206.26         24.7588
206.72           33.36
207.18        39.74554
207.64         40.2842
208.10        34.71375
208.55        22.92493
209.01        5.468697
209.47       -5.125793
209.93      -0.8921887
210.39        10.38244
210.85        20.71013
211.31        27.20132
211.77        31.54967
212.23        36.71423
212.69        47.52356
213.14        71.58181
213.60        81.13038
214.06        71.25877
214.52        61.54861
214.98        56.26583
215.44        53.08681
215.90        50.18565
216.36        47.65383
216.81        45.72161
217.27        44.70379
217.73        45.09594
218.19        46.26174
218.65        45.44938
219.11        42.71945
219.57        39.99212
220.02        39.11388
220.48        41.65905
220.94        47.78879
221.40        58.50072
221.86        73.79373
222.32        84.50455
222.77        81.97068
223.23        72.32256
223.69        62.09236
224.15        55.06871
224.61        50.91394
225.06         47.9111
225.52        46.37354
225.98        46.50001
226.44        47.93421
226.90        50.57296
227.36        53.04976
227.81        52.96196
228.27        50.30051
228.73          46.132
229.19        42.40802
229.65        41.33326
230.10        42.96374
230.56        46.45234
231.02        50.37431
231.48        52.43008
231.93        52.06163
232.39        50.41084
232.85        48.50178
233.31        47.68922
233.77        48.17358
234.22        49.45661
234.68         51.0115
235.14        52.19426
235.60        52.75963
236.05         52.9621
236.51        52.84931
236.97        52.52549
237.43         52.0974
237.88        51.58218
238.34        51.01741
238.80        50.71306
239.26        50.80856
239.71        51.60095
240.17        53.03418
240.63        55.25206
241.08        58.32042
241.54        61.82323
242.00        65.90527
242.46        71.24664
242.91        79.00948
243.37        89.57915
243.83        102.9835
244.28        113.2465
244.74         110.977
245.20        96.51814
245.66        78.53632
246.11        63.28064
246.57         51.2746
247.03        41.06951
247.48        33.03857
247.94         28.9248
248.40         28.8892
248.85        31.03827
249.31        33.94843
249.77        36.83194
250.22        39.73406
250.68        43.07882
251.14         46.8803
251.59        50.00937
252.05        51.49643
252.51        51.78625
252.96        50.32937
253.42        47.16912
253.88          43.066
254.33        38.45452
254.79        35.87556
255.25        37.27275
255.70        42.22387
256.16        49.83691
256.62         56.8668
257.07        58.30222
257.53        55.16381
257.99        50.38102
258.44        46.60567
258.90        46.24168
259.35        48.28378
259.81        51.68904
260.27        54.78821
260.72        55.53772
261.18        54.15668
261.63        51.50947
262.09        49.03588
262.55        47.76193
263.00        47.59933
263.46        48.15916
263.91        48.63717
264.37        48.29495
264.83        47.08219
265.28        45.37004
265.74        43.86029
266.19        43.14361
266.65        43.32282
267.11        44.02282
267.56        44.82177
268.02         45.0616
268.47        44.56427
268.93        43.60403
269.38        42.36098
269.84        41.16125
270.30        40.12006
270.75        39.12537
271.21        38.30224
271.66         37.7892
272.12        37.58216
272.57        37.63594
273.03        37.69531
273.48        37.32286
273.94        36.48937
274.39        35.30015
274.85        34.11024
275.31        33.28631
275.76        32.87386
276.22        32.78393
276.67        32.76809
277.13        32.55797
277.58        32.05803
278.04        31.39753
278.49        30.71188
278.95        30.30817
279.40        30.16833
279.86        30.22606
280.31        30.23265
280.77        29.94876
281.22        29.31297
281.68        28.50565
282.13        27.68085
282.59        27.12375
283.04        26.85079
283.50        26.78309
283.95        26.80264
284.41        26.74073
284.86        26.54224
285.32        26.28747
285.77        26.00967
286.22        25.80665
286.68        25.69613
287.13        25.60835
287.59        25.52482
288.04        25.38124
288.50        25.18965
288.95        24.95542
289.41        24.71369
289.86        24.45154
290.32         24.2051
290.77        23.95822
291.22        23.75441
291.68        23.64373
292.13        23.62423
292.59        23.70292
293.04        23.82759
293.50        23.93557
293.95        24.00299
294.40        24.04313
294.86         24.1202
295.31        24.32832
295.77        24.68488
296.22        25.15155
296.68        25.62961
297.13        25.95359
297.58        26.10117
298.04        26.12595
298.49        26.15067
298.95        26.38539
299.40        26.85888
299.85        27.49244
300.31        28.14777
300.76        28.60788
301.21         28.8214
301.67        28.87041
302.12        28.82643
302.58        28.85009
303.03        28.96126
303.48        29.12573
303.94        29.30857
304.39        29.43367
304.84        29.49314
305.30         29.5273
305.75         29.5388
306.20         29.5728
306.66         29.6449
307.11        29.72584
307.57        29.80388
308.02        29.82658
308.47        29.79296
308.93        29.72238
309.38         29.6351
309.83        29.60121
310.29        29.63166
310.74        29.70285
311.19        29.75917
311.65        29.70753
312.10        29.52759
312.55        29.24964
313.00        28.95736
313.46        28.77326
313.91        28.71078
314.36         28.7422
314.82        28.77886
315.27        28.68532
315.72        28.43082
316.18        28.06918
316.63         27.6905
317.08        27.44516
317.53        27.36385
317.99        27.39271
318.44        27.45037
318.89        27.39508
319.35         27.1899
319.80        26.88092
320.25        26.53581
320.70        26.26115
321.16        26.08631
321.61         25.9857
322.06        25.91216
322.51        25.79386
322.97        25.60451
323.42        25.36796
323.87        25.12628
324.32        24.94914
324.78        24.84133
325.23        24.79329
325.68        24.72496
326.13        24.51383
326.59        24.14106
327.04        23.66508
327.49        23.19234
327.94        22.88622
328.39        22.78156
328.85        22.82105
329.30        22.94013
329.75        22.97492
330.20        22.87209
330.66        22.67493
331.11        22.44499
331.56        22.26461
332.01        22.16138
332.46        22.09808
332.92          22.048
333.37         22.0094
333.82         21.9591
334.27        21.90982
334.72         21.8487
335.17        21.74692
335.63        21.60215
336.08        21.43739
336.53        21.27675
336.98        21.17025
337.43        21.13177
337.88        21.14125
338.34        21.18852
338.79        21.27604
339.24        21.37931
339.69        21.49206
340.14        21.56384
340.59        21.51698
341.05        21.35065
341.50        21.09422
341.95        20.81652
342.40         20.6231
342.85        20.54672
343.30        20.56055
343.75        20.64214
344.20        20.75161
344.66        20.86838
345.11        20.99478
345.56         21.1097
346.01        21.18116
346.46        21.20402
346.91        21.18331
347.36        21.13227
347.81        21.08092
348.26        21.03834
348.72        20.99484
349.17        20.95712
349.62        20.94474
350.07        20.95753
350.52        20.99884
350.97        21.02309
351.42        20.95455
351.87        20.78858
352.32        20.55442
352.77        20.33343
353.22        20.24616
353.67        20.31139
354.13        20.48902
354.58        20.69625
355.03        20.79783
355.48        20.75456
355.93        20.60954
356.38        20.42069
356.83        20.27659
357.28        20.19996
357.73        20.15525
358.18        20.11875
358.63        20.05767
359.08        19.95759
359.53         19.8332
359.98        19.68195
360.43        19.49166
360.88        19.26704
361.33        19.01949
361.78        18.76632
362.23        18.53848
362.68        18.35141
363.13        18.20045
363.58         18.0959
364.03        18.04906
364.48        18.05272
364.93        18.09798
365.38        18.14703
365.83        18.13965
366.28        18.06003
366.73        17.92008
367.18        17.75277
367.63        17.61459
368.08        17.51978
368.53        17.45195
368.98         17.3874
369.43        17.28739
369.88        17.14246
370.33        16.96851
370.78        16.78619
371.23        16.62772
371.68        16.50641
372.13        16.41691
372.58        16.34855
373.03        16.28203
373.48        16.21276
373.93        16.14739
374.38        16.09658
374.83        16.07806
375.28        16.08834
375.72        16.10365
376.17        16.11769
376.62        16.10396
377.07        16.05575
377.52        15.98473
377.97        15.88271
378.42        15.73986
378.87        15.56523
379.32        15.36592
379.77         15.1875
380.22        15.09312
380.67        15.09026
381.11        15.16869
381.56        15.25859
382.01        15.25332
382.46        15.12988
382.91        14.92478
383.36        14.71479
383.81        14.60767
384.26        14.62105
384.71        14.72018
385.15        14.83882
385.60        14.87244
386.05        14.79227
386.50        14.63347
386.95        14.45729
387.40        14.35682
387.85        14.35042
388.29        14.39344
388.74        14.45038
389.19        14.44134
389.64        14.35197
390.09        14.20734
390.54        14.04577
390.98        13.92592
391.43        13.87441
391.88        13.86873
392.33        13.87853
392.78        13.86104
393.23        13.80764
393.67        13.72792
394.12        13.65757
394.57        13.61909
395.02        13.61724
395.47        13.63769
395.91        13.66423
396.36        13.66233
396.81        13.63142
397.26        13.58298
397.71        13.52818
398.15        13.49176
398.60        13.49256
399.05         13.4632
399.50        13.41062
399.95        13.44378
400.39         13.5177
400.84        13.39921
401.29         13.1208
401.74        12.94284
402.18        12.89205
402.63         12.8261
403.08        12.76095
403.53        12.77742
403.97        12.87132
404.42        13.01619
404.87        13.15497
405.32        13.19456
405.76        13.11355
406.21         12.9468
406.66        12.75387
407.11        12.63032
407.55        12.60579
408.00        12.65086
408.45        12.72747
408.90        12.75909
409.34        12.72296
409.79        12.64819
410.24        12.57417
410.68        12.55083
411.13         12.5918
411.58        12.67493
412.03        12.76463
412.47         12.8037
412.92        12.76898
413.37        12.68167
413.81        12.57442
414.26        12.50217
414.71        12.47324
415.15        12.47941
415.60         12.4872
416.05        12.44977
416.49        12.35897
416.94        12.23036
417.39        12.11207
417.83        12.07428
418.28        12.12745
418.73         12.2475
419.17         12.3771
419.62        12.42433
420.07        12.36942
420.51        12.24088
420.96        12.09572
421.41        12.01988
421.85        12.02771
422.30        12.08402
422.74         12.1465
423.19        12.21152
423.64        12.24699
424.08        12.19799
424.53        12.08655
424.98        12.04546
425.42        12.09843
425.87        12.14621
426.31        12.17679
426.76        12.26462
427.21        12.36464
427.65        12.31034
428.10        12.14208
428.54         12.0495
428.99        12.05303
429.44        12.09523
429.88        12.13442
430.33        12.06093
430.77        11.90987
431.22        11.90975
431.66        12.04591
432.11        12.08372
432.56        12.01853
433.00        12.01933
433.45        12.04453
433.89        11.93787
434.34        11.79236
434.78        11.54424
435.23         11.8387
435.67        11.90505
436.12        11.90274
436.57        11.86476
437.01        11.81451
437.46        11.79686
437.90         11.8117
438.35        11.81184
438.79        11.78517
439.24        11.75356
439.68        11.71789
440.13        11.67421
440.57        11.63207
441.02         11.6201
441.46        11.64117
441.91        11.65353
442.35        11.65021
442.80        11.73747
443.24        11.86163
443.69        11.82614
444.13        11.65986
444.58        11.59636
445.02        11.64668
445.47        11.68709
445.91        11.70162
446.36        11.72344
446.80        11.74403
447.24        11.75653
447.69        11.75903
448.13        11.74179
448.58        11.70851
449.02        11.66246
449.47        11.61576
449.91        11.58211
450.36        11.56849
450.80        11.56872
451.25        11.58092
451.69        11.59503
452.13         11.6073
452.58        11.61679
453.02        11.61912
453.47        11.60937
453.91        11.58722
454.36        11.55701
454.80         11.5177
455.24        11.46699
455.69        11.41206
456.13        11.34795
456.58        11.30111
457.02        11.29086
457.46        11.32416
457.91        11.39236
458.35        11.45937
458.79        11.46942
459.24        11.42277
459.68        11.32903
460.13        11.23993
460.57        11.20287
461.01        11.23721
461.46        11.31536
461.90        11.41303
462.34        11.47761
462.79        11.48939
463.23        11.47079
463.68        11.42739
464.12        11.37676
464.56          11.327
465.01        11.28534
465.45        11.24844
465.89        11.24551
466.34        11.27676
466.78        11.33282
467.22        11.39771
467.67        11.42985
468.11        11.42474
468.55        11.38946
468.99        11.34116
469.44        11.30741
469.88        11.29747
470.32        11.30164
470.77        11.31752
471.21        11.34348
471.65        11.37396
472.10        11.41243
472.54        11.44403
472.98        11.44972
473.42        11.42769
473.87        11.38799
474.31        11.34226
474.75        11.32069
475.20        11.33309
475.64        11.36727
476.08        11.41457
476.52        11.45451
476.97         11.4816
477.41        11.50679
477.85        11.53911
478.29        11.57571
478.74        11.62652
479.18        11.71379
479.62        11.81488
480.06        11.87855
480.50        11.89678
480.95        11.87291
481.39        11.81717
481.83         11.8591
482.27        11.83691
482.72        11.89494
483.16        11.95919
483.60        11.99158
484.04        11.98069
484.48        11.93772
484.93        11.97429
485.37        12.02823
485.81        12.36988
486.25        12.62728
486.69        12.35883
487.14        12.07079
487.58        12.87162
488.02        12.65476
488.46        12.54233
488.90        12.59568
489.34        12.40775
489.79         12.5606
490.23        12.77295
490.67        12.98934
491.11        13.13087
491.55        13.11514
491.99        13.00048
492.43        12.99567
492.88          13.126
493.32        13.25735
493.76        13.36116
494.20        13.46819
494.64        13.57479
495.08        13.64462
495.52        13.69071
495.96         13.8251
496.41        14.02217
496.85        14.06221
497.29        13.96969
497.73        14.11255
498.17        14.28291
498.61        14.38958
499.05        14.36622
499.49        14.37591
499.93        14.39925
500.37        14.50768
500.82        14.66231
501.26        14.75996
501.70        14.78778
502.14        14.80634
502.58        14.84904
503.02        14.93784
503.46        15.07894
503.90        15.26521
504.34        15.44641
504.78         15.5396
505.22        15.52828
505.66        15.43818
506.10        15.33245
506.54        15.31232
506.98        15.40131
507.42        15.56774
507.86        15.75856
508.30        15.88563
508.74        15.92401
509.18        15.90345
509.62        15.85741
510.06        15.83946
510.50        15.86655
510.94        15.91773
511.38        15.98279
511.82        16.04732
512.26        16.10407
512.70        16.16222
513.14        16.21259
513.58        16.23758
514.02        16.23619
514.46        16.21102
514.90        16.18489
515.34        16.19644
515.78        16.25267
516.22        16.34188
516.66        16.43453
517.10        16.48306
517.54        16.47511
517.98        16.42338
518.42        16.35459
518.86        16.31162
519.30        16.30615
519.74        16.32693
520.18        16.35032
520.62        16.33881
521.06        16.28615
521.50        16.20737
521.93        16.13252
522.37        16.10271
522.81        16.12934
523.25        16.19422
523.69        16.26873
524.13        16.31057
524.57        16.30638
525.01        16.26635
525.45        16.20443
525.89        16.14378
526.32        16.09193
526.76        16.04809
527.20        16.00317
527.64        15.94535
528.08        15.87406
528.52        15.79488
528.96        15.72621
529.40        15.69422
529.83        15.70137
530.27        15.73921
530.71        15.77744
531.15        15.76951
531.59        15.70653
532.03        15.60271
532.46        15.48893
532.90        15.42578
533.34        15.42273
533.78        15.45159
534.22        15.48489
534.66        15.49918
535.09        15.47389
535.53         15.3904
535.97        15.27352
536.41        15.20092
536.85         15.1859
537.28        15.19126
537.72        15.21749
538.16        15.27669
538.60        15.36243
539.04        15.47053
539.47        15.57402
539.91        15.64102
540.35        15.66322
540.79          15.651
541.22        15.63083
541.66        15.65265
542.10        15.72536
542.54        15.83387
542.97        15.95414
543.41        16.05399
543.85        16.12317
544.29        16.17722
544.72        16.22449
545.16        16.28846
545.60        16.37321
546.04        16.47299
546.47        16.59264
546.91        16.73686
547.35        16.89986
547.79        17.07852
548.22        17.25333
548.66        17.39124
549.10         17.5072
549.53        17.60066
549.97        17.68839
550.41        17.75815
550.84        17.83503
551.28        17.96192
551.72        18.11217
552.15        18.25709
552.59        18.41216
553.03        18.31775
553.46        18.53666
553.90        18.60679
554.34        18.69341
554.77         18.7895
555.21         18.9003
555.65        19.01786
556.08          19.131
556.52        19.23286
556.96        19.31255
557.39        19.40666
557.83        19.49985
558.27         19.4815
558.70        19.39036
559.14        19.40508
559.57        19.52544
560.01        19.64637
560.45        19.73931
560.88        19.82205
561.32        19.89731
561.75        19.93865
562.19        19.97297
562.63        20.03902
563.06        20.13828
563.50        20.25841
563.93        20.35857
564.37          20.428
564.80        20.46846
565.24        20.44178
565.68        20.33204
566.11        20.55312
566.55        20.37938
566.98         20.4179
567.42        20.48313
567.85        20.60555
568.29         20.7881
568.72        21.02744
569.16        21.31097
569.60        21.51467
570.03        21.70908
570.47        21.85735
570.90        21.97456
571.34        22.05264
571.77        22.15604
572.21        22.21911
572.64        22.26143
573.08         22.3887
573.51        22.62245
573.95        22.75753
574.38        22.78644
574.82          23.134
