SpectraSmart Spectrum 2.9.0.0
--------- Device Information -----------
Spectrum Name :  反射率_0
Saving Time :  2024/04/27 00:14:44
Spectro-Module Model Name : SE2030-DUVN
Spectro-Module Serial Number : OS361AC55029948
Wavelength Start : 200
Wavelength End : 1025
Wavelength Unit : Wavelength(nm)
Spectrum Unit : Reflectance(%)
-----------Spectrum Setting ------------
Integration Time : 20ms
Average : 10
Boxcar : 0
Background removal :  enabled
linearity correction :  enabled
SC :  disabled
Intensity correction :  disabled
DWT denoise :  enabled
savitzky-golay :  disabled
FFT :  disabled
Running average :  disabled
Kalman :  disabled
High pass :  disabled
---------------BEGIN--------------------
Wavelength(nm)             Reflectance(%)
200.29               0
200.75        67.59261
201.21        62.40124
201.67         57.2101
202.13        54.46648
202.58        54.35186
203.04        56.74551
203.50         61.5642
203.96        67.20797
204.42        72.19486
204.88        76.44228
205.34         80.0531
205.80        83.89599
206.26         87.4829
206.72        89.19769
207.18        89.20342
207.64        87.87936
208.10        85.37575
208.55        82.62895
209.01        77.77904
209.47         70.4997
209.93        64.64233
210.39        61.71094
210.85        62.67286
211.31        69.10385
211.77        83.71675
212.23        116.7546
212.69        198.0926
213.14        329.5971
213.60        316.9759
214.06        218.5615
214.52        153.4235
214.98        124.0027
215.44        111.1826
215.90        103.8619
216.36         101.645
216.81        106.2637
217.27        118.9234
217.73        144.7994
218.19         181.542
218.65          199.92
219.11        186.8883
219.57        160.5788
220.02        141.5401
220.48         141.558
220.94        159.2944
221.40        195.8576
221.86        251.4449
222.32        293.2565
222.77        288.6155
223.23        258.2192
223.69        224.4988
224.15        200.5742
224.61        186.0917
225.06         175.592
225.52        170.2528
225.98        170.5528
226.44        175.5019
226.90        184.6113
227.36        194.7698
227.81        200.0023
228.27        199.4241
228.73        194.8498
229.19        189.9445
229.65        189.1533
230.10        192.6871
230.56        199.1127
231.02        205.6437
231.48         208.021
231.93        205.4472
232.39        200.6133
232.85        195.6841
233.31        193.5236
233.77        194.4679
234.22        197.2528
234.68        200.9733
235.14         204.311
235.60        206.6295
236.05        208.5656
236.51        209.1167
236.97         207.088
237.43        202.2686
237.88        195.0863
238.34        186.9482
238.80        180.7043
239.26         177.211
239.71        177.0612
240.17        178.9643
240.63         181.017
241.08        182.3112
241.54        182.1615
242.00         182.814
242.46        188.4719
242.91        202.9699
243.37        227.9429
243.83        263.3578
244.28        291.2688
244.74        285.0398
245.20        245.6726
245.66        200.5969
246.11        172.3712
246.57        160.7544
247.03        159.3392
247.48        159.1626
247.94        147.9367
248.40        129.2324
248.85        111.1547
249.31        98.89901
249.77        94.23437
250.22        95.84099
250.68        102.2717
251.14        112.5762
251.59        121.3001
252.05        124.4209
252.51        124.6077
252.96        122.3197
253.42         119.264
253.88        116.3143
254.33        112.6256
254.79         112.314
255.25        118.8078
255.70        131.2316
256.16        148.2948
256.62        163.2931
257.07        165.6888
257.53        158.4014
257.99        147.9909
258.44        139.8048
258.90        138.9611
259.35        143.2306
259.81        150.5493
260.27        157.9139
260.72        161.6155
261.18        161.8722
261.63        159.6486
262.09        157.1777
262.55        155.4776
263.00        154.4617
263.46        154.1247
263.91        153.4245
264.37        152.0717
264.83        149.9573
265.28         147.327
265.74        145.2421
266.19        144.1976
266.65        144.3882
267.11        145.2788
267.56        146.2003
268.02        146.1647
268.47        144.8989
268.93        142.8821
269.38        140.4332
269.84        138.2208
270.30        136.4277
270.75        134.8053
271.21         133.548
271.66        132.7841
272.12        132.4583
272.57        132.4072
273.03        132.1719
273.48        130.9094
273.94         128.657
274.39        125.6622
274.85         122.577
275.31        119.9194
275.76        117.7853
276.22         116.135
276.67        114.8056
277.13        113.9207
277.58        113.2068
278.04        112.6765
278.49        111.9323
278.95        110.7166
279.40        108.8545
279.86        106.7011
280.31        104.2424
280.77        101.8275
281.22        99.46197
281.68        97.30915
282.13        95.44272
282.59        94.25993
283.04        93.62431
283.50        93.47404
283.95        93.43053
284.41        92.98779
284.86        91.98721
285.32        90.64944
285.77        89.15678
286.22        87.95958
286.68        87.13177
287.13         86.4352
287.59        85.74585
288.04        84.75039
288.50        83.47627
288.95        81.99596
289.41        80.49179
289.86        79.01943
290.32        77.71751
290.77        76.50112
291.22        75.44288
291.68        74.60915
292.13        73.94781
292.59        73.45946
293.04        73.05611
293.50        72.65511
293.95        72.20287
294.40        71.72626
294.86        71.23641
295.31        70.72898
295.77        70.24253
296.22         69.7672
296.68        69.36273
297.13        69.07252
297.58        68.91929
298.04        68.88744
298.49        68.93392
298.95        69.02856
299.40        69.12051
299.85        69.20033
300.31        69.25144
300.76         69.2131
301.21        69.08743
301.67         68.9148
302.12        68.65923
302.58        68.38012
303.03        68.05717
303.48        67.72798
303.94        67.46951
304.39        67.31182
304.84        67.27853
305.30        67.35661
305.75        67.43608
306.20        67.44187
306.66        67.36624
307.11        67.20112
307.57        66.99852
308.02        66.74534
308.47        66.47823
308.93        66.21156
309.38        65.94812
309.83        65.77683
310.29        65.70819
310.74        65.71056
311.19        65.72398
311.65        65.63969
312.10        65.42161
312.55        65.09635
313.00        64.74133
313.46        64.47095
313.91         64.2879
314.36        64.17716
314.82        64.05367
315.27        63.80446
315.72         63.4052
316.18        62.91474
316.63        62.42813
317.08        62.11602
317.53        62.00951
317.99        62.04782
318.44        62.12411
318.89         62.0463
319.35        61.76402
319.80        61.33275
320.25        60.85685
320.70        60.50611
321.16        60.32055
321.61         60.2684
322.06         60.2486
322.51        60.10394
322.97        59.78753
323.42        59.35458
323.87        58.91983
324.32         58.6763
324.78        58.64291
325.23        58.79462
325.68        58.94594
326.13         58.8037
326.59        58.30381
327.04        57.56314
327.49        56.78769
327.94        56.30727
328.39        56.19773
328.85        56.33883
329.30        56.62124
329.75        56.72293
330.20        56.54811
330.66         56.1909
331.11        55.79744
331.56        55.55483
332.01        55.52326
332.46         55.6174
332.92        55.76268
333.37        55.92919
333.82        56.04758
334.27        56.14992
334.72        56.19264
335.17        56.09448
335.63        55.85036
336.08         55.5154
336.53        55.18884
336.98        55.06329
337.43         55.1837
337.88        55.48278
338.34        55.86634
338.79        56.22464
339.24        56.47006
339.69        56.63625
340.14         56.6721
340.59        56.50545
341.05        56.16703
341.50        55.68462
341.95        55.21437
342.40        54.99598
342.85         55.0853
343.30        55.42284
343.75        55.88263
344.20        56.24608
344.66        56.44085
345.11        56.51096
345.56        56.51741
346.01        56.56472
346.46          56.684
346.91        56.83852
347.36        56.96756
347.81        56.99297
348.26        56.89713
348.72        56.70089
349.17         56.4908
349.62        56.41935
350.07        56.50959
350.52        56.72739
350.97        56.90329
351.42        56.76436
351.87         56.2797
352.32        55.56038
352.77         54.8555
353.22        54.52588
353.67        54.63956
354.13        55.07801
354.58        55.62766
355.03        55.92038
355.48        55.84081
355.93        55.48844
356.38        55.03008
356.83        54.71969
357.28        54.61442
357.73         54.6231
358.18        54.61032
358.63         54.3709
359.08        53.86765
359.53        53.19525
359.98        52.49667
360.43        51.96562
360.88        51.64578
361.33        51.47652
361.78        51.35984
362.23        51.14207
362.68        50.78875
363.13        50.35842
363.58        49.92558
364.03        49.60006
364.48        49.40298
364.93        49.28093
365.38        49.18581
365.83        49.04939
366.28        48.84467
366.73        48.59502
367.18         48.2971
367.63        47.94324
368.08        47.54211
368.53        47.09822
368.98        46.65195
369.43        46.26678
369.88        45.96112
370.33        45.72931
370.78         45.5348
371.23        45.31348
371.68        45.04778
372.13        44.74837
372.58         44.4628
373.03        44.26606
373.48        44.16575
373.93        44.13267
374.38        44.08277
374.83        43.88845
375.28        43.52859
375.72         43.0386
376.17        42.54832
376.62        42.19962
377.07        42.02902
377.52         41.9997
377.97         42.0217
378.42        41.95272
378.87         41.7555
379.32        41.46193
379.77        41.17099
380.22        41.02715
380.67        41.04523
381.11        41.18637
381.56        41.28061
382.01         41.0937
382.46        40.59745
382.91        39.90963
383.36        39.22711
383.81        38.81076
384.26        38.70633
384.71         38.8264
385.15         39.0575
385.60        39.20491
386.05        39.19837
386.50        39.08788
386.95        38.90925
387.40        38.72127
387.85        38.54771
388.29        38.34224
388.74        38.14777
389.19        37.93354
389.64        37.69835
390.09        37.45317
390.54        37.22009
390.98        37.02399
391.43        36.89442
391.88        36.81585
392.33         36.7642
392.78        36.70232
393.23        36.62194
393.67        36.51883
394.12        36.43726
394.57         36.3726
395.02        36.32357
395.47        36.26831
395.91        36.22083
396.36        36.19007
396.81        36.19195
397.26        36.22974
397.71        36.24501
398.15        36.17487
398.60        36.05862
399.05        35.77126
399.50          35.437
399.95        35.49388
400.39        35.84763
400.84        35.82713
401.29        35.41836
401.74         35.1593
402.18        35.07341
402.63        34.81734
403.08        34.48066
403.53        34.35568
403.97        34.46416
404.42        34.72053
404.87        34.98993
405.32        35.05495
405.76        34.86349
406.21        34.50545
406.66         34.1085
407.11        33.87164
407.55        33.85669
408.00        33.99148
408.45        34.19236
408.90        34.29407
409.34        34.23948
409.79        34.08598
410.24         33.9104
410.68        33.80975
411.13        33.81365
411.58        33.88548
412.03        33.95472
412.47        33.91108
412.92        33.72363
413.37         33.4518
413.81        33.18354
414.26        33.07028
414.71        33.12427
415.15        33.31042
415.60        33.53285
416.05        33.65734
416.49        33.64152
416.94        33.52332
417.39        33.36345
417.83        33.25206
418.28        33.21622
418.73        33.21984
419.17        33.24948
419.62        33.28755
420.07        33.32284
420.51        33.35843
420.96        33.38166
421.41         33.3601
421.85         33.2809
422.30        33.14002
422.74        32.96132
423.19        32.92888
423.64        33.00166
424.08        32.95934
424.53        32.79583
424.98        32.75338
425.42        32.85666
425.87        32.88639
426.31        32.83871
426.76        32.94482
427.21        33.11247
427.65        32.88621
428.10        32.39954
428.54        32.23597
428.99        32.44601
429.44        32.74224
429.88        32.99457
430.33        33.08508
430.77        32.98684
431.22        32.89074
431.66        32.82676
432.11         32.7322
432.56        32.65478
433.00        32.61174
433.45        32.54413
433.89        32.60128
434.34        32.79734
434.78        32.35273
435.23        32.50635
435.67        32.51438
436.12        32.66014
436.57        32.55759
437.01        32.25554
437.46        32.10057
437.90         32.1147
438.35        32.11874
438.79        32.08208
439.24        32.06604
439.68        32.05834
440.13        32.04718
440.57        32.05577
441.02        32.10741
441.46        32.18864
441.91        32.31602
442.35        32.41988
442.80        32.47312
443.24         32.4558
443.69        32.43526
444.13        32.41329
444.58        32.37664
445.02          32.326
445.47        32.28691
445.91        32.25432
446.36        32.21791
446.80        32.17052
447.24        32.12089
447.69        32.07895
448.13        32.04446
448.58        32.02592
449.02        32.01737
449.47         32.0127
449.91        31.98601
450.36        31.94459
450.80        31.88607
451.25        31.84378
451.69        31.84711
452.13        31.90342
452.58        31.99157
453.02        32.07986
453.47        32.12254
453.91        32.10802
454.36          32.061
454.80        31.98319
455.24        31.87873
455.69        31.76789
456.13        31.62811
456.58        31.52939
457.02        31.52786
457.46        31.63882
457.91        31.84228
458.35         32.0275
458.79        32.03079
459.24         31.8533
459.68        31.53522
460.13        31.23084
460.57         31.0957
461.01        31.18481
461.46        31.41963
461.90        31.72559
462.34        31.95325
462.79        32.04042
463.23        32.04176
463.68        31.96279
464.12        31.83536
464.56        31.67873
465.01        31.52041
465.45        31.35575
465.89        31.26751
466.34        31.26136
466.78        31.31393
467.22        31.40024
467.67        31.44032
468.11        31.43035
468.55        31.37887
468.99        31.30946
469.44        31.25768
469.88         31.2391
470.32        31.23821
470.77        31.25377
471.21        31.28924
471.65        31.33697
472.10        31.39911
472.54        31.45436
472.98        31.47825
473.42        31.46564
473.87        31.43258
474.31        31.37665
474.75        31.32511
475.20        31.29398
475.64        31.26745
476.08        31.25375
476.52        31.24804
476.97        31.24778
477.41        31.26828
477.85        31.31358
478.29        31.34286
478.74        31.37615
479.18        31.49193
479.62        31.64906
480.06        31.72169
480.50        31.70535
480.95        31.63957
481.39        31.53263
481.83        31.63704
482.27        31.58616
482.72        31.68513
483.16        31.82074
483.60        31.90976
484.04        31.93416
484.48        32.06966
484.93        32.30865
485.37        32.05981
485.81        32.17424
486.25         32.1559
486.69        33.02784
487.14        33.25142
487.58         32.6972
488.02         32.7087
488.46        32.56012
488.90        32.44829
489.34        32.81143
489.79        32.98988
490.23        33.11256
490.67        33.00615
491.11        32.78775
491.55        32.80199
491.99        33.03896
492.43        33.15886
492.88        33.15581
493.32        33.27394
493.76        33.48664
494.20        33.63874
494.64        33.72155
495.08        33.73215
495.52        33.71012
495.96        33.85586
496.41         34.1262
496.85        34.18726
497.29        34.03596
497.73          34.175
498.17        34.17115
498.61        34.34066
499.05        34.49473
499.49        34.53401
499.93        34.38698
500.37        34.48678
500.82        34.77995
501.26        34.96569
501.70         35.0183
502.14        35.09697
502.58         35.2168
503.02        35.32931
503.46        35.43354
503.90        35.53663
504.34        35.61697
504.78          35.643
505.22        35.61234
505.66        35.54276
506.10         35.4729
506.54        35.45028
506.98        35.48695
507.42        35.62259
507.86        35.73632
508.30         35.8657
508.74        35.96569
509.18        36.04821
509.62        36.11437
510.06        36.16975
510.50        36.21772
510.94        36.25125
511.38          36.277
511.82        36.30793
512.26        36.34772
512.70        36.39796
513.14        36.44904
513.58        36.48304
514.02        36.49754
514.46        36.49718
514.90        36.49992
515.34        36.53486
515.78        36.60469
516.22        36.69608
516.66        36.78234
517.10        36.82169
517.54        36.80438
517.98        36.74523
518.42         36.6641
518.86        36.59282
519.30        36.54416
519.74        36.51106
520.18        36.49184
520.62        36.48282
521.06        36.48086
521.50        36.48817
521.93        36.50297
522.37        36.50768
522.81        36.50382
523.25         36.4937
523.69        36.47705
524.13        36.45655
524.57        36.43122
525.01        36.39344
525.45        36.35311
525.89        36.32614
526.32        36.31045
526.76        36.31569
527.20        36.30711
527.64        36.23399
528.08        36.09373
528.52        35.90275
528.96        35.72585
529.40        35.66361
529.83        35.72976
530.27        35.89351
530.71         36.0695
531.15        36.12423
531.59        36.02795
532.03         35.8233
532.46        35.58116
532.90        35.43858
533.34        35.42252
533.78        35.47038
534.22         35.5336
534.66        35.58237
535.09        35.57116
535.53        35.44522
535.97        35.24683
536.41         35.1319
536.85        35.12143
537.28        35.13527
537.72        35.16769
538.16        35.23772
538.60         35.3358
539.04        35.46013
539.47        35.57246
539.91         35.6352
540.35        35.63664
540.79        35.59014
541.22        35.54112
541.66         35.5762
542.10         35.7059
542.54        35.90162
542.97        36.10669
543.41        36.24746
543.85        36.30169
544.29        36.30295
544.72        36.27931
545.16        36.29672
545.60        36.36678
546.04        36.47282
546.47        36.61699
546.91        36.79688
547.35        36.99973
547.79        37.22755
548.22        37.44583
548.66        37.59144
549.10        37.69979
549.53        37.76915
549.97        37.83505
550.41        37.87422
550.84        37.94048
551.28        38.12033
551.72        38.35801
552.15        38.59362
552.59        38.85739
553.03        38.60225
553.46        38.99977
553.90        39.05325
554.34        39.11047
554.77        39.16634
555.21        39.25883
555.65        39.41705
556.08        39.62531
556.52        39.84933
556.96        40.04123
557.39        40.23551
557.83        40.38901
558.27        40.29019
558.70        40.01722
559.14        39.93853
559.57        40.05592
560.01        40.14658
560.45        40.19345
560.88        40.28123
561.32        40.41895
561.75        40.58402
562.19        40.75098
562.63        40.78479
563.06        40.71914
563.50        40.75492
563.93        40.86784
564.37        40.99808
564.80        41.13795
565.24        41.17473
565.68        41.02446
566.11         41.5054
566.55         41.1353
566.98        41.06698
567.42        40.97602
567.85        41.14288
568.29        41.53462
568.72        41.86967
569.16        42.18325
569.60        42.41938
570.03        42.68834
570.47        43.02309
570.90        43.49492
571.34        43.02571
571.77        43.42787
572.21        43.73127
572.64        43.57186
573.08        43.76021
573.51        43.58845
573.95        43.83738
574.38        44.37374
574.82        44.46467
