SpectraSmart Spectrum 2.9.0.0
--------- Device Information -----------
Spectrum Name :  反射率_0
Saving Time :  2024/04/27 00:18:57
Spectro-Module Model Name : SE2030-DUVN
Spectro-Module Serial Number : OS361AC55029948
Wavelength Start : 200
Wavelength End : 1025
Wavelength Unit : Wavelength(nm)
Spectrum Unit : Reflectance(%)
-----------Spectrum Setting ------------
Integration Time : 20ms
Average : 10
Boxcar : 0
Background removal :  enabled
linearity correction :  enabled
SC :  disabled
Intensity correction :  disabled
DWT denoise :  enabled
savitzky-golay :  disabled
FFT :  disabled
Running average :  disabled
Kalman :  disabled
High pass :  disabled
---------------BEGIN--------------------
Wavelength(nm)             Reflectance(%)
200.29               0
200.75         20.3499
201.21        21.46408
201.67        22.97025
202.13        24.81197
202.58        26.99359
203.04        30.16197
203.50        34.19443
203.96        37.52267
204.42        38.73946
204.88        37.48958
205.34        34.29323
205.80        31.13594
206.26         28.9611
206.72        27.53618
207.18        26.41532
207.64        24.71165
208.10        22.04834
208.55        18.32721
209.01        13.59109
209.47        11.29058
209.93        13.21171
210.39        16.86694
210.85        20.17205
211.31        22.69525
211.77        25.31544
212.23        29.97825
212.69        40.54721
213.14        58.56853
213.60        56.80909
214.06         42.5517
214.52        33.89687
214.98        31.83499
215.44        33.12881
215.90        36.08556
216.36        38.64111
216.81        37.23269
217.27         30.8774
217.73         19.4152
218.19        4.050646
218.65        -3.48516
219.11        2.805538
219.57        14.38489
220.02        25.01241
220.48        34.05407
220.94        43.62939
221.40        56.73519
221.86        73.33299
222.32        83.21811
222.77        77.83138
223.23         64.2151
223.69        51.29466
224.15        44.20063
224.61        41.75857
225.06        41.53025
225.52        42.33035
225.98        42.80972
226.44         42.7954
226.90        42.88592
227.36        43.03314
227.81        43.04697
228.27        42.99825
228.73        42.60428
229.19        42.41988
229.65        43.21423
230.10        44.91694
230.56        47.34005
231.02        49.32466
231.48         49.0409
231.93        46.40569
232.39        42.56837
232.85        39.03496
233.31        37.75027
233.77        38.85558
234.22         41.6524
234.68        45.02446
235.14         47.3185
235.60        47.99278
236.05        47.49643
236.51        46.24209
236.97        45.17648
237.43        44.76028
237.88        44.73349
238.34        44.90517
238.80        45.18718
239.26        45.59178
239.71        46.65859
240.17         48.2997
240.63        50.41656
241.08        52.94977
241.54        55.24202
242.00        58.14405
242.46        63.89313
242.91        74.58837
243.37        92.10822
243.83        116.0431
244.28        132.9921
244.74        125.9125
245.20        97.06505
245.66        66.12224
246.11         48.7756
246.57        44.61679
247.03        48.65622
247.48        55.63997
247.94        56.51936
248.40        51.13556
248.85        44.39732
249.31        39.14503
249.77        36.55827
250.22        36.13175
250.68        36.99255
251.14        38.98555
251.59        41.43997
252.05        43.67022
252.51         45.9229
252.96        47.11138
253.42        46.62996
253.88         44.9785
254.33        42.45012
254.79        41.16614
255.25        42.78036
255.70        46.98142
256.16        53.01772
256.62        58.33995
257.07        59.05146
257.53        56.11637
257.99         51.8927
258.44        48.33243
258.90        47.29169
259.35         47.9343
259.81        49.58941
260.27        51.09907
260.72        51.11266
261.18        49.84006
261.63        47.77784
262.09        45.94914
262.55        44.99572
263.00        44.81095
263.46        45.15058
263.91        45.38723
264.37        44.98468
264.83         43.9012
265.28        42.40075
265.74        41.05054
266.19        40.28815
266.65         40.2101
267.11        40.53869
267.56        40.94877
268.02        40.93248
268.47        40.36237
268.93        39.44495
269.38        38.36569
269.84        37.45117
270.30        36.78328
270.75         36.2454
271.21        35.81519
271.66        35.41544
272.12        35.01139
272.57        34.61002
273.03        34.16556
273.48        33.58696
273.94        32.90555
274.39        32.11531
274.85         31.3266
275.31        30.57251
275.76        29.85604
276.22        29.21102
276.67        28.60836
277.13        28.07715
277.58         27.5776
278.04         27.1273
278.49        26.68519
278.95        26.29043
279.40         25.8997
279.86        25.56481
280.31        25.21066
280.77        24.81967
281.22        24.36644
281.68          23.912
282.13        23.50478
282.59        23.28229
283.04        23.22664
283.50        23.30168
283.95        23.40428
284.41        23.38144
284.86        23.19176
285.32        22.90183
285.77        22.57553
286.22        22.35263
286.68        22.26225
287.13        22.24043
287.59         22.2402
288.04        22.15263
288.50        21.97939
288.95        21.73906
289.41        21.51056
289.86        21.35091
290.32        21.29946
290.77        21.32072
291.22        21.38246
291.68        21.42647
292.13        21.43671
292.59        21.45135
293.04        21.51637
293.50        21.72076
293.95        22.07012
294.40        22.53081
294.86        23.04646
295.31        23.52513
295.77        23.94367
296.22        24.31738
296.68        24.67602
297.13        25.05535
297.58        25.47332
298.04        25.91881
298.49        26.37969
298.95        26.85315
299.40        27.32843
299.85        27.81116
300.31        28.29953
300.76         28.7815
301.21        29.25188
301.67        29.71598
302.12        30.15154
302.58        30.57965
303.03        30.97723
303.48        31.35896
303.94        31.72289
304.39        32.03622
304.84        32.31109
305.30         32.5689
305.75        32.81425
306.20         33.1055
306.66        33.45274
307.11        33.81512
307.57         34.1654
308.02        34.41886
308.47        34.56572
308.93        34.63368
309.38        34.63729
309.83        34.64691
310.29        34.68063
310.74        34.71747
311.19        34.72776
311.65        34.65892
312.10        34.49913
312.55        34.27052
313.00         34.0309
313.46        33.85993
313.91        33.76123
314.36        33.72288
314.82         33.6786
315.27        33.53199
315.72        33.26242
316.18        32.91089
316.63        32.55037
317.08        32.30782
317.53        32.20591
317.99        32.19733
318.44         32.2064
318.89        32.09935
319.35        31.84226
319.80        31.47751
320.25        31.07091
320.70        30.72777
321.16        30.47649
321.61        30.29449
322.06          30.137
322.51        29.93494
322.97        29.66506
323.42        29.35615
323.87        29.04811
324.32        28.80638
324.78        28.63397
325.23        28.52234
325.68        28.40313
326.13        28.17573
326.59        27.82196
327.04        27.39037
327.49        26.95515
327.94        26.63235
328.39        26.44323
328.85        26.33544
329.30        26.27572
329.75         26.1555
330.20         25.9419
330.66        25.66627
331.11        25.36287
331.56         25.0616
332.01        24.77932
332.46        24.50247
332.92        24.23621
333.37        24.03496
333.82        23.89535
334.27        23.81323
334.72        23.76152
335.17         23.6881
335.63         23.5734
336.08        23.44003
336.53        23.29685
336.98        23.17145
337.43        23.07067
337.88         22.9763
338.34        22.88575
338.79         22.8217
339.24        22.77408
339.69        22.74327
340.14        22.69269
340.59        22.56195
341.05        22.35312
341.50        22.08733
341.95         21.8245
342.40        21.65579
342.85        21.59994
343.30        21.62342
343.75        21.68308
344.20        21.70896
344.66        21.68044
345.11        21.61928
345.56        21.52901
346.01        21.41623
346.46        21.29466
346.91        21.16372
347.36          21.054
347.81        21.01744
348.26         21.0574
348.72        21.15319
349.17        21.26079
349.62        21.32009
350.07        21.31041
350.52         21.2496
350.97        21.13906
351.42        20.98549
351.87        20.80486
352.32        20.60252
352.77        20.41528
353.22        20.29522
353.67        20.24839
354.13        20.26099
354.58        20.29441
355.03        20.28606
355.48        20.21658
355.93        20.10337
356.38        19.96626
356.83        19.83672
357.28         19.7216
357.73        19.60446
358.18        19.48121
358.63        19.35033
359.08        19.21102
359.53        19.06984
359.98        18.91707
360.43        18.73194
360.88        18.51344
361.33        18.27044
361.78        18.02747
362.23        17.82554
362.68        17.67736
363.13        17.57401
363.58        17.49439
364.03        17.40297
364.48        17.28827
364.93        17.15726
365.38        17.02589
365.83         16.9221
366.28        16.85027
366.73          16.797
367.18        16.73922
367.63        16.64287
368.08        16.50127
368.53        16.32869
368.98        16.14539
369.43        15.98184
369.88        15.84888
370.33        15.73921
370.78        15.64693
371.23         15.5627
371.68        15.48148
372.13        15.40461
372.58         15.3324
373.03        15.26366
373.48        15.19594
373.93        15.12768
374.38        15.04917
374.83        14.94771
375.28        14.82423
375.72        14.68115
376.17        14.54844
376.62        14.45089
377.07        14.39398
377.52        14.36996
377.97        14.35917
378.42         14.3313
378.87        14.27571
379.32        14.19528
379.77        14.10804
380.22        14.03966
380.67         13.9935
381.11        13.96903
381.56        13.92691
382.01        13.81833
382.46        13.64447
382.91        13.43226
383.36        13.24397
383.81        13.16321
384.26        13.19767
384.71          13.316
385.15        13.45535
385.60        13.51495
386.05        13.46418
386.50        13.33617
386.95        13.17322
387.40        13.04261
387.85         12.9664
388.29         12.9156
388.74         12.8923
389.19        12.87188
389.64        12.84523
390.09        12.81721
390.54        12.78733
390.98        12.74787
391.43        12.70779
391.88        12.66998
392.33        12.62891
392.78        12.57801
393.23        12.51963
393.67        12.44883
394.12        12.40231
394.57        12.40917
395.02         12.4701
395.47        12.56944
395.91        12.66757
396.36        12.68837
396.81        12.62306
397.26        12.49853
397.71        12.35548
398.15        12.26143
398.60        12.24641
399.05        12.23859
399.50        12.22991
399.95        12.29947
400.39        12.40092
400.84        12.32425
401.29        12.10672
401.74         12.0006
402.18        12.02861
402.63        12.04765
403.08        12.04869
403.53         12.0746
403.97        12.11882
404.42        12.17347
404.87        12.20981
405.32        12.17955
405.76        12.07712
406.21        11.92478
406.66        11.77744
407.11        11.72266
407.55        11.78138
408.00        11.92468
408.45        12.09393
408.90        12.17418
409.34        12.13223
409.79        12.00733
410.24        11.86085
410.68        11.77738
411.13        11.78041
411.58        11.83923
412.03        11.91992
412.47        11.96544
412.92        11.95151
413.37        11.90367
413.81        11.83912
414.26        11.78886
414.71        11.75759
415.15        11.73729
415.60        11.72078
416.05         11.7072
416.49        11.69723
416.94        11.69418
417.39        11.69745
417.83        11.70331
418.28         11.7085
418.73        11.70801
419.17        11.70788
419.62        11.71902
420.07        11.74155
420.51         11.7704
420.96        11.78701
421.41        11.76063
421.85        11.68681
422.30        11.57718
422.74        11.46158
423.19        11.43621
423.64        11.49183
424.08        11.54258
424.53        11.56639
424.98        11.61684
425.42        11.69165
425.87        11.72123
426.31        11.70921
426.76        11.75007
427.21        11.81237
427.65        11.72691
428.10        11.54836
428.54        11.48365
428.99        11.55277
429.44        11.69423
429.88        11.83757
430.33        11.82678
430.77        11.68626
431.22        11.65307
431.66        11.74024
432.11        11.76457
432.56        11.73338
433.00        11.79837
433.45        11.89251
433.89        11.81043
434.34        11.63049
434.78        11.31284
435.23        11.51906
435.67        11.53337
436.12        11.52306
436.57        11.50975
437.01        11.50105
437.46         11.5151
437.90        11.54411
438.35        11.55005
438.79        11.53397
439.24        11.53675
439.68        11.56171
440.13        11.59458
440.57        11.62711
441.02        11.65915
441.46        11.68534
441.91         11.6744
442.35        11.63405
442.80        11.68967
443.24         11.7926
443.69        11.74233
444.13        11.56608
444.58        11.49236
445.02        11.53148
445.47         11.5653
445.91        11.57715
446.36        11.59653
446.80        11.61538
447.24        11.62724
447.69        11.63568
448.13        11.64032
448.58         11.6446
449.02        11.64624
449.47        11.64772
449.91        11.64796
450.36        11.64986
450.80        11.65176
451.25        11.65586
451.69        11.65917
452.13        11.66086
452.58        11.65729
453.02        11.64732
453.47        11.63136
453.91         11.6091
454.36        11.58425
454.80        11.54729
455.24        11.48165
455.69        11.39297
456.13        11.28205
456.58        11.18677
457.02        11.14344
457.46        11.16235
457.91         11.2291
458.35        11.30068
458.79        11.30989
459.24        11.25427
459.68        11.14888
460.13        11.04696
460.57         10.9981
461.01        11.02239
461.46        11.08938
461.90        11.17921
462.34        11.24775
462.79         11.2752
463.23        11.28075
463.68        11.25714
464.12        11.20095
464.56        11.11834
465.01         11.0267
465.45        10.93833
465.89        10.90119
466.34        10.91951
466.78        10.97891
467.22        11.05805
467.67        11.10649
468.11        11.11485
468.55        11.09082
468.99        11.05385
469.44          11.035
469.88         11.0437
470.32        11.06952
470.77        11.10057
471.21        11.12129
471.65        11.12574
472.10        11.12255
472.54         11.1172
472.98        11.12211
473.42        11.13957
473.87        11.16731
474.31        11.19158
474.75        11.20352
475.20          11.204
475.64        11.19306
476.08        11.18088
476.52        11.17629
476.97        11.18257
477.41        11.20273
477.85        11.23606
478.29        11.26428
478.74        11.29382
479.18        11.35451
479.62         11.4344
480.06         11.4958
480.50        11.53534
480.95        11.55435
481.39        11.55061
481.83        11.63371
482.27        11.63612
482.72        11.69774
483.16         11.7669
483.60        11.81092
484.04        11.80543
484.48        11.86553
484.93        12.06551
485.37        11.98568
485.81        11.94164
486.25        12.46166
486.69        12.26765
487.14        11.99492
487.58        12.78834
488.02        12.78111
488.46        12.41173
488.90        12.54176
489.34        12.47545
489.79        12.72345
490.23        12.94162
490.67        13.10308
491.11        13.17183
491.55        13.17161
491.99        13.15189
492.43        13.18334
492.88        13.28415
493.32        13.40778
493.76        13.53935
494.20        13.68588
494.64        13.84458
495.08        13.98682
495.52        14.10186
495.96        14.26572
496.41        14.44634
496.85        14.42856
497.29        14.27564
497.73        14.42108
498.17        14.66483
498.61        14.89754
499.05        15.01226
499.49        15.11556
499.93        15.16901
500.37        15.26379
500.82        15.38971
501.26        15.48849
501.70        15.55952
502.14        15.65077
502.58        15.76759
503.02        15.88712
503.46        16.00595
503.90        16.13156
504.34        16.24541
504.78        16.31536
505.22        16.33604
505.66        16.31584
506.10        16.28311
506.54        16.28417
506.98        16.33187
507.42        16.41689
507.86        16.51647
508.30        16.59125
508.74        16.63121
509.18        16.64804
509.62        16.66513
510.06        16.71982
510.50        16.81897
510.94        16.94735
511.38        17.07755
511.82        17.16733
512.26        17.20595
512.70        17.20684
513.14        17.19242
513.58        17.19897
514.02        17.23708
514.46        17.29515
514.90        17.35851
515.34        17.40428
515.78        17.42488
516.22        17.42738
516.66         17.4203
517.10        17.41585
517.54        17.41821
517.98         17.4247
518.42        17.42744
518.86        17.41459
519.30        17.38552
519.74        17.34538
520.18        17.30936
520.62        17.30014
521.06         17.3208
521.50        17.36263
521.93        17.40786
522.37        17.42048
522.81        17.39466
523.25        17.34109
523.69        17.27424
524.13        17.21727
524.57        17.17585
525.01         17.1396
525.45        17.10571
525.89        17.07014
526.32         17.0283
526.76         16.9889
527.20        16.94011
527.64        16.86351
528.08        16.76019
528.52        16.63756
528.96        16.52168
529.40        16.45345
529.83        16.43875
530.27        16.46321
530.71        16.49771
531.15        16.49661
531.59        16.44757
532.03        16.36471
532.46        16.26182
532.90         16.1729
533.34        16.10614
533.78        16.04423
534.22        15.98703
534.66        15.95404
535.09        15.93263
535.53        15.88828
535.97        15.82511
536.41        15.78932
536.85        15.78388
537.28        15.78067
537.72        15.78473
538.16        15.81665
538.60        15.87469
539.04        15.95071
539.47        16.02504
539.91        16.07791
540.35        16.10338
540.79         16.1123
541.22        16.11966
541.66        16.15511
542.10        16.22457
542.54        16.31899
542.97        16.43139
543.41        16.55682
543.85        16.68773
544.29        16.82699
544.72        16.96189
545.16        17.08374
545.60        17.18791
546.04        17.28352
546.47        17.38718
546.91        17.50872
547.35        17.65728
547.79        17.85807
548.22        18.07843
548.66        18.23776
549.10        18.34929
549.53        18.43752
549.97        18.53526
550.41        18.64396
550.84        18.79239
551.28        19.01755
551.72        19.27283
552.15        19.49964
552.59        19.70612
553.03        19.62044
553.46        19.85734
553.90        19.94169
554.34        20.05665
554.77        20.18996
555.21        20.33915
555.65        20.48333
556.08        20.60727
556.52        20.70682
556.96        20.78209
557.39        20.88928
557.83        21.01461
558.27        21.03496
558.70        20.97193
559.14        20.98787
559.57        21.07874
560.01        21.14182
560.45        21.17683
560.88        21.24814
561.32        21.36638
561.75         21.4889
562.19        21.61273
562.63        21.72912
563.06        21.82894
563.50        21.91663
563.93        21.97699
564.37        22.04177
564.80        22.12271
565.24        22.16659
565.68        22.13385
566.11         22.4314
566.55         22.2639
566.98         22.3305
567.42        22.42928
567.85        22.56984
568.29        22.75735
568.72        23.00586
569.16        23.30957
569.60        23.51493
570.03        23.69803
570.47        23.86607
570.90        24.05017
571.34        24.04428
571.77        24.27971
572.21        24.37868
572.64        24.45912
573.08         24.6288
573.51        24.87471
573.95         24.9272
574.38        24.86263
574.82        25.00659
