SpectraSmart Spectrum 2.9.0.0
--------- Device Information -----------
Spectrum Name :  反射率_0
Saving Time :  2024/04/27 00:19:56
Spectro-Module Model Name : SE2030-DUVN
Spectro-Module Serial Number : OS361AC55029948
Wavelength Start : 200
Wavelength End : 1025
Wavelength Unit : Wavelength(nm)
Spectrum Unit : Reflectance(%)
-----------Spectrum Setting ------------
Integration Time : 20ms
Average : 10
Boxcar : 0
Background removal :  enabled
linearity correction :  enabled
SC :  disabled
Intensity correction :  disabled
DWT denoise :  enabled
savitzky-golay :  disabled
FFT :  disabled
Running average :  disabled
Kalman :  disabled
High pass :  disabled
---------------BEGIN--------------------
Wavelength(nm)             Reflectance(%)
200.29               0
200.75         32.8638
201.21        33.56402
201.67        34.62976
202.13        35.61256
202.58        36.43497
203.04        37.82781
203.50        40.05003
203.96        42.84491
204.42        45.76124
204.88         48.2581
205.34        49.96502
205.80        50.94766
206.26         51.1231
206.72        50.35297
207.18        48.92577
207.64        46.83733
208.10        43.94103
208.55        40.22815
209.01        35.24567
209.47        31.66562
209.93        31.91898
210.39          34.524
210.85        37.89837
211.31        42.16023
211.77        48.93797
212.23        62.70631
212.69        96.25653
213.14        154.9512
213.60        156.4314
214.06        117.6094
214.52        89.69224
214.98        75.67749
215.44        67.87099
215.90        61.70235
216.36        57.04039
216.81        54.51603
217.27        54.72104
217.73        58.95773
218.19        67.24483
218.65        73.67551
219.11        74.39139
219.57        71.78604
220.02        70.63805
220.48        75.57767
220.94        87.34652
221.40        107.4918
221.86        136.0593
222.32        156.1899
222.77        151.5079
223.23         133.228
223.69        113.4051
224.15        98.73731
224.61        89.08528
225.06        82.06094
225.52        78.09039
225.98        77.26786
226.44        79.08021
226.90        83.19332
227.36        88.40752
227.81        92.31982
228.27        94.25217
228.73        94.50569
229.19        94.18284
229.65        94.80171
230.10        96.42961
230.56        98.58389
231.02        100.1342
231.48        99.43195
231.93        96.41248
232.39        92.50105
232.85        88.79577
233.31        86.69352
233.77        86.32737
234.22        87.10108
234.68        88.64403
235.14        90.50467
235.60        92.39827
236.05        94.60474
236.51        96.32625
236.97        96.17738
237.43        93.75467
237.88        89.34933
238.34        84.31154
238.80        81.27232
239.26        81.13298
239.71        84.26094
240.17        89.57423
240.63        94.01741
241.08        95.65173
241.54        94.10133
242.00        91.77409
242.46        93.91372
242.91        104.2129
243.37        124.0367
243.83        153.9739
244.28         180.186
244.74         181.241
245.20        157.0472
245.66        125.2897
246.11        101.2123
246.57        85.77483
247.03        74.68468
247.48        66.04958
247.94        59.01407
248.40        54.39573
248.85        52.27824
249.31        52.08092
249.77        52.83977
250.22        54.25288
250.68        56.54698
251.14        59.57755
251.59        62.18578
252.05         63.7146
252.51        64.66069
252.96         65.0964
253.42         65.8176
253.88        66.85168
254.33        67.42269
254.79        69.12482
255.25        73.10012
255.70        78.97716
256.16        86.40281
256.62        92.29474
257.07        91.98768
257.53        87.30477
257.99        81.36761
258.44         76.6664
258.90        75.67619
259.35        77.18654
259.81        80.29473
260.27         83.4836
260.72        84.91919
261.18        84.74756
261.63        83.38881
262.09        82.05833
262.55        81.35915
263.00        81.16992
263.46        81.38069
263.91        81.28622
264.37        80.49578
264.83        78.97742
265.28        77.00934
265.74        75.27329
266.19        74.15697
266.65        73.80303
267.11        73.87562
267.56        74.09763
268.02         74.0582
268.47         73.6061
268.93        72.93361
269.38         72.0167
269.84        70.90949
270.30        69.65476
270.75        68.22434
271.21        66.88992
271.66        65.98068
272.12        65.54613
272.57        65.43889
273.03        65.35388
273.48        64.75593
273.94        63.61811
274.39        62.08531
274.85        60.51665
275.31        59.19889
275.76        58.17397
276.22        57.39643
276.67        56.72691
277.13        56.13926
277.58        55.50862
278.04        54.89628
278.49         54.2009
278.95        53.44289
279.40        52.55563
279.86        51.65882
280.31        50.67839
280.77        49.68855
281.22        48.66043
281.68        47.69608
282.13        46.83717
282.59        46.28333
283.04        45.97731
283.50        45.87822
283.95        45.82115
284.41        45.58595
284.86        45.10712
285.32        44.49343
285.77        43.81582
286.22        43.26707
286.68        42.88375
287.13        42.55897
287.59        42.26265
288.04        41.88324
288.50        41.43789
288.95        40.93981
289.41        40.44204
289.86        39.91598
290.32        39.42245
290.77        38.94184
291.22        38.54184
291.68        38.30239
292.13        38.21478
292.59        38.27289
293.04        38.42059
293.50        38.59732
293.95        38.76701
294.40        38.94753
294.86        39.15249
295.31        39.39267
295.77        39.68257
296.22        39.99944
296.68        40.34837
297.13        40.71769
297.58        41.11118
298.04        41.53217
298.49        41.97416
298.95        42.44762
299.40        42.93779
299.85        43.44269
300.31        43.94547
300.76        44.40263
301.21        44.81034
301.67        45.18806
302.12        45.53133
302.58        45.91136
303.03        46.29886
303.48        46.69229
303.94        47.06776
304.39        47.34056
304.84         47.5165
305.30        47.63385
305.75        47.69755
306.20         47.7844
306.66        47.92295
307.11        48.07153
307.57        48.22261
308.02         48.2972
308.47        48.29826
308.93         48.2587
309.38        48.19451
309.83        48.19126
310.29        48.26242
310.74        48.37334
311.19        48.46872
311.65        48.45407
312.10        48.30231
312.55        48.04416
313.00        47.75411
313.46        47.54027
313.91        47.41105
314.36        47.34896
314.82        47.28296
315.27        47.11483
315.72        46.81953
316.18        46.44265
316.63        46.05341
317.08         45.7765
317.53        45.63531
317.99        45.58529
318.44        45.54851
318.89        45.38591
319.35        45.06404
319.80        44.62447
320.25        44.15384
320.70         43.7906
321.16        43.56621
321.61        43.45533
322.06        43.36894
322.51        43.16554
322.97        42.80752
323.42         42.3464
323.87        41.88654
324.32        41.60168
324.78        41.51379
325.23        41.58962
325.68        41.68221
326.13        41.55737
326.59        41.15784
327.04        40.57548
327.49        39.95151
327.94        39.51038
328.39         39.3055
328.85        39.25078
329.30        39.28755
329.75        39.23107
330.20        39.02626
330.66        38.72935
331.11        38.41664
331.56        38.17259
332.01        38.02567
332.46        37.93191
332.92        37.85376
333.37        37.79701
333.82        37.72851
334.27         37.6632
334.72        37.57984
335.17        37.43692
335.63        37.22794
336.08        36.98336
336.53        36.74651
336.98        36.60571
337.43        36.58039
337.88        36.63746
338.34        36.72596
338.79        36.79725
339.24        36.80533
339.69        36.76253
340.14        36.65435
340.59        36.46149
341.05        36.20686
341.50        35.90787
341.95        35.61328
342.40        35.39544
342.85        35.27747
343.30        35.23818
343.75        35.27887
344.20        35.39793
344.66        35.57751
345.11        35.80281
345.56        36.00177
346.01        36.06575
346.46        35.97931
346.91        35.77725
347.36        35.53426
347.81        35.37609
348.26        35.33244
348.72        35.36085
349.17        35.42315
349.62        35.47025
350.07         35.4812
350.52        35.48632
350.97        35.44667
351.42        35.29845
351.87        35.04655
352.32        34.70879
352.77        34.39805
353.22        34.28336
353.67         34.3862
354.13        34.65657
354.58        34.95073
355.03        35.02354
355.48        34.81802
355.93        34.41441
356.38        33.96491
356.83        33.69966
357.28        33.66776
357.73        33.78817
358.18        33.94939
358.63        33.97241
359.08        33.80538
359.53        33.51296
359.98        33.16035
360.43        32.83773
360.88        32.57245
361.33        32.33177
361.78        32.09954
362.23        31.85753
362.68        31.60372
363.13         31.3587
363.58        31.12655
364.03         30.9031
364.48        30.68863
364.93        30.47985
365.38         30.2882
365.83        30.13676
366.28        30.02606
366.73        29.94336
367.18        29.86261
367.63        29.74409
368.08        29.57627
368.53         29.3699
368.98        29.14006
369.43        28.91073
369.88        28.69345
370.33        28.48704
370.78        28.29152
371.23        28.10784
371.68        27.93816
372.13         27.7833
372.58        27.65375
373.03        27.56228
373.48        27.50348
373.93        27.46612
374.38         27.4152
374.83        27.29908
375.28        27.10789
375.72        26.85122
376.17         26.5833
376.62        26.35311
377.07        26.17786
377.52        26.04923
377.97        25.94421
378.42        25.82799
378.87        25.69095
379.32        25.53723
379.77        25.39974
380.22        25.32346
380.67        25.30926
381.11        25.35142
381.56        25.36436
382.01        25.23598
382.46        24.95709
382.91        24.57991
383.36        24.22113
383.81        24.03992
384.26        24.05713
384.71        24.21873
385.15        24.42497
385.60        24.50839
386.05        24.42153
386.50        24.21918
386.95        23.97042
387.40        23.78375
387.85        23.69005
388.29        23.63436
388.74        23.61677
389.19        23.58455
389.64        23.52244
390.09        23.44422
390.54        23.35255
390.98        23.24237
391.43        23.13401
391.88        23.02947
392.33        22.93063
392.78        22.84141
393.23        22.76349
393.67        22.68242
394.12         22.6355
394.57        22.63244
395.02        22.66901
395.47         22.7313
395.91        22.78472
396.36        22.75912
396.81        22.65618
397.26         22.5053
397.71        22.34312
398.15         22.2383
398.60        22.22874
399.05        22.19452
399.50        22.14674
399.95        22.26586
400.39        22.47276
400.84        22.37742
401.29        22.00783
401.74        21.75914
402.18        21.66789
402.63        21.50457
403.08        21.31903
403.53        21.28457
403.97        21.40732
404.42        21.63654
404.87        21.87646
405.32        21.96883
405.76        21.87483
406.21        21.65429
406.66        21.39357
407.11        21.23153
407.55        21.21072
408.00          21.279
408.45        21.38708
408.90        21.43663
409.34        21.39348
409.79        21.29821
410.24        21.18449
410.68        21.08802
411.13        21.02657
411.58        20.98367
412.03        20.94785
412.47        20.90911
412.92        20.85775
413.37          20.805
413.81        20.76115
414.26        20.75701
414.71        20.78739
415.15        20.85058
415.60        20.90874
416.05        20.91713
416.49        20.86769
416.94        20.77302
417.39        20.67521
417.83        20.63717
418.28        20.67186
418.73        20.75668
419.17         20.8601
419.62        20.93123
420.07        20.95328
420.51        20.93615
420.96        20.89615
421.41        20.85333
421.85        20.80918
422.30        20.75157
422.74        20.67337
423.19        20.65863
423.64        20.67567
424.08        20.59792
424.53        20.44606
424.98        20.41227
425.42        20.52226
425.87        20.62683
426.31        20.68943
426.76        20.80429
427.21        20.89644
427.65        20.69116
428.10        20.30982
428.54        20.15562
428.99        20.27044
429.44        20.52236
429.88        20.78495
430.33        20.78333
430.77        20.55979
431.22        20.53863
431.66        20.71586
432.11        20.76134
432.56         20.6899
433.00         20.6774
433.45        20.66593
433.89        20.66077
434.34         20.6977
434.78        20.13727
435.23        20.20894
435.67        20.14108
436.12        20.24278
436.57         20.2671
437.01        20.20312
437.46         20.1788
437.90         20.1803
438.35        20.11893
438.79        20.01872
439.24         19.9847
439.68         20.0275
440.13        20.11922
440.57        20.22626
441.02        20.31065
441.46        20.35333
441.91        20.31329
442.35        20.22097
442.80        20.31962
443.24        20.52938
443.69        20.49193
444.13        20.24012
444.58        20.14774
445.02        20.22885
445.47        20.28306
445.91        20.29326
446.36        20.33125
446.80         20.3849
447.24        20.43113
447.69        20.46523
448.13        20.47214
448.58         20.4531
449.02        20.41223
449.47        20.35256
449.91        20.26744
450.36        20.17019
450.80        20.06508
451.25        19.97965
451.69         19.9411
452.13         19.9551
452.58        20.00477
453.02        20.06902
453.47        20.11615
453.91        20.13289
454.36        20.13135
454.80        20.09746
455.24        20.01009
455.69        19.88173
456.13         19.7108
456.58        19.56222
457.02        19.50186
457.46        19.54771
457.91        19.67574
458.35        19.81493
458.79        19.85646
459.24        19.79372
459.68        19.65117
460.13        19.50743
460.57        19.43176
461.01        19.45673
461.46        19.53883
461.90         19.6578
462.34        19.76495
462.79        19.83344
463.23        19.88588
463.68        19.89986
464.12        19.85113
464.56        19.74067
465.01        19.60218
465.45        19.45343
465.89        19.37295
466.34        19.37001
466.78        19.42121
467.22        19.49954
467.67        19.53733
468.11         19.5253
468.55        19.47224
468.99        19.40532
469.44        19.36549
469.88        19.36618
470.32        19.39511
470.77        19.43101
471.21        19.44366
471.65        19.42575
472.10        19.39273
472.54        19.36642
472.98        19.38683
473.42        19.45857
473.87        19.56779
474.31        19.67496
474.75        19.74048
475.20        19.75797
475.64        19.73342
476.08        19.68912
476.52        19.64833
476.97        19.62081
477.41        19.61234
477.85        19.62525
478.29        19.63068
478.74        19.64211
479.18        19.72634
479.62        19.83919
480.06        19.93247
480.50         19.9922
480.95        20.02462
481.39        20.01946
481.83         20.1522
482.27        20.13202
482.72        20.21019
483.16        20.30165
483.60        20.35142
484.04        20.33852
484.48        20.41371
484.93        20.65339
485.37        20.49644
485.81        20.64956
486.25         21.0509
486.69        21.33769
487.14        21.16797
487.58        21.39869
488.02        21.35018
488.46        21.14632
488.90        20.90074
489.34        21.13039
489.79        21.30536
490.23        21.50909
490.67        21.68743
491.11        21.81993
491.55        21.87151
491.99        21.87218
492.43        21.92482
492.88        22.04535
493.32         22.1827
493.76        22.32259
494.20        22.46873
494.64        22.61806
495.08        22.75229
495.52        22.86075
495.96        22.99918
496.41        23.14433
496.85        23.13266
497.29        23.00595
497.73        23.16611
498.17        23.30913
498.61        23.54163
499.05        23.72178
499.49        23.85702
499.93        23.88984
500.37        24.06039
500.82        24.32564
501.26        24.50113
501.70        24.57168
502.14        24.63833
502.58        24.73192
503.02        24.85353
503.46        25.00816
503.90        25.19327
504.34        25.36527
504.78        25.45218
505.22         25.4408
505.66        25.35565
506.10        25.25069
506.54        25.21226
506.98        25.26293
507.42        25.37737
507.86        25.52091
508.30        25.63473
508.74        25.69993
509.18        25.73642
509.62        25.75744
510.06        25.78377
510.50        25.82328
510.94        25.86447
511.38         25.9104
511.82        25.96887
512.26        26.03893
512.70        26.12125
513.14        26.20049
513.58        26.24955
514.02        26.26425
514.46        26.25221
514.90         26.2348
515.34        26.24806
515.78        26.29831
516.22        26.37068
516.66        26.44514
517.10        26.48937
517.54        26.49436
517.98        26.47359
518.42        26.43207
518.86        26.37746
519.30        26.31779
519.74        26.25173
520.18        26.19758
520.62        26.18353
521.06        26.21298
521.50        26.27878
521.93        26.35433
522.37        26.38498
522.81        26.36074
523.25        26.29348
523.69         26.2103
524.13        26.15524
524.57        26.13733
525.01        26.14086
525.45        26.14302
525.89        26.10751
526.32        26.02461
526.76        25.91761
527.20        25.80259
527.64         25.7055
528.08        25.63433
528.52        25.57795
528.96        25.53671
529.40        25.51148
529.83        25.49718
530.27        25.49653
530.71        25.48707
531.15        25.43526
531.59        25.33769
532.03        25.20372
532.46        25.06367
532.90        24.98395
533.34        24.97233
533.78        24.99617
534.22        25.02251
534.66        25.02984
535.09           24.99
535.53        24.86547
535.97        24.69456
536.41        24.60175
536.85         24.6047
537.28        24.64138
537.72        24.70436
538.16        24.80026
538.60        24.91586
539.04        25.04865
539.47        25.16086
539.91        25.21036
540.35        25.18892
540.79        25.11397
541.22        25.03308
541.66        25.03242
542.10        25.12849
542.54        25.29695
542.97        25.49477
543.41        25.66279
543.85        25.78056
544.29        25.87158
544.72        25.95027
545.16        26.05644
545.60        26.19529
546.04        26.35357
546.47        26.53203
546.91        26.72904
547.35        26.93476
547.79        27.14982
548.22        27.35171
548.66        27.49878
549.10         27.6195
549.53        27.71583
549.97        27.81664
550.41        27.89177
550.84        27.97836
551.28         28.1709
551.72         28.4392
552.15        28.61396
552.59        28.93937
553.03         28.8252
553.46        29.20806
553.90        29.31532
554.34        29.40127
554.77        29.53491
555.21        29.61079
555.65        29.74165
556.08        29.88002
556.52        30.00874
556.96        30.11288
557.39        30.25301
557.83          30.404
558.27        30.39598
558.70        30.26629
559.14        30.25735
559.57        30.36554
560.01        30.43697
560.45        30.47219
560.88        30.56701
561.32         30.7341
561.75         30.9101
562.19        31.08149
562.63         31.2213
563.06        31.31517
563.50        31.37577
563.93        31.39194
564.37        31.42869
564.80        31.50861
565.24        31.54406
565.68        31.47601
566.11        31.89586
566.55        31.66009
566.98        31.72438
567.42        31.81021
567.85         31.9758
568.29        32.23306
568.72        32.58218
569.16        33.00374
569.60        33.26651
570.03        33.46903
570.47        33.62963
570.90         33.8197
571.34        33.72541
571.77        34.06392
572.21        34.25776
572.64         34.4186
573.08        34.66997
573.51        34.51073
573.95        34.65076
574.38        34.95489
574.82        35.28726
