SpectraSmart Spectrum 2.9.0.0
--------- Device Information -----------
Spectrum Name :  反射率_0
Saving Time :  2024/04/27 00:19:36
Spectro-Module Model Name : SE2030-DUVN
Spectro-Module Serial Number : OS361AC55029948
Wavelength Start : 200
Wavelength End : 1025
Wavelength Unit : Wavelength(nm)
Spectrum Unit : Reflectance(%)
-----------Spectrum Setting ------------
Integration Time : 20ms
Average : 10
Boxcar : 0
Background removal :  enabled
linearity correction :  enabled
SC :  disabled
Intensity correction :  disabled
DWT denoise :  enabled
savitzky-golay :  disabled
FFT :  disabled
Running average :  disabled
Kalman :  disabled
High pass :  disabled
---------------BEGIN--------------------
Wavelength(nm)             Reflectance(%)
200.29               0
200.75        33.49763
201.21        34.81276
201.67        36.07695
202.13        36.09722
202.58        34.55149
203.04        32.16115
203.50        28.82973
203.96        24.78734
204.42        20.76081
204.88        16.62111
205.34        13.80764
205.80        14.33178
206.26        17.89502
206.72        23.46213
207.18        28.09309
207.64        29.23168
208.10        26.84923
208.55        20.87083
209.01        12.57307
209.47        10.85431
209.93        18.60777
210.39        29.12863
210.85        37.46935
211.31        42.84682
211.77        46.95374
212.23        51.92606
212.69        61.11696
213.14        76.06406
213.60        73.41037
214.06        61.76894
214.52        53.44548
214.98        47.87447
215.44        42.95929
215.90        37.71277
216.36        33.41412
216.81        32.25137
217.27        35.52976
217.73        44.51435
218.19        57.95185
218.65        64.55125
219.11        59.40633
219.57        49.47823
220.02        43.35359
220.48        46.25477
220.94        58.32095
221.40        81.27538
221.86        114.4475
222.32        136.2163
222.77        127.9608
223.23        104.1248
223.69         81.2332
224.15        68.65765
224.61        64.54901
225.06        64.20835
225.52        65.81174
225.98        67.51394
226.44        68.90587
226.90        70.72553
227.36        72.73046
227.81        74.11275
228.27        74.79353
228.73        74.66309
229.19        74.33207
229.65        74.69516
230.10        75.78412
230.56        77.41251
231.02        78.86298
231.48        79.02776
231.93        77.75783
232.39        75.91291
232.85        74.19209
233.31        73.57463
233.77        74.12632
234.22        75.44394
234.68        77.07643
235.14        78.43518
235.60        79.26363
236.05        79.79608
236.51        79.73936
236.97         78.7369
237.43         76.7696
237.88        73.97691
238.34        70.93604
238.80         68.8416
239.26        68.05016
239.71         68.8537
240.17        70.57293
240.63        71.81616
241.08         71.8051
241.54        70.23801
242.00        68.37585
242.46        68.74609
242.91        73.03289
243.37        81.41123
243.83        93.73117
244.28        102.7197
244.74        98.70971
245.20        83.66629
245.66        65.95625
246.11        51.20502
246.57        39.75129
247.03        29.36968
247.48         22.1888
247.94        22.34245
248.40         28.2321
248.85        36.06793
249.31        42.39713
249.77        44.83174
250.22        43.56629
250.68        38.90359
251.14        32.39011
251.59        29.81991
252.05        34.36509
252.51        43.48083
252.96        51.43847
253.42        53.44709
253.88         50.4347
254.33        44.74696
254.79        40.92205
255.25        42.80715
255.70        49.91252
256.16        60.39803
256.62        69.62192
257.07         70.6631
257.53        65.16112
257.99        57.60248
258.44        51.52982
258.90         49.8341
259.35        51.29132
259.81        54.51966
260.27        57.73027
260.72        58.76048
261.18        57.75871
261.63        55.59129
262.09        53.58229
262.55        52.61087
263.00        52.59921
263.46        53.20347
263.91         53.7561
264.37        53.73995
264.83        53.06874
265.28          51.994
265.74        51.05089
266.19        50.58033
266.65        50.69818
267.11        51.14936
267.56         51.6593
268.02        51.80872
268.47        51.47932
268.93        50.84407
269.38        50.04241
269.84        49.35069
270.30        48.82537
270.75        48.35769
271.21        47.93893
271.66         47.4968
272.12        47.01241
272.57        46.49686
273.03        45.91391
273.48        45.17629
273.94        44.34515
274.39        43.42067
274.85        42.55813
275.31        41.81635
275.76        41.18498
276.22        40.68494
276.67        40.23636
277.13        39.83479
277.58        39.40285
278.04        38.96872
278.49        38.47079
278.95        37.95636
279.40         37.3737
279.86        36.79883
280.31        36.15771
280.77        35.46955
281.22        34.71364
281.68          33.984
282.13        33.31939
282.59         32.8713
283.04        32.60543
283.50        32.47913
283.95        32.40351
284.41         32.2625
284.86        32.00723
285.32        31.69714
285.77        31.31469
286.22        30.90053
286.68        30.47482
287.13         29.9997
287.59        29.53299
288.04        29.11884
288.50        28.79336
288.95         28.5162
289.41        28.26779
289.86        27.94303
290.32        27.56074
290.77        27.13988
291.22        26.73688
291.68        26.41881
292.13        26.19254
292.59        26.04937
293.04        25.97858
293.50        25.98904
293.95        26.06174
294.40        26.19387
294.86        26.35871
295.31        26.50328
295.77        26.62408
296.22        26.73172
296.68        26.84776
297.13        26.99259
297.58        27.18468
298.04           27.42
298.49        27.71199
298.95        28.09773
299.40        28.56171
299.85        29.07991
300.31         29.6006
300.76        30.03788
301.21        30.36901
301.67        30.62589
302.12        30.80971
302.58        30.98024
303.03        31.13706
303.48        31.29204
303.94        31.46225
304.39        31.64292
304.84        31.84257
305.30        32.06664
305.75        32.29439
306.20        32.54161
306.66        32.80664
307.11        33.06657
307.57        33.28925
308.02        33.38465
308.47        33.35565
308.93        33.23771
309.38         33.0925
309.83        33.06121
310.29        33.16768
310.74         33.3618
311.19         33.5591
311.65        33.61473
312.10        33.48979
312.55        33.23649
313.00        32.93324
313.46        32.69356
313.91        32.53931
314.36        32.44666
314.82        32.37621
315.27        32.27658
315.72        32.12881
316.18        31.95872
316.63        31.78727
317.08        31.65797
317.53        31.57514
317.99        31.51473
318.44        31.44184
318.89         31.2931
319.35        31.05724
319.80        30.75731
320.25        30.43964
320.70        30.17723
321.16        29.98957
321.61        29.86943
322.06        29.78008
322.51        29.66202
322.97        29.49366
323.42        29.29272
323.87        29.09835
324.32        28.97975
324.78        28.93691
325.23        28.95976
325.68        28.96131
326.13        28.80789
326.59        28.47484
327.04        28.02245
327.49        27.55563
327.94        27.23833
328.39        27.10942
328.85        27.11277
329.30        27.19724
329.75        27.21429
330.20        27.11366
330.66        26.92816
331.11        26.71793
331.56        26.55819
332.01        26.47088
332.46        26.42371
332.92        26.36155
333.37        26.24207
333.82        26.03855
334.27        25.78016
334.72         25.5189
335.17        25.33115
335.63        25.23996
336.08        25.24446
336.53          25.298
336.98        25.33204
337.43         25.3218
337.88        25.26895
338.34        25.22002
338.79        25.28153
339.24        25.45677
339.69        25.71393
340.14        25.92922
340.59        25.90921
341.05        25.63485
341.50        25.17642
341.95        24.70859
342.40        24.49615
342.85        24.59713
343.30        24.92661
343.75        25.34276
344.20        25.61026
344.66        25.65866
345.11        25.55624
345.56        25.37895
346.01        25.24895
346.46        25.20957
346.91        25.21908
347.36        25.25213
347.81        25.27869
348.26        25.28614
348.72        25.29046
349.17        25.30011
349.62        25.33219
350.07        25.38789
350.52        25.46193
350.97        25.51415
351.42        25.48607
351.87        25.37033
352.32        25.18305
352.77        24.99625
353.22        24.91553
353.67          24.957
354.13        25.09319
354.58        25.23119
355.03        25.21874
355.48        25.02511
355.93        24.70336
356.38        24.36773
356.83        24.18771
357.28        24.19678
357.73        24.33892
358.18        24.51235
358.63         24.5521
359.08         24.4139
359.53        24.15066
359.98        23.84484
360.43         23.6176
360.88        23.49605
361.33        23.43802
361.78        23.38555
362.23        23.25033
362.68        23.01755
363.13        22.73173
363.58        22.44399
364.03        22.22559
364.48         22.0957
364.93        22.02614
365.38         21.9983
365.83        21.98459
366.28        21.96639
366.73         21.9464
367.18        21.90401
367.63        21.80793
368.08         21.6532
368.53        21.44618
368.98        21.21254
369.43        20.99568
369.88        20.81179
370.33        20.65855
370.78        20.52529
371.23        20.39051
371.68        20.25204
372.13        20.11959
372.58        20.01364
373.03        19.96415
373.48        19.96878
373.93        20.00497
374.38        20.03614
374.83         20.0082
375.28        19.90646
375.72        19.74461
376.17        19.55225
376.62        19.34986
377.07        19.15261
377.52        18.95843
377.97        18.78706
378.42        18.67245
378.87        18.61767
379.32        18.60907
379.77         18.6195
380.22        18.60408
380.67        18.54956
381.11        18.47515
381.56        18.37006
382.01        18.24254
382.46        18.10816
382.91        17.97034
383.36        17.86286
383.81        17.83304
384.26        17.87959
384.71        17.98243
385.15        18.09417
385.60        18.13656
386.05        18.08616
386.50        17.96828
386.95        17.81021
387.40          17.658
387.85        17.53193
388.29        17.41082
388.74        17.32153
389.19        17.25988
389.64        17.21977
390.09        17.19785
390.54        17.17686
390.98        17.12191
391.43        17.03842
391.88        16.93761
392.33        16.83131
392.78        16.73677
393.23        16.66011
393.67        16.58681
394.12        16.54017
394.57        16.52227
395.02        16.52802
395.47        16.54697
395.91        16.56166
396.36        16.53201
396.81        16.46101
397.26         16.3675
397.71        16.26018
398.15         16.1622
398.60        16.10136
399.05         16.0029
399.50          15.901
399.95        15.96209
400.39        16.13476
400.84        16.12457
401.29        15.92823
401.74        15.79224
402.18        15.73006
402.63        15.58824
403.08        15.41042
403.53        15.33458
403.97        15.37478
404.42        15.49288
404.87        15.63187
405.32        15.69692
405.76        15.66141
406.21        15.56075
406.66        15.44385
407.11         15.3901
407.55        15.42221
408.00        15.50596
408.45        15.60051
408.90        15.62709
409.34        15.56406
409.79        15.44667
410.24        15.31584
410.68         15.2208
411.13        15.17986
411.58         15.1744
412.03        15.19188
412.47        15.21365
412.92        15.22388
413.37        15.23218
413.81        15.23509
414.26        15.23973
414.71        15.24297
415.15        15.24719
415.60        15.24458
416.05        15.23755
416.49        15.22964
416.94        15.21939
417.39        15.21791
417.83        15.24061
418.28        15.28634
418.73        15.34522
419.17        15.40152
419.62         15.4305
420.07        15.42511
420.51        15.39023
420.96        15.33388
421.41        15.26572
421.85        15.18868
422.30        15.10014
422.74        15.00582
423.19        14.98146
423.64        15.00564
424.08         14.9824
424.53        14.91346
424.98        14.91745
425.42        15.00663
425.87        15.07684
426.31        15.11149
426.76        15.19772
427.21        15.28466
427.65        15.16453
428.10        14.91818
428.54        14.82783
428.99        14.92391
429.44        15.12093
429.88        15.32436
430.33        15.32793
430.77        15.16071
431.22        15.13134
431.66        15.25829
432.11        15.30772
432.56        15.28761
433.00        15.39438
433.45        15.53123
433.89        15.41572
434.34        15.14819
434.78         14.6872
435.23        14.90456
435.67        14.88937
436.12        14.86252
436.57        14.84482
437.01        14.84134
437.46        14.86712
437.90        14.90709
438.35        14.91508
438.79        14.88534
439.24        14.86031
439.68        14.84439
440.13        14.82359
440.57        14.80288
441.02        14.80991
441.46         14.8445
441.91        14.85741
442.35        14.84405
442.80        14.94571
443.24        15.09562
443.69        15.04288
444.13         14.8239
444.58        14.73267
445.02        14.78543
445.47        14.82953
445.91        14.84815
446.36        14.88797
446.80        14.93861
447.24        14.98654
447.69        15.03143
448.13        15.06513
448.58        15.08882
449.02         15.1032
449.47        15.10568
449.91        15.08536
450.36        15.04893
450.80        14.99917
451.25         14.9597
451.69        14.95719
452.13        14.99653
452.58        15.06419
453.02        15.13688
453.47        15.17881
453.91        15.17967
454.36        15.15415
454.80        15.10569
455.24        15.03973
455.69        14.96915
456.13        14.88326
456.58        14.81824
457.02        14.80435
457.46        14.85015
457.91         14.9439
458.35         15.0348
458.79        15.04405
459.24        14.97174
459.68        14.83651
460.13        14.70599
460.57        14.64318
461.01        14.67456
461.46         14.7634
461.90        14.88697
462.34        14.99405
462.79        15.05805
463.23        15.09784
463.68        15.09897
464.12        15.04834
464.56        14.95107
465.01        14.83552
465.45        14.71251
465.89        14.63819
466.34        14.61969
466.78        14.63836
467.22        14.68866
467.67         14.7433
468.11        14.79828
468.55        14.85455
468.99        14.89792
469.44        14.90494
469.88        14.87436
470.32        14.80855
470.77        14.73995
471.21        14.72571
471.65        14.77569
472.10        14.87754
472.54        14.98682
472.98        15.03805
473.42         15.0175
473.87        14.95068
474.31        14.87072
474.75         14.8433
475.20        14.88467
475.64        14.96585
476.08        15.05652
476.52         15.1027
476.97        15.09226
477.41        15.05222
477.85        15.01015
478.29        14.98744
478.74        15.00774
479.18        15.09467
479.62        15.21794
480.06        15.30746
480.50        15.35002
480.95         15.3527
481.39        15.31964
481.83        15.40359
482.27        15.38898
482.72        15.46405
483.16        15.54451
483.60        15.58311
484.04        15.55837
484.48        15.54228
484.93        15.65958
485.37        15.64693
485.81        15.90249
486.25        16.39335
486.69        16.11929
487.14        15.84297
487.58        16.66508
488.02        16.51996
488.46        16.40965
488.90        16.57466
489.34         16.3389
489.79        16.53407
490.23        16.79307
490.67        16.98616
491.11        17.05611
491.55        17.02868
491.99        16.96617
492.43         16.9911
492.88        17.12591
493.32        17.28749
493.76        17.43631
494.20        17.56423
494.64        17.66532
495.08        17.70601
495.52        17.71484
495.96         17.8561
496.41        18.10206
496.85        18.16237
497.29        18.05979
497.73        18.25662
498.17        18.48087
498.61        18.62007
499.05        18.59058
499.49        18.60725
499.93        18.64629
500.37        18.79544
500.82        19.00961
501.26        19.16496
501.70        19.24349
502.14        19.32027
502.58        19.42108
503.02        19.54608
503.46         19.6987
503.90        19.87837
504.34        20.04274
504.78        20.12294
505.22        20.10749
505.66        20.01802
506.10        19.91689
506.54        19.90349
506.98        19.99975
507.42        20.17601
507.86        20.37402
508.30        20.49638
508.74        20.51743
509.18        20.46964
509.62         20.3967
510.06        20.36902
510.50        20.40722
510.94        20.48536
511.38        20.58323
511.82        20.66975
512.26        20.73323
512.70        20.78811
513.14        20.83197
513.58        20.85819
514.02        20.86905
514.46        20.86266
514.90        20.85831
515.34        20.88998
515.78        20.96164
516.22        21.06164
516.66         21.1608
517.10        21.21114
517.54        21.20193
517.98        21.14968
518.42        21.07764
518.86        21.02379
519.30        21.00051
519.74        20.99592
520.18        21.00435
520.62        21.01606
521.06         21.0267
521.50        21.04295
521.93        21.05857
522.37        21.05367
522.81        21.02903
523.25        20.98607
523.69         20.9423
524.13        20.92749
524.57        20.94354
525.01         20.9766
525.45        21.00285
525.89        20.98374
526.32        20.90934
526.76        20.80249
527.20        20.67638
527.64        20.55292
528.08        20.44404
528.52        20.34475
528.96        20.27039
529.40        20.24382
529.83        20.26373
530.27        20.32342
530.71        20.38771
531.15        20.40124
531.59        20.35093
532.03        20.24973
532.46        20.12714
532.90        20.04628
533.34        20.01878
533.78        20.01729
534.22        20.01694
534.66        20.00359
535.09        19.95565
535.53        19.84245
535.97        19.69882
536.41        19.62916
536.85        19.64639
537.28        19.69941
537.72         19.7683
538.16        19.83578
538.60        19.88953
539.04        19.93723
539.47        19.96975
539.91        19.98588
540.35        19.98552
540.79        19.97029
541.22        19.96363
541.66        20.01101
542.10        20.11662
542.54        20.26795
542.97        20.42963
543.41        20.55295
543.85        20.62483
544.29        20.66472
544.72        20.69643
545.16        20.77176
545.60        20.89888
546.04        21.06348
546.47          21.254
546.91        21.44695
547.35        21.62879
547.79        21.80653
548.22        21.97232
548.66        22.10943
549.10        22.24411
549.53         22.3688
549.97        22.49651
550.41        22.59847
550.84        22.70212
551.28        22.86595
551.72        23.06017
552.15        23.25416
552.59        23.46801
553.03        23.36613
553.46        23.66041
553.90        23.75406
554.34        23.85638
554.77        23.96146
555.21        24.08048
555.65        24.21059
556.08        24.34017
556.52        24.45881
556.96        24.55169
557.39        24.66275
557.83        24.77251
558.27        24.74346
558.70        24.62335
559.14        24.63745
559.57        24.78367
560.01        24.92416
560.45        25.03069
560.88        25.13627
561.32         25.2411
561.75        25.32174
562.19         25.3928
562.63        25.43748
563.06        25.45045
563.50        25.57153
563.93         25.5513
564.37        25.63127
564.80        25.75271
565.24         25.8468
565.68        25.85098
566.11        26.23416
566.55        26.05337
566.98          26.096
567.42        26.13651
567.85        26.23203
568.29        26.39799
568.72        26.62922
569.16         26.9154
569.60        27.11272
570.03        27.31529
570.47        27.46776
570.90        27.58698
571.34        27.71145
571.77        27.88977
572.21        28.00888
572.64        28.04773
573.08        28.38456
573.51        28.40523
573.95        28.56907
574.38        28.72944
574.82        28.86965
