SpectraSmart Spectrum 2.9.0.0
--------- Device Information -----------
Spectrum Name :  反射率_0
Saving Time :  2024/04/27 00:14:55
Spectro-Module Model Name : SE2030-DUVN
Spectro-Module Serial Number : OS361AC55029948
Wavelength Start : 200
Wavelength End : 1025
Wavelength Unit : Wavelength(nm)
Spectrum Unit : Reflectance(%)
-----------Spectrum Setting ------------
Integration Time : 20ms
Average : 10
Boxcar : 0
Background removal :  enabled
linearity correction :  enabled
SC :  disabled
Intensity correction :  disabled
DWT denoise :  enabled
savitzky-golay :  disabled
FFT :  disabled
Running average :  disabled
Kalman :  disabled
High pass :  disabled
---------------BEGIN--------------------
Wavelength(nm)             Reflectance(%)
200.29               0
200.75        70.12194
201.21        64.87529
201.67        60.68712
202.13        59.72514
202.58        62.11258
203.04        68.17231
203.50        77.29976
203.96        85.37637
204.42        89.08556
204.88        88.32059
205.34         84.9747
205.80        84.06328
206.26         86.5971
206.72         89.8508
207.18        92.33105
207.64        92.95641
208.10        91.73824
208.55        90.10777
209.01        86.45635
209.47        80.39256
209.93        75.16744
210.39         72.1559
210.85        72.38574
211.31        77.17752
211.77        88.66347
212.23        115.2356
212.69        181.7503
213.14        292.9602
213.60         288.211
214.06        209.3266
214.52        156.1891
214.98        133.0471
215.44        124.1503
215.90        119.9054
216.36        119.1495
216.81        121.7614
217.27        128.0964
217.73        142.2385
218.19        162.3515
218.65        170.4583
219.11        160.4117
219.57        143.3998
220.02        132.6519
220.48        136.8931
220.94        155.7094
221.40        191.3041
221.86        243.3871
222.32        279.8667
222.77         270.924
223.23        237.8567
223.69         203.157
224.15        179.5758
224.61        166.1127
225.06        157.0884
225.52        153.2903
225.98        154.9236
226.44        161.0342
226.90        171.4207
227.36        182.6536
227.81         188.207
228.27        187.2145
228.73        181.6657
229.19         176.194
229.65          176.47
230.10        182.6349
230.56         192.705
231.02        202.6067
231.48        205.9494
231.93        201.7075
232.39        193.6556
232.85        185.2184
233.31        180.7599
233.77         180.854
234.22         183.675
234.68        187.9801
235.14        191.9427
235.60        194.7143
236.05        197.1916
236.51        198.1898
236.97        196.0194
237.43        190.3639
237.88        181.6236
238.34        171.8666
238.80        165.1058
239.26        162.5966
239.71        164.9798
240.17        170.5101
240.63        175.1193
241.08        176.3723
241.54        173.5411
242.00        170.0518
242.46        172.8893
242.91        187.1863
243.37        214.9864
243.83        256.2451
244.28        289.1513
244.74        282.6826
245.20        238.8844
245.66        189.1413
246.11        159.5616
246.57        149.8666
247.03        152.1601
247.48        156.3812
247.94        147.9811
248.40        129.8294
248.85        111.2663
249.31        98.21712
249.77        92.80937
250.22        93.74834
250.68        99.43732
251.14         108.959
251.59        117.2281
252.05         120.613
252.51        121.7258
252.96        120.8871
253.42        119.6925
253.88        118.7014
254.33        116.6303
254.79        117.5374
255.25        124.8629
255.70        137.7334
256.16        155.0192
256.62        169.4948
257.07        170.1169
257.53        160.4954
257.99        147.8239
258.44        138.0947
258.90        136.7747
259.35        141.3385
259.81         149.368
260.27        157.3408
260.72        160.8951
261.18        160.3134
261.63        156.9592
262.09        153.4673
262.55        151.2735
263.00        150.2686
263.46        150.2063
263.91        149.8651
264.37         148.703
264.83        146.5901
265.28        143.9107
265.74        141.7657
266.19        140.7056
266.65        140.9512
267.11        141.9343
267.56        143.0595
268.02         143.468
268.47        142.8508
268.93        141.5783
269.38        139.7883
269.84        137.8809
270.30         135.983
270.75        133.9581
271.21        132.0802
271.66         130.595
272.12        129.5449
272.57        128.7887
273.03         128.026
273.48         126.657
273.94        124.7297
274.39        122.3767
274.85         120.053
275.31        118.0073
275.76        116.2567
276.22        114.8271
276.67        113.5668
277.13        112.6221
277.58        111.7625
278.04        111.0058
278.49        110.0592
278.95        108.8187
279.40        107.1322
279.86        105.3032
280.31        103.2174
280.77        101.0674
281.22        98.82268
281.68        96.68452
282.13        94.78274
282.59        93.59619
283.04        92.99817
283.50        92.88686
283.95         92.8396
284.41        92.28445
284.86        91.06553
285.32        89.46289
285.77        87.70058
286.22        86.27145
286.68        85.27248
287.13        84.45699
287.59        83.74005
288.04        82.87012
288.50        81.85798
288.95        80.73314
289.41        79.58155
289.86        78.32228
290.32        77.06673
290.77        75.77692
291.22        74.58323
291.68        73.64282
292.13        72.93773
292.59        72.44647
293.04        72.08506
293.50        71.77411
293.95        71.45364
294.40        71.15151
294.86        70.85068
295.31        70.49907
295.77        70.11774
296.22        69.69558
296.68        69.30897
297.13        69.03489
297.58        68.90327
298.04        68.89188
298.49        68.93542
298.95        68.96688
299.40        68.94139
299.85        68.88101
300.31        68.81507
300.76        68.74856
301.21        68.69615
301.67        68.66818
302.12        68.60664
302.58        68.53572
303.03        68.41286
303.48        68.27994
303.94        68.17896
304.39        68.09132
304.84        68.03857
305.30        68.01867
305.75        67.98431
306.20        67.95947
306.66        67.95533
307.11        67.93915
307.57        67.89006
308.02         67.6803
308.47        67.32761
308.93         66.8833
309.38        66.43291
309.83        66.19176
310.29        66.19093
310.74        66.35323
311.19        66.53132
311.65        66.47552
312.10        66.12255
312.55        65.55878
313.00        64.93996
313.46        64.49509
313.91        64.25662
314.36         64.1667
314.82        64.11654
315.27        63.95431
315.72        63.63264
316.18        63.22542
316.63        62.79567
317.08        62.46221
317.53        62.25344
317.99        62.11915
318.44        62.01441
318.89        61.85532
319.35        61.61393
319.80         61.3121
320.25        60.98839
320.70        60.70345
321.16        60.46944
321.61        60.29269
322.06        60.11338
322.51        59.84234
322.97        59.45986
323.42        58.99972
323.87        58.57404
324.32        58.37357
324.78        58.40842
325.23        58.65466
325.68        58.90582
326.13        58.82556
326.59        58.33971
327.04        57.57954
327.49        56.76395
327.94        56.24822
328.39        56.11803
328.85         56.2382
329.30        56.52277
329.75         56.6917
330.20        56.64491
330.66         56.4583
331.11        56.20206
331.56        55.94021
332.01        55.71043
332.46        55.46959
332.92        55.22784
333.37        55.10562
333.82        55.09509
334.27        55.19981
334.72        55.34858
335.17        55.40453
335.63        55.33139
336.08        55.19185
336.53        55.06751
336.98        55.12204
337.43        55.38406
337.88        55.77274
338.34        56.18333
338.79        56.50431
339.24        56.65416
339.69        56.67704
340.14         56.5475
340.59        56.23106
341.05        55.77826
341.50        55.22023
341.95        54.71132
342.40        54.48272
342.85        54.57911
343.30        54.93054
343.75        55.40843
344.20        55.78841
344.66        55.99454
345.11        56.08132
345.56        56.07323
346.01        56.02066
346.46        55.95943
346.91        55.87175
347.36        55.80235
347.81        55.83521
348.26        55.97299
348.72        56.18254
349.17        56.40468
349.62        56.55783
350.07        56.61348
350.52        56.61018
350.97        56.50943
351.42        56.25634
351.87        55.87334
352.32        55.38773
352.77        54.95909
353.22        54.81977
353.67        54.99857
354.13        55.42502
354.58        55.90195
355.03        56.08203
355.48        55.87555
355.93        55.38309
356.38        54.80359
356.83        54.44338
357.28        54.36618
357.73        54.46148
358.18        54.57656
358.63        54.46992
359.08        54.08075
359.53        53.50881
359.98        52.86003
360.43        52.27571
360.88        51.80183
361.33        51.39698
361.78        51.03703
362.23        50.69091
362.68        50.35061
363.13        50.03685
363.58        49.75657
364.03        49.50926
364.48        49.28659
364.93        49.07253
365.38         48.8518
365.83        48.61005
366.28        48.34333
366.73        48.05667
367.18        47.75241
367.63        47.43381
368.08        47.10632
368.53        46.77443
368.98        46.45183
369.43        46.15681
369.88        45.89447
370.33        45.66243
370.78        45.44978
371.23        45.23931
371.68        45.02413
372.13        44.80301
372.58        44.58576
373.03        44.38779
373.48        44.20787
373.93        44.03914
374.38        43.85276
374.83        43.60721
375.28        43.29906
375.72        42.93449
376.17        42.58497
376.62        42.30509
377.07        42.11078
377.52        41.99101
377.97        41.89973
378.42        41.76662
378.87        41.57318
379.32        41.32757
379.77        41.09302
380.22        40.96098
380.67        40.93757
381.11        41.00782
381.56        41.03271
382.01        40.82919
382.46        40.38132
382.91        39.77959
383.36        39.20155
383.81        38.88628
384.26        38.86791
384.71        39.06388
385.15        39.34151
385.60        39.47329
386.05        39.38956
386.50        39.15759
386.95        38.85011
387.40        38.58383
387.85        38.39655
388.29        38.22246
388.74        38.08778
389.19        37.93814
389.64        37.76094
390.09        37.57273
390.54        37.38123
390.98        37.18585
391.43        37.01747
391.88        36.87424
392.33        36.75512
392.78        36.65849
393.23         36.5814
393.67        36.50132
394.12        36.46026
394.57         36.4507
395.02        36.46332
395.47         36.4782
395.91        36.47354
396.36        36.39859
396.81        36.26667
397.26        36.10852
397.71        35.93265
398.15        35.77208
398.60        35.68295
399.05        35.51105
399.50        35.32634
399.95        35.49047
400.39          35.891
400.84         35.8723
401.29        35.45234
401.74        35.22445
402.18        35.22379
402.63        35.08543
403.08        34.85149
403.53        34.74663
403.97        34.78347
404.42        34.90464
404.87        35.03349
405.32        35.04335
405.76        34.90166
406.21        34.66436
406.66        34.40989
407.11        34.26404
407.55        34.26367
408.00        34.35299
408.45        34.46446
408.90        34.46365
409.34        34.31419
409.79        34.07681
410.24        33.82207
410.68        33.63363
411.13        33.54298
411.58        33.52091
412.03        33.53982
412.47         33.5586
412.92        33.54836
413.37        33.52985
413.81        33.51192
414.26        33.54011
414.71        33.60612
415.15        33.70382
415.60        33.78608
416.05        33.81057
416.49        33.77115
416.94        33.68396
417.39        33.58559
417.83        33.52753
418.28        33.52237
418.73        33.54435
419.17        33.59228
419.62        33.66409
420.07        33.74793
420.51        33.83693
420.96        33.88781
421.41          33.826
421.85        33.63765
422.30        33.33899
422.74         33.0033
423.19         32.8828
423.64        32.95114
424.08        32.97444
424.53        32.90366
424.98        32.90675
425.42        32.98701
425.87        32.94046
426.31        32.81504
426.76        32.92475
427.21        33.19421
427.65        33.13896
428.10         32.8174
428.54        32.71299
428.99        32.86489
429.44        33.00698
429.88        33.08231
430.33         33.1405
430.77        33.14109
431.22         33.1049
431.66        33.06223
432.11        33.02253
432.56        33.01585
433.00        33.10114
433.45        33.15228
433.89         32.9912
434.34        32.75091
434.78        32.19474
435.23          32.566
435.67        32.61855
436.12        32.63862
436.57        32.52459
437.01        32.32048
437.46         32.2202
437.90        32.23438
438.35        32.22512
438.79        32.17419
439.24        32.16362
439.68         32.1828
440.13        32.20195
440.57        32.23508
441.02        32.28577
441.46        32.33396
441.91        32.43656
442.35        32.51588
442.80         32.4623
443.24        32.29216
443.69        32.23797
444.13        32.28992
444.58        32.27592
445.02        32.19001
445.47        32.14674
445.91        32.15111
446.36        32.16525
446.80         32.1798
447.24        32.20746
447.69        32.23496
448.13        32.22789
448.58        32.18929
449.02        32.12104
449.47        32.04804
449.91         31.9949
450.36        31.97978
450.80        31.98639
451.25        32.01531
451.69        32.04461
452.13        32.07107
452.58        32.08957
453.02         32.1013
453.47        32.11316
453.91        32.12403
454.36        32.13845
454.80        32.12496
455.24        32.03585
455.69        31.88037
456.13        31.65825
456.58        31.46473
457.02        31.39128
457.46        31.46503
457.91        31.65533
458.35        31.84831
458.79        31.87586
459.24        31.73252
459.68        31.45712
460.13        31.19606
460.57        31.09207
461.01        31.19796
461.46         31.4405
461.90        31.74433
462.34        31.95731
462.79        32.02065
463.23        31.99488
463.68        31.89844
464.12        31.77455
464.56        31.64357
465.01        31.53423
465.45        31.41144
465.89        31.31329
466.34        31.24207
466.78         31.1863
467.22        31.16253
467.67        31.16488
468.11        31.20691
468.55        31.27394
468.99        31.33574
469.44        31.34113
469.88        31.28474
470.32         31.1792
470.77        31.06984
471.21        31.03483
471.65        31.08882
472.10        31.21089
472.54        31.35101
472.98        31.44037
473.42         31.4589
473.87        31.43479
474.31        31.38004
474.75        31.34299
475.20        31.34153
475.64        31.34925
476.08        31.36102
476.52        31.33799
476.97         31.2734
477.41        31.22749
477.85        31.22975
478.29        31.12805
478.74        31.19373
479.18        31.30366
479.62         31.4878
480.06        31.62072
480.50        31.69131
480.95          31.715
481.39        31.67432
481.83         31.8513
482.27        31.78133
482.72          31.846
483.16        31.92399
483.60         31.9592
484.04        31.94307
484.48        32.06408
484.93        32.32761
485.37        32.03185
485.81        32.35371
486.25        32.30732
486.69        32.60512
487.14         33.0461
487.58        32.65646
488.02        33.18812
488.46         32.7802
488.90        32.70301
489.34        32.90011
489.79        33.02118
490.23        33.13099
490.67        33.11316
491.11        33.00778
491.55         32.8802
491.99        32.78703
492.43        32.78017
492.88        32.88144
493.32         33.0869
493.76        33.34713
494.20        33.57585
494.64        33.75369
495.08        33.88679
495.52        33.96894
495.96        34.09336
496.41        34.24803
496.85        34.18275
497.29         33.9586
497.73        34.23161
498.17        34.49073
498.61        34.66659
499.05        34.58604
499.49        34.54344
499.93        34.48268
500.37        34.59393
500.82        34.82108
501.26        34.98139
501.70        35.05363
502.14        35.16274
502.58        35.31686
503.02        35.45723
503.46         35.5796
503.90        35.69936
504.34        35.79752
504.78        35.84539
505.22         35.8406
505.66        35.78867
506.10        35.72944
506.54        35.72768
506.98        35.79579
507.42        35.91727
507.86        36.04605
508.30         36.1038
508.74        36.07528
509.18        35.99021
509.62        35.89614
510.06        35.86939
510.50        35.92984
510.94        36.04881
511.38        36.20021
511.82        36.34229
512.26        36.45689
512.70        36.55735
513.14        36.63384
513.58        36.67024
514.02        36.66844
514.46        36.62965
514.90        36.58456
515.34        36.58681
515.78         36.6451
516.22        36.74164
516.66        36.84134
517.10        36.88518
517.54        36.85874
517.98         36.7844
518.42        36.68125
518.86        36.58041
519.30        36.49611
519.74        36.41875
520.18        36.36107
520.62        36.34136
521.06        36.36163
521.50        36.42463
521.93        36.50082
522.37        36.52641
522.81         36.4941
523.25        36.41453
523.69         36.3377
524.13        36.34526
524.57        36.44589
525.01        36.60545
525.45        36.75613
525.89        36.78937
526.32        36.67855
526.76        36.47564
527.20        36.23436
527.64        36.04084
528.08        35.92485
528.52        35.86103
528.96        35.84377
529.40        35.86342
529.83        35.90634
530.27        35.97846
530.71        36.04685
531.15        36.06008
531.59        36.00815
532.03        35.90074
532.46        35.76588
532.90        35.67778
533.34        35.64719
533.78        35.63555
534.22         35.6216
534.66        35.61506
535.09        35.58231
535.53        35.45513
535.97        35.26572
536.41        35.15517
536.85        35.14001
537.28        35.14816
537.72        35.17556
538.16        35.24239
538.60        35.33921
539.04        35.45963
539.47        35.56957
539.91        35.63933
540.35        35.65732
540.79        35.63624
541.22        35.60728
541.66        35.63441
542.10        35.72608
542.54         35.8613
542.97        36.00862
543.41        36.13392
543.85        36.22165
544.29        36.29229
544.72        36.34579
545.16        36.40408
545.60        36.47037
546.04        36.54457
546.47        36.65102
546.91        36.82363
547.35        37.05884
547.79        37.34188
548.22        37.62769
548.66        37.83963
549.10        38.00422
549.53        38.12139
549.97        38.21546
550.41        38.24331
550.84         38.2597
551.28          38.363
551.72         38.5135
552.15        38.67833
552.59         38.8981
553.03        38.61848
553.46        39.01664
553.90        39.10051
554.34        39.21291
554.77        39.34594
555.21        39.51044
555.65        39.69165
556.08        39.86636
556.52        40.01277
556.96        40.11671
557.39        40.26708
557.83        40.43172
558.27        40.38088
558.70        40.16721
559.14        40.11922
559.57        40.23099
560.01        40.29638
560.45        40.30799
560.88        40.37672
561.32        40.51751
561.75        40.65954
562.19        40.79251
562.63        40.88153
563.06        40.91925
563.50         40.9437
563.93        40.93938
564.37         40.9702
564.80        41.06024
565.24        41.10267
565.68        41.01383
566.11        41.54749
566.55        41.21122
566.98        41.25624
567.42        41.31104
567.85        41.44351
568.29         41.6663
568.72        41.97317
569.16        42.38261
569.60        42.64001
570.03        42.88168
570.47        43.17305
570.90        43.53777
571.34        43.25807
571.77        43.56178
572.21        43.45352
572.64        43.36457
573.08         43.4391
573.51        43.68652
573.95        43.96008
574.38        44.29618
574.82        44.23884
