SpectraSmart Spectrum 2.9.0.0
--------- Device Information -----------
Spectrum Name :  反射率_0
Saving Time :  2024/04/27 00:20:12
Spectro-Module Model Name : SE2030-DUVN
Spectro-Module Serial Number : OS361AC55029948
Wavelength Start : 200
Wavelength End : 1025
Wavelength Unit : Wavelength(nm)
Spectrum Unit : Reflectance(%)
-----------Spectrum Setting ------------
Integration Time : 20ms
Average : 10
Boxcar : 0
Background removal :  enabled
linearity correction :  enabled
SC :  disabled
Intensity correction :  disabled
DWT denoise :  enabled
savitzky-golay :  disabled
FFT :  disabled
Running average :  disabled
Kalman :  disabled
High pass :  disabled
---------------BEGIN--------------------
Wavelength(nm)             Reflectance(%)
200.29               0
200.75        40.10113
201.21         38.5494
201.67        36.93663
202.13        36.17737
202.58        36.31107
203.04        37.61678
203.50        39.87691
203.96        41.80472
204.42        42.50757
204.88        41.90607
205.34        41.24327
205.80        42.96044
206.26        46.96473
206.72        51.52202
207.18        54.80716
207.64         55.4788
208.10        53.55323
208.55        49.42558
209.01        42.69475
209.47        37.42122
209.93        37.20893
210.39        40.01783
210.85        43.41092
211.31        46.66977
211.77        50.83121
212.23        58.85816
212.69        78.71619
213.14        116.5848
213.60        122.2203
214.06        101.1968
214.52        84.84142
214.98        76.71929
215.44         72.3979
215.90        68.59048
216.36        65.88656
216.81        65.65227
217.27        68.75455
217.73        77.30423
218.19        89.24717
218.65        91.78548
219.11        81.99529
219.57        68.69276
220.02        61.21284
220.48        65.04651
220.94        80.05527
221.40        108.3853
221.86        149.3917
222.32        176.7086
222.77        167.2795
223.23        138.7368
223.69        110.4078
224.15        93.25605
224.61        85.54813
225.06        81.92868
225.52         81.5445
225.98        83.47449
226.44        87.02867
226.90        92.61489
227.36        98.25413
227.81        100.1665
228.27        98.08081
228.73        93.22367
229.19        88.68089
229.65        88.16373
230.10        91.74732
230.56        98.13779
231.02        104.6065
231.48        106.8205
231.93        104.0527
232.39         98.6534
232.85        93.03772
233.31        90.29112
233.77        90.76228
234.22        93.22709
234.68        96.42072
235.14        98.48247
235.60        98.74978
236.05        97.93591
236.51        96.05958
236.97        93.48999
237.43        90.64214
237.88        87.47459
238.34        84.59309
238.80        83.30009
239.26        84.02767
239.71         87.4651
240.17        92.85206
240.63        98.02683
241.08        101.5278
241.54        102.4926
242.00        102.7653
242.46        106.8974
242.91        118.3984
243.37        138.7781
243.83        168.4284
244.28        193.1916
244.74        191.8834
245.20        165.0515
245.66        132.3214
246.11        110.2711
246.57        99.38454
247.03        94.83157
247.48        92.08646
247.94        85.43319
248.40        76.39124
248.85        68.42852
249.31        63.36447
249.77        61.38804
250.22        61.78762
250.68        63.99554
251.14         67.6078
251.59        70.74821
252.05        72.14737
252.51        72.66908
252.96        72.18547
253.42        71.23554
253.88        70.14178
254.33        68.56741
254.79        68.50336
255.25        71.36933
255.70        76.76752
256.16        84.11782
256.62        90.45237
257.07        91.17907
257.53        87.66076
257.99        82.66647
258.44        78.47679
258.90        77.47092
259.35        78.53703
259.81        80.94285
260.27        83.26345
260.72         83.8233
261.18        82.88829
261.63         80.8998
262.09        79.13227
262.55        78.24789
263.00        78.10113
263.46        78.53632
263.91        78.75745
264.37        78.23574
264.83        76.90974
265.28        75.06737
265.74        73.46704
266.19        72.61847
266.65        72.66323
267.11        73.22479
267.56        73.87714
268.02        73.97189
268.47        73.32236
268.93        72.20728
269.38        70.81075
269.84        69.50219
270.30        68.38474
270.75        67.32524
271.21        66.40803
271.66        65.67673
272.12        65.11828
272.57        64.68926
273.03        64.21906
273.48        63.38464
273.94        62.21754
274.39        60.78456
274.85         59.3729
275.31        58.17674
275.76        57.21474
276.22         56.4812
276.67        55.84407
277.13        55.28305
277.58        54.67157
278.04         54.0416
278.49        53.32219
278.95        52.57967
279.40        51.75234
279.86        50.96441
280.31        50.05471
280.77        48.96886
281.22        47.68787
281.68        46.36698
282.13        45.21441
282.59        44.65548
283.04        44.65122
283.50        45.07534
283.95        45.56768
284.41        45.58786
284.86        45.00316
285.32        44.03802
285.77        42.95035
286.22        42.19806
286.68         41.8695
287.13        41.76239
287.59        41.73493
288.04        41.50841
288.50         41.0555
288.95        40.45576
289.41        39.81515
289.86         39.1781
290.32         38.6244
290.77        38.09962
291.22        37.66165
291.68        37.38155
292.13        37.24731
292.59        37.27002
293.04        37.37632
293.50        37.47174
293.95        37.52396
294.40        37.56286
294.86        37.65818
295.31        37.90997
295.77        38.34188
296.22        38.89592
296.68        39.50224
297.13        40.03327
297.58        40.46469
298.04        40.83587
298.49        41.18866
298.95        41.61339
299.40         42.1184
299.85        42.67006
300.31        43.23641
300.76        43.75366
301.21         44.2058
301.67        44.62329
302.12        44.98521
302.58          45.332
303.03        45.63923
303.48        45.92249
303.94        46.19318
304.39        46.42197
304.84        46.62444
305.30         46.8171
305.75         46.9891
306.20        47.18897
306.66        47.43296
307.11        47.69118
307.57        47.93505
308.02        48.05537
308.47        48.05433
308.93        47.96718
309.38        47.86011
309.83        47.89896
310.29        48.10512
310.74        48.41673
311.19        48.70279
311.65        48.74434
312.10         48.4912
312.55        48.02181
313.00        47.48934
313.46        47.11971
313.91        46.95091
314.36        46.92767
314.82        46.94228
315.27         46.8335
315.72        46.55609
316.18        46.18497
316.63        45.79075
317.08        45.49684
317.53        45.33278
317.99        45.24519
318.44        45.19109
318.89        45.09324
319.35        44.92246
319.80        44.69891
320.25         44.4408
320.70        44.17631
321.16        43.91332
321.61        43.65915
322.06        43.39104
322.51        43.08092
322.97        42.72325
323.42        42.33434
323.87        41.97506
324.32        41.74625
324.78        41.64813
325.23        41.67812
325.68        41.70194
326.13        41.50572
326.59        41.04513
327.04        40.39788
327.49        39.72816
327.94        39.30019
328.39        39.16822
328.85        39.23841
329.30        39.39604
329.75        39.35169
330.20         39.0266
330.66         38.5122
331.11        37.95801
331.56        37.56796
332.01        37.40423
332.46        37.38744
332.92        37.44241
333.37        37.50489
333.82        37.50939
334.27        37.49037
334.72         37.4179
335.17         37.2355
335.63        36.94268
336.08        36.57332
336.53        36.20459
336.98        35.98703
337.43        35.95644
337.88        36.06358
338.34        36.24014
338.79        36.39955
339.24        36.47876
339.69        36.50351
340.14        36.43843
340.59        36.23224
341.05        35.90934
341.50        35.49388
341.95        35.09107
342.40         34.8633
342.85        34.84743
343.30        34.99537
343.75        35.23837
344.20        35.45662
344.66        35.60183
345.11        35.69468
345.56        35.72552
346.01        35.68621
346.46        35.58832
346.91        35.43465
347.36        35.25999
347.81        35.12785
348.26        35.05373
348.72        35.02323
349.17          35.022
349.62        35.03537
350.07        35.05162
350.52        35.08122
350.97        35.08112
351.42        34.98391
351.87        34.78534
352.32        34.50398
352.77        34.22754
353.22        34.08591
353.67        34.09926
354.13        34.23293
354.58        34.38445
355.03         34.3796
355.48        34.18121
355.93        33.84801
356.38        33.49776
356.83        33.30868
357.28        33.30977
357.73        33.42679
358.18        33.55908
358.63          33.546
359.08        33.34354
359.53         33.0177
359.98        32.61522
360.43        32.19815
360.88        31.79925
361.33        31.40327
361.78        31.05188
362.23        30.81544
362.68        30.70372
363.13        30.70153
363.58        30.73781
364.03        30.69398
364.48        30.53642
364.93          30.286
365.38        29.99891
365.83        29.77608
366.28        29.64313
366.73        29.56829
367.18        29.49233
367.63        29.32418
368.08         29.0466
368.53        28.69576
368.98        28.33633
369.43        28.06519
369.88        27.90738
370.33        27.83461
370.78        27.79123
371.23        27.68686
371.68        27.49539
372.13        27.24137
372.58        26.97612
373.03        26.77992
373.48        26.66929
373.93        26.61586
374.38        26.56293
374.83         26.4238
375.28        26.18325
375.72        25.87063
376.17        25.56231
376.62        25.33786
377.07        25.21803
377.52        25.17675
377.97        25.17288
378.42        25.14314
378.87        25.06628
379.32        24.95539
379.77        24.84021
380.22        24.76281
380.67        24.72769
381.11        24.72678
381.56        24.69955
382.01          24.577
382.46        24.35645
382.91         24.0771
383.36        23.81339
383.81        23.66363
384.26        23.63914
384.71        23.70275
385.15        23.79628
385.60        23.82401
386.05         23.7548
386.50        23.61785
386.95        23.43928
387.40        23.26211
387.85        23.10591
388.29        22.94632
388.74        22.81513
389.19        22.70061
389.64        22.59956
390.09        22.51457
390.54        22.44124
390.98        22.36423
391.43        22.29586
391.88        22.23653
392.33        22.18894
392.78        22.15829
393.23        22.14203
393.67        22.12106
394.12         22.1158
394.57        22.11441
395.02        22.11148
395.47        22.10156
395.91        22.07479
396.36        22.00404
396.81        21.90253
397.26        21.78732
397.71        21.67392
398.15        21.59704
398.60        21.58738
399.05         21.5418
399.50        21.48036
399.95        21.59118
400.39        21.80068
400.84        21.72097
401.29        21.38128
401.74        21.17093
402.18         21.1219
402.63         21.0085
403.08        20.85756
403.53        20.80385
403.97        20.85204
404.42        20.96927
404.87        21.09325
405.32        21.11997
405.76        21.02457
406.21        20.84711
406.66        20.65869
407.11        20.57364
407.55         20.6236
408.00        20.76656
408.45        20.93438
408.90        20.99538
409.34        20.91145
409.79        20.72987
410.24        20.52905
410.68         20.4124
411.13        20.40853
411.58        20.48463
412.03        20.58078
412.47        20.59665
412.92        20.50046
413.37         20.3368
413.81         20.1691
414.26        20.10317
414.71        20.15026
415.15        20.28226
415.60        20.43362
416.05        20.50963
416.49        20.48174
416.94         20.3793
417.39        20.25094
417.83         20.1687
418.28        20.15266
418.73        20.17632
419.17        20.22102
419.62        20.25874
420.07        20.27774
420.51        20.28463
420.96        20.28087
421.41        20.26075
421.85        20.21997
422.30        20.15394
422.74         20.0668
423.19        20.05729
423.64        20.09823
424.08        20.05968
424.53        19.95215
424.98         19.9482
425.42        20.06659
425.87        20.16343
426.31         20.2086
426.76        20.30342
427.21        20.37703
427.65        20.16124
428.10        19.76912
428.54        19.58194
428.99        19.64486
429.44        19.84364
429.88        20.06696
430.33        20.06223
430.77        19.86729
431.22        19.88229
431.66        20.10933
432.11        20.20493
432.56        20.17139
433.00        20.27824
433.45        20.42185
433.89         20.2811
434.34        19.99313
434.78        19.47246
435.23        19.85228
435.67        19.89445
436.12        19.88327
436.57         19.8657
437.01        19.83417
437.46        19.78472
437.90        19.70634
438.35        19.55026
438.79         19.3763
439.24         19.3395
439.68        19.45683
440.13        19.67911
440.57        19.92645
441.02        20.08334
441.46         20.1109
441.91        19.99591
442.35        19.80917
442.80        19.84477
443.24        20.03616
443.69        20.01367
444.13        19.79615
444.58        19.72918
445.02        19.81793
445.47        19.87494
445.91        19.87912
446.36         19.8911
446.80        19.90155
447.24        19.89335
447.69        19.87557
448.13        19.85626
448.58        19.84226
449.02        19.82925
449.47        19.81581
449.91        19.78783
450.36        19.75032
450.80        19.70607
451.25        19.66838
451.69        19.64313
452.13        19.63494
452.58        19.63659
453.02        19.64386
453.47        19.65352
453.91        19.66138
454.36        19.67014
454.80        19.66529
455.24        19.62318
455.69        19.54911
456.13        19.44019
456.58        19.34027
457.02        19.28434
457.46        19.28761
457.91        19.33646
458.35        19.38734
458.79        19.37657
459.24        19.30838
459.68        19.19419
460.13        19.09197
460.57        19.04057
461.01        19.06516
461.46        19.13306
461.90        19.23356
462.34         19.3342
462.79        19.41191
463.23        19.47896
463.68        19.50998
464.12         19.4763
464.56         19.3772
465.01        19.25276
465.45        19.11098
465.89        19.01512
466.34        18.97513
466.78        18.96902
467.22        18.99934
467.67         19.0502
468.11        19.12072
468.55        19.20427
468.99        19.27466
469.44        19.28755
469.88          19.238
470.32        19.13784
470.77        19.02375
471.21        18.96085
471.65        18.96444
472.10         19.0184
472.54        19.09452
472.98        19.15373
473.42        19.18174
473.87        19.19562
474.31        19.19003
474.75        19.17455
475.20        19.15885
475.64        19.13372
476.08        19.11034
476.52        19.09678
476.97        19.09711
477.41        19.12155
477.85         19.1732
478.29         19.2268
478.74        19.29197
479.18        19.41227
479.62        19.56278
480.06        19.67093
480.50        19.72989
480.95        19.75139
481.39        19.72177
481.83        19.80937
482.27        19.72769
482.72        19.71977
483.16        19.73039
483.60        19.74994
484.04        19.77481
484.48        19.93501
484.93        20.24137
485.37        20.09567
485.81        20.20249
486.25        20.27476
486.69        20.68779
487.14        20.47734
487.58        20.79158
488.02        21.03397
488.46        20.45131
488.90        20.69207
489.34        20.77426
489.79        20.97059
490.23        21.01459
490.67         21.2256
491.11        21.53378
491.55        21.54439
491.99        21.32704
492.43        21.28946
492.88        21.46892
493.32        21.64562
493.76        21.78163
494.20        21.92752
494.64         22.0793
495.08        22.18257
495.52        22.25268
495.96        22.45823
496.41        22.75473
496.85         22.7897
497.29        22.60957
497.73        22.81716
498.17        23.07915
498.61         23.2496
499.05        23.21478
499.49        23.22823
499.93        23.25536
500.37        23.40856
500.82        23.64287
501.26        23.82099
501.70        23.92394
502.14        24.04241
502.58        24.18562
503.02        24.31858
503.46        24.43969
503.90        24.55579
504.34        24.65509
504.78        24.71912
505.22          24.747
505.66        24.74722
506.10        24.73798
506.54        24.74866
506.98        24.78769
507.42        24.84672
507.86        24.92103
508.30        25.00053
508.74         25.0798
509.18        25.16362
509.62        25.23999
510.06        25.29025
510.50        25.31229
510.94        25.30778
511.38        25.30267
511.82         25.3401
512.26        25.42731
512.70        25.55249
513.14         25.6784
513.58        25.74351
514.02        25.73576
514.46        25.67599
514.90        25.60513
515.34        25.58941
515.78        25.64435
516.22        25.74559
516.66        25.86166
517.10        25.94263
517.54        25.97198
517.98        25.96594
518.42        25.93311
518.86        25.88717
519.30        25.83612
519.74        25.77483
520.18        25.71415
520.62        25.67129
521.06        25.65112
521.50        25.65626
521.93        25.67264
522.37        25.66529
522.81        25.63071
523.25        25.57295
523.69        25.51914
524.13        25.51311
524.57        25.55722
525.01        25.63203
525.45        25.69259
525.89        25.66754
526.32        25.54253
526.76        25.35422
527.20        25.14569
527.64        24.98594
528.08        24.89548
528.52        24.85146
528.96        24.84428
529.40        24.85714
529.83        24.87784
530.27        24.91558
530.71        24.94177
531.15        24.91255
531.59          24.822
532.03        24.67663
532.46        24.51995
532.90        24.44139
533.34        24.45189
533.78        24.51311
534.22        24.56907
534.66        24.56216
535.09        24.45963
535.53        24.23774
535.97        23.96655
536.41        23.81659
536.85        23.81639
537.28         23.8933
537.72        24.00925
538.16        24.11974
538.60        24.20139
539.04        24.26995
539.47        24.32111
539.91        24.36304
540.35        24.39693
540.79        24.41942
541.22         24.4477
541.66        24.52147
542.10        24.64273
542.54        24.80011
542.97        24.96634
543.41        25.10693
543.85        25.21008
544.29        25.29225
544.72        25.36195
545.16        25.44999
545.60        25.56135
546.04        25.69035
546.47        25.84602
546.91        26.03793
547.35        26.25822
547.79        26.50089
548.22        26.73736
548.66        26.91829
549.10        27.06758
549.53        27.18709
549.97        27.29757
550.41         27.3725
550.84        27.45112
551.28        27.60069
551.72        27.79482
552.15        28.01183
552.59        28.27555
553.03         28.1806
553.46        28.57673
553.90         28.6873
554.34        28.75176
554.77        28.85321
555.21        29.04018
555.65        28.95662
556.08        29.24788
556.52        29.36937
556.96        29.48622
557.39        29.61921
557.83        29.74422
558.27        29.69644
558.70        29.52945
559.14        29.52472
559.57        29.68207
560.01        29.83141
560.45        29.94361
560.88        30.07579
561.32        30.22801
561.75        30.33795
562.19        30.41806
562.63        30.49686
563.06        30.57315
563.50        30.63757
563.93        30.67297
564.37        30.73731
564.80        30.84678
565.24        30.91761
565.68        30.88346
566.11        31.31132
566.55        31.07601
566.98        31.11655
567.42         31.1705
567.85        31.31283
568.29         31.5585
568.72        31.90826
569.16        32.33852
569.60        32.57916
570.03        32.71392
570.47        32.85509
570.90        33.10791
571.34        32.86177
571.77        33.18139
572.21        33.57732
572.64        33.71044
573.08         33.8502
573.51        33.73113
573.95        33.98503
574.38        34.50805
574.82        34.61348
