SpectraSmart Spectrum 2.9.0.0
--------- Device Information -----------
Spectrum Name :  反射率_0
Saving Time :  2024/04/27 00:12:41
Spectro-Module Model Name : SE2030-DUVN
Spectro-Module Serial Number : OS361AC55029948
Wavelength Start : 200
Wavelength End : 1025
Wavelength Unit : Wavelength(nm)
Spectrum Unit : Reflectance(%)
-----------Spectrum Setting ------------
Integration Time : 20ms
Average : 10
Boxcar : 0
Background removal :  enabled
linearity correction :  enabled
SC :  disabled
Intensity correction :  disabled
DWT denoise :  enabled
savitzky-golay :  disabled
FFT :  disabled
Running average :  disabled
Kalman :  disabled
High pass :  disabled
---------------BEGIN--------------------
Wavelength(nm)             Reflectance(%)
200.29               0
200.75        29.86166
201.21        31.33608
201.67        32.43849
202.13        32.83804
202.58         32.5487
203.04        31.92871
203.50        31.22951
203.96        31.22524
204.42        32.36369
204.88        34.17321
205.34        36.49194
205.80        38.95411
206.26        40.94535
206.72        42.35802
207.18        42.47683
207.64        40.39731
208.10        35.99297
208.55        28.87302
209.01        19.52471
209.47        15.60427
209.93         20.6123
210.39        28.96593
210.85        36.40516
211.31        42.33229
211.77        48.68442
212.23        59.58742
212.69        82.55566
213.14         112.831
213.60        96.16575
214.06        62.89328
214.52        44.91487
214.98         39.2604
215.44        39.40705
215.90        42.31622
216.36        46.64071
216.81         50.4203
217.27        53.29877
217.73        56.82411
218.19        59.53905
218.65        56.27451
219.11        48.22611
219.57        39.91338
220.02        35.31604
220.48        36.23271
220.94        42.20362
221.40        54.38264
221.86        72.62692
222.32         85.4474
222.77         82.3598
223.23        70.58661
223.69        58.85078
224.15        52.39089
224.61        50.29774
225.06         49.9853
225.52        50.65217
225.98        51.39974
226.44        52.01902
226.90        52.93843
227.36         53.8284
227.81         53.9548
228.27        53.35962
228.73        52.11316
229.19         50.9657
229.65        50.84398
230.10        51.72844
230.56        53.35581
231.02        54.81637
231.48          54.701
231.93        52.85727
232.39         50.1896
232.85        47.68777
233.31        46.65574
233.77         47.1871
234.22         48.8166
234.68        50.79395
235.14        52.05802
235.60        52.26906
236.05        51.74771
236.51        50.74662
236.97        49.89188
237.43         49.4805
237.88        49.31983
238.34        49.33293
238.80        49.62653
239.26         50.2528
239.71        51.71777
240.17        53.56178
240.63        54.84713
241.08        55.09894
241.54        53.81593
242.00        52.71646
242.46        55.45782
242.91         64.7539
243.37        82.92171
243.83        110.5511
244.28        134.4331
244.74        135.5358
245.20        113.4641
245.66        86.14132
246.11        70.12619
246.57        65.88768
247.03        68.17428
247.48        71.78864
247.94        68.68699
248.40        60.00404
248.85        51.06042
249.31        44.24645
249.77        39.88485
250.22        37.07741
250.68        34.71058
251.14        33.16389
251.59        34.10882
252.05        38.08792
252.51        44.12618
252.96        48.93178
253.42        49.96363
253.88        47.89258
254.33        43.83168
254.79        40.97155
255.25        41.95883
255.70        46.39692
256.16         53.0478
256.62        58.71228
257.07        58.67712
257.53        54.28721
257.99        48.67866
258.44        44.14223
258.90        42.63575
259.35        43.24961
259.81        45.09945
260.27        47.04174
260.72        47.74189
261.18        47.25267
261.63        45.97148
262.09        44.73314
262.55        44.00532
263.00        43.73152
263.46        43.79198
263.91        43.69456
264.37        43.07015
264.83        41.92234
265.28        40.46202
265.74        39.23709
266.19         38.6757
266.65        38.85472
267.11        39.49968
267.56         40.2426
268.02        40.49331
268.47        40.10021
268.93        39.28475
269.38        38.25478
269.84        37.38588
270.30        36.76973
270.75        36.25957
271.21        35.84806
271.66        35.48066
272.12        35.12569
272.57        34.80925
273.03        34.41983
273.48        33.75525
273.94        32.85608
274.39        31.77202
274.85        30.76429
275.31        30.07446
275.76        29.71237
276.22        29.61134
276.67        29.57545
277.13        29.40004
277.58        28.99165
278.04        28.44078
278.49        27.80185
278.95        27.26121
279.40        26.81201
279.86        26.46029
280.31        26.08082
280.77        25.59079
281.22        24.96158
281.68        24.30004
282.13        23.69847
282.59        23.34597
283.04        23.23166
283.50        23.29608
283.95        23.41539
284.41        23.40415
284.86         23.2126
285.32        22.92454
285.77        22.60122
286.22        22.37873
286.68        22.28735
287.13        22.25348
287.59        22.25768
288.04        22.23571
288.50        22.18554
288.95         22.1053
289.41         22.0077
289.86        21.85276
290.32        21.66937
290.77        21.45597
291.22         21.2558
291.68        21.12407
292.13        21.06567
292.59        21.07992
293.04        21.15097
293.50        21.26949
293.95        21.41978
294.40        21.60954
294.86        21.82972
295.31        22.05719
295.77        22.29559
296.22        22.54556
296.68        22.82156
297.13        23.13891
297.58        23.50067
298.04        23.88927
298.49        24.30292
298.95        24.75219
299.40        25.22179
299.85        25.71286
300.31        26.16623
300.76        26.48711
301.21        26.67014
301.67        26.75567
302.12        26.83043
302.58        27.07748
303.03        27.49731
303.48         28.0381
303.94        28.58499
304.39        28.93939
304.84        29.07522
305.30        29.07465
305.75        29.00745
306.20        29.02755
306.66        29.18009
307.11        29.39856
307.57        29.65397
308.02         29.8666
308.47        30.01865
308.93        30.14161
309.38        30.22553
309.83        30.29216
310.29        30.34906
310.74        30.38294
311.19        30.38887
311.65        30.35984
312.10        30.29127
312.55        30.18408
313.00        30.06575
313.46        29.97447
313.91        29.90309
314.36        29.84888
314.82        29.76377
315.27        29.57899
315.72        29.28575
316.18        28.92282
316.63        28.54827
317.08        28.26285
317.53        28.08846
317.99        27.98925
318.44        27.92621
318.89        27.82416
319.35        27.65655
319.80        27.44127
320.25        27.19101
320.70        26.92723
321.16        26.65741
321.61        26.38301
322.06        26.09806
322.51        25.79986
322.97        25.48927
323.42        25.17697
323.87        24.89095
324.32        24.67448
324.78        24.52568
325.23         24.4483
325.68        24.37499
326.13        24.20069
326.59        23.90404
327.04        23.52224
327.49        23.14173
327.94        22.90264
328.39        22.82825
328.85        22.86377
329.30        22.93327
329.75        22.85813
330.20        22.59063
330.66        22.18637
331.11        21.74247
331.56        21.39326
332.01        21.18253
332.46        21.06876
332.92        21.00692
333.37         20.9548
333.82        20.87634
334.27        20.79284
334.72        20.70368
335.17        20.60208
335.63        20.48697
336.08        20.36418
336.53        20.23842
336.98        20.13216
337.43        20.05099
337.88        19.98555
338.34         19.9354
338.79        19.91811
339.24        19.92189
339.69        19.94117
340.14        19.93789
340.59        19.85335
341.05        19.68418
341.50        19.44647
341.95        19.19118
342.40        18.99492
342.85        18.88029
343.30        18.83127
343.75        18.81337
344.20        18.77089
344.66        18.69174
345.11        18.58742
345.56         18.4921
346.01        18.45915
346.46        18.49604
346.91        18.58143
347.36        18.66014
347.81        18.65154
348.26        18.54084
348.72        18.35509
349.17        18.15369
349.62        18.04123
350.07        18.04137
350.52        18.12465
350.97        18.22322
351.42        18.22791
351.87        18.11397
352.32        17.91759
352.77        17.70734
353.22        17.58203
353.67        17.56174
354.13        17.61683
354.58        17.68247
355.03        17.66022
355.48        17.52779
355.93        17.32112
356.38        17.10732
356.83        16.98432
357.28        16.96944
357.73        17.02526
358.18        17.09095
358.63        17.07029
359.08        16.93856
359.53        16.73061
359.98        16.49144
360.43        16.28494
360.88        16.12914
361.33        16.00419
361.78        15.89303
362.23        15.77078
362.68        15.63263
363.13        15.49348
363.58        15.36239
364.03        15.24875
364.48        15.15347
364.93        15.06775
365.38        14.99031
365.83        14.92151
366.28        14.85928
366.73        14.80439
367.18        14.74257
367.63        14.65254
368.08        14.53021
368.53        14.37766
368.98         14.2203
369.43        14.09905
369.88        14.02129
370.33        13.97815
370.78        13.93082
371.23        13.81469
371.68         13.6195
372.13         13.3691
372.58        13.12071
373.03        12.96322
373.48        12.91635
373.93        12.95157
374.38        13.01534
374.83        13.02174
375.28        12.94642
375.72        12.81133
376.17        12.66169
376.62        12.54838
377.07        12.48616
377.52        12.45795
377.97        12.44168
378.42        12.40532
378.87        12.34124
379.32        12.26072
379.77        12.18631
380.22        12.14873
380.67        12.14994
381.11        12.17921
381.56        12.19838
382.01        12.15737
382.46        12.04838
382.91        11.89633
383.36        11.73671
383.81        11.61537
384.26        11.54226
384.71        11.50375
385.15        11.48767
385.60        11.47901
386.05        11.46866
386.50        11.46227
386.95        11.45666
387.40        11.44674
387.85        11.43072
388.29        11.39884
388.74        11.36837
389.19        11.34055
389.64        11.31523
390.09        11.29014
390.54         11.2581
390.98        11.20496
391.43        11.13852
391.88        11.06493
392.33        10.99681
392.78        10.95009
393.23        10.92818
393.67        10.92201
394.12        10.93357
394.57        10.94368
395.02        10.94737
395.47        10.94291
395.91        10.94142
396.36         10.9531
396.81        10.98441
397.26        11.03007
397.71        11.06398
398.15        11.05644
398.60        11.01899
399.05        10.91795
399.50        10.79925
399.95        10.80682
400.39        10.91572
400.84        10.91952
401.29        10.80935
401.74        10.74111
402.18        10.71809
402.63        10.63759
403.08        10.53358
403.53        10.50659
403.97        10.56592
404.42        10.68235
404.87        10.79886
405.32        10.82334
405.76        10.73626
406.21        10.57344
406.66        10.40159
407.11        10.32555
407.55        10.37095
408.00        10.50046
408.45        10.65344
408.90        10.71482
409.34        10.65242
409.79        10.51164
410.24        10.34951
410.68        10.24094
411.13        10.20932
411.58        10.22659
412.03        10.27601
412.47        10.33058
412.92        10.37033
413.37        10.40632
413.81        10.42926
414.26        10.43271
414.71        10.41396
415.15        10.37393
415.60        10.32151
416.05        10.28381
416.49        10.27205
416.94        10.28338
417.39        10.30837
417.83        10.32894
418.28        10.34001
418.73        10.34536
419.17        10.35948
419.62        10.40485
420.07        10.48196
420.51        10.57577
420.96        10.66009
421.41        10.69518
421.85        10.66951
422.30        10.59406
422.74        10.49227
423.19        10.44679
423.64        10.45138
424.08        10.43412
424.53        10.38314
424.98        10.36165
425.42        10.37506
425.87         10.3593
426.31        10.32775
426.76          10.376
427.21         10.4756
427.65        10.47424
428.10        10.38891
428.54        10.35745
428.99        10.39081
429.44        10.44579
429.88        10.49754
430.33         10.4688
430.77        10.38958
431.22        10.44765
431.66        10.61936
432.11        10.67872
432.56        10.61655
433.00        10.59084
433.45        10.56898
433.89        10.42334
434.34        10.24714
434.78        9.986181
435.23        10.21191
435.67        10.27588
436.12        10.31618
436.57        10.35619
437.01         10.3924
437.46        10.42192
437.90        10.43417
438.35        10.39949
438.79        10.33208
439.24        10.28995
439.68        10.28258
440.13        10.29288
440.57        10.31438
441.02        10.34566
441.46        10.38157
441.91          10.398
442.35        10.39289
442.80        10.46596
443.24        10.57231
443.69        10.53065
444.13        10.38092
444.58        10.35479
445.02        10.46305
445.47        10.58959
445.91        10.68392
446.36         10.7202
446.80         10.6825
447.24        10.58151
447.69        10.46449
448.13         10.4002
448.58        10.40818
449.02        10.46734
449.47        10.53976
449.91        10.56005
450.36        10.51686
450.80        10.43151
451.25        10.34261
451.69         10.3035
452.13        10.32488
452.58        10.38192
453.02        10.44408
453.47        10.46546
453.91        10.43454
454.36        10.37423
454.80          10.293
455.24        10.20191
455.69        10.11534
456.13        10.02152
456.58        9.957623
457.02        9.963168
457.46        10.04195
457.91        10.17678
458.35        10.30411
458.79        10.32239
459.24        10.22586
459.68         10.0463
460.13        9.861097
460.57        9.756724
461.01        9.762929
461.46        9.840876
461.90        9.964541
462.34        10.07871
462.79         10.1562
463.23        10.21645
463.68        10.24519
464.12        10.22607
464.56        10.16117
465.01        10.06857
465.45        9.965078
465.89        9.904067
466.34         9.89271
466.78        9.915967
467.22        9.959345
467.67        9.985319
468.11        9.987442
468.55         9.97277
468.99        9.949462
469.44        9.928746
469.88        9.916049
470.32        9.907039
470.77        9.903077
471.21        9.910505
471.65        9.927366
472.10        9.952613
472.54         9.98012
472.98        10.00378
473.42        10.02142
473.87        10.03927
474.31        10.04634
474.75         10.0372
475.20        10.01531
475.64         9.97737
476.08        9.945745
476.52        9.949115
476.97         9.99197
477.41        10.07251
477.85        10.16206
478.29         10.1975
478.74        10.17678
479.18        10.14154
479.62        10.11964
480.06        10.13918
480.50        10.20899
480.95        10.30924
481.39        10.40067
481.83        10.52446
482.27        10.51884
482.72        10.53415
483.16        10.54516
483.60        10.56237
484.04        10.58517
484.48        10.66267
484.93         10.8479
485.37        10.87192
485.81        11.03385
486.25        11.34526
486.69        11.28987
487.14        11.06139
487.58        11.67579
488.02        11.51587
488.46        11.42892
488.90        11.48902
489.34         11.3692
489.79         11.5026
490.23        11.66438
490.67        11.83976
491.11         11.9592
491.55        11.89827
491.99        11.73994
492.43        11.76137
492.88        11.99342
493.32        12.27827
493.76        12.54174
494.20        12.74214
494.64         12.8582
495.08        12.87593
495.52         12.8463
495.96        12.93968
496.41        13.15106
496.85        13.25352
497.29        13.24613
497.73        13.44382
498.17        13.64122
498.61        13.76602
499.05        13.75867
499.49        13.78028
499.93        13.81469
500.37         13.9227
500.82        14.07676
501.26        14.19532
501.70        14.26769
502.14        14.35093
502.58        14.45091
503.02        14.54558
503.46        14.63445
503.90        14.72161
504.34        14.80272
504.78        14.87131
505.22         14.9259
505.66        14.96799
506.10        15.00216
506.54        15.03659
506.98        15.07476
507.42        15.11621
507.86        15.16144
508.30        15.20986
508.74        15.26157
509.18          15.318
509.62          15.378
510.06        15.43983
510.50        15.50212
510.94        15.56241
511.38        15.62233
511.82        15.68518
512.26        15.74986
512.70        15.81467
513.14        15.87029
513.58        15.90237
514.02         15.9092
514.46        15.89572
514.90        15.87667
515.34        15.87578
515.78        15.89877
516.22        15.93925
516.66         15.9837
517.10        16.00948
517.54        16.01103
517.98        15.99598
518.42        15.97431
518.86        15.96208
519.30        15.96314
519.74        15.97019
520.18        15.97858
520.62        15.98112
521.06        15.97603
521.50        15.96914
521.93        15.95851
522.37        15.93414
522.81        15.89905
523.25        15.85334
523.69        15.81287
524.13        15.80307
524.57         15.8243
525.01        15.86496
525.45        15.89772
525.89        15.87849
526.32        15.79739
526.76        15.67618
527.20        15.53719
527.64        15.41662
528.08        15.32765
528.52        15.26028
528.96        15.21551
529.40        15.19385
529.83        15.19013
530.27        15.20459
530.71        15.21791
531.15        15.19957
531.59        15.14322
532.03        15.05494
532.46        14.95292
532.90        14.87902
533.34        14.84014
533.78        14.81778
534.22        14.79561
534.66        14.76593
535.09        14.71294
535.53        14.61246
535.97        14.48813
536.41         14.4134
536.85        14.39836
537.28        14.40923
537.72        14.43402
538.16        14.46379
538.60        14.49145
539.04        14.52067
539.47        14.54973
539.91        14.58475
540.35        14.62508
540.79        14.66996
541.22        14.72157
541.66        14.78968
542.10        14.87355
542.54        14.97085
542.97        15.07589
543.41        15.18584
543.85        15.29595
544.29        15.40666
544.72        15.51504
545.16        15.62846
545.60        15.74616
546.04        15.87142
546.47        16.00397
546.91        16.13947
547.35        16.27506
547.79        16.41014
548.22         16.5505
548.66         16.7023
549.10        16.88453
549.53        17.08528
549.97         17.2868
550.41        17.41976
550.84        17.49587
551.28        17.57603
551.72         17.6663
552.15        17.79085
552.59        17.97785
553.03        17.95366
553.46        18.24936
553.90        18.38234
554.34        18.50497
554.77        18.62165
555.21        18.73943
555.65        18.85204
556.08        18.95206
556.52        19.03137
556.96        19.09009
557.39        19.18181
557.83        19.29509
558.27        19.31811
558.70        19.27453
559.14        19.31768
559.57        19.44087
560.01        19.54363
560.45        19.61435
560.88        19.69435
561.32        19.78921
561.75        19.87306
562.19        19.94878
562.63         19.9973
563.06        20.02673
563.50        20.08798
563.93        20.15825
564.37        20.21393
564.80        20.26392
565.24        20.28426
565.68        20.25046
566.11        20.55196
566.55        20.45402
566.98        20.56454
567.42        20.68859
567.85         20.8425
568.29         21.0276
568.72        21.24874
569.16        21.50209
569.60        21.66089
570.03        21.79812
570.47        21.91609
570.90        22.05306
571.34        22.06218
571.77        22.21815
572.21        22.41776
572.64        22.49469
573.08        22.65313
573.51        22.85998
573.95        22.98435
574.38          23.014
574.82        23.39955
