SpectraSmart Spectrum 2.9.0.0
--------- Device Information -----------
Spectrum Name :  反射率_0
Saving Time :  2024/04/27 00:16:47
Spectro-Module Model Name : SE2030-DUVN
Spectro-Module Serial Number : OS361AC55029948
Wavelength Start : 200
Wavelength End : 1025
Wavelength Unit : Wavelength(nm)
Spectrum Unit : Reflectance(%)
-----------Spectrum Setting ------------
Integration Time : 20ms
Average : 10
Boxcar : 0
Background removal :  enabled
linearity correction :  enabled
SC :  disabled
Intensity correction :  disabled
DWT denoise :  enabled
savitzky-golay :  disabled
FFT :  disabled
Running average :  disabled
Kalman :  disabled
High pass :  disabled
---------------BEGIN--------------------
Wavelength(nm)             Reflectance(%)
200.29               0
200.75        34.29723
201.21        34.19382
201.67        34.41264
202.13        34.20813
202.58        33.32455
203.04        32.18255
203.50        31.28957
203.96        31.83648
204.42        34.47292
204.88         38.8177
205.34        43.03006
205.80        44.08025
206.26        41.53902
206.72        36.90477
207.18        32.30086
207.64        29.21352
208.10         27.5092
208.55        26.68713
209.01         26.5727
209.47        27.36967
209.93        28.83483
210.39        30.80752
210.85        32.76923
211.31        35.17801
211.77        39.08081
212.23        46.35447
212.69        65.23441
213.14        107.1596
213.60        122.7475
214.06        107.0294
214.52        89.61045
214.98        75.68542
215.44         62.2517
215.90        46.68503
216.36        31.91686
216.81        23.46691
217.27        23.51106
217.73        32.46842
218.19        48.70014
218.65        57.56808
219.11        51.98863
219.57        41.04382
220.02        33.83846
220.48        35.38843
220.94        45.57445
221.40        65.08833
221.86        93.71987
222.32        114.1023
222.77        109.7418
223.23        91.97836
223.69        73.19005
224.15        60.41893
224.61        53.11714
225.06        48.34256
225.52         45.9642
225.98        45.88074
226.44        47.58262
226.90        50.99002
227.36        54.83259
227.81        56.68489
228.27        56.19931
228.73        54.09208
229.19        51.90017
229.65        51.48962
230.10        52.96953
230.56        55.69293
231.02        58.46571
231.48        59.42707
231.93        58.22296
232.39        55.92767
232.85        53.58401
233.31        52.55338
233.77         52.9631
234.22        54.29719
234.68        55.85589
235.14        56.67457
235.60        56.44027
236.05        55.50402
236.51        54.04311
236.97        52.53765
237.43        51.32992
237.88        50.38529
238.34        49.86361
238.80        50.22656
239.26        51.67498
239.71        54.72256
240.17        59.03048
240.63        63.51172
241.08        67.30124
241.54        69.62889
242.00        71.48904
242.46        75.71303
242.91        84.71832
243.37        99.76622
243.83        121.1465
244.28        138.7235
244.74        137.7055
245.20        118.5474
245.66        96.00282
246.11        82.74922
246.57        79.06464
247.03        80.92632
247.48        83.57037
247.94        79.75948
248.40        70.90174
248.85        61.77352
249.31        54.99363
249.77        51.09863
250.22        49.27373
250.68        48.65602
251.14        49.30458
251.59         51.3536
252.05        54.51756
252.51        58.44285
252.96        61.31913
253.42        62.13756
253.88        61.18335
254.33        58.64821
254.79        56.85616
255.25        57.50484
255.70        60.23885
256.16        64.38656
256.62        67.39745
257.07        65.71085
257.53         60.9105
257.99        55.49917
258.44        51.28456
258.90         49.9651
259.35        50.54812
259.81        52.26416
260.27        54.00258
260.72        54.46781
261.18        53.76786
261.63         52.2813
262.09        50.80721
262.55        49.72572
263.00        48.99347
263.46        48.54149
263.91        48.01274
264.37        47.25051
264.83        46.23048
265.28        45.05215
265.74        44.06873
266.19        43.43054
266.65        43.20066
267.11        43.20468
267.56        43.25665
268.02        43.06787
268.47        42.56635
268.93        41.87795
269.38        41.07765
269.84        40.33803
270.30        39.69488
270.75         39.0734
271.21        38.52801
271.66        38.08918
272.12        37.74732
272.57        37.47858
273.03        37.15142
273.48        36.54032
273.94        35.67355
274.39        34.61128
274.85        33.59814
275.31        32.84153
275.76        32.35408
276.22        32.08651
276.67        31.88953
277.13         31.6322
277.58        31.23106
278.04        30.76278
278.49        30.22441
278.95        29.72317
279.40        29.23602
279.86        28.79429
280.31        28.33376
280.77        27.86659
281.22         27.3625
281.68        26.88895
282.13        26.45315
282.59        26.13743
283.04         25.9168
283.50        25.77845
283.95        25.67057
284.41        25.52857
284.86        25.33015
285.32        25.11254
285.77        24.88393
286.22        24.71115
286.68        24.60254
287.13        24.50644
287.59        24.41017
288.04        24.25381
288.50        24.05179
288.95         23.8091
289.41        23.56097
289.86        23.29707
290.32        23.05721
290.77        22.83248
291.22        22.66636
291.68        22.61098
292.13        22.66059
292.59        22.80771
293.04        23.01229
293.50        23.22893
293.95        23.43201
294.40        23.63787
294.86         23.8513
295.31        24.07478
295.77        24.32153
296.22        24.58347
296.68        24.88287
297.13        25.24271
297.58          25.669
298.04        26.15209
298.49        26.66461
298.95        27.17685
299.40         27.6644
299.85        28.12832
300.31         28.5616
300.76        28.95094
301.21        29.29496
301.67        29.60394
302.12         29.8678
302.58        30.12555
303.03        30.36359
303.48        30.59707
303.94        30.82391
304.39        31.01094
304.84        31.16299
305.30        31.29232
305.75        31.40295
306.20        31.54981
306.66        31.74382
307.11        31.95829
307.57        32.14466
308.02         32.1876
308.47        32.08532
308.93        31.88105
309.38        31.66093
309.83        31.59961
310.29        31.72414
310.74        31.97255
311.19        32.22184
311.65        32.26722
312.10        32.05861
312.55        31.66632
313.00        31.21489
313.46        30.88833
313.91        30.71992
314.36        30.65956
314.82         30.6242
315.27        30.48991
315.72        30.22403
316.18        29.88678
316.63        29.53285
317.08        29.25278
317.53        29.06916
317.99        28.94247
318.44        28.84576
318.89        28.73004
319.35        28.57512
319.80         28.3922
320.25        28.18506
320.70        27.95919
321.16        27.71592
321.61        27.46128
322.06        27.18875
322.51        26.89447
322.97        26.58032
323.42        26.25676
323.87        25.95552
324.32        25.72779
324.78        25.57263
325.23        25.49117
325.68        25.41454
326.13        25.23449
326.59         24.9283
327.04        24.53693
327.49         24.1402
327.94        23.86714
328.39        23.74099
328.85        23.71008
329.30        23.71953
329.75        23.62586
330.20        23.39235
330.66        23.06685
331.11        22.71882
331.56        22.43874
332.01         22.2539
332.46        22.12209
332.92        22.02461
333.37        21.96837
333.82        21.92828
334.27         21.9199
334.72        21.88451
335.17        21.71921
335.63        21.41316
336.08        21.00821
336.53        20.61903
336.98        20.44831
337.43        20.53978
337.88        20.82496
338.34        21.18134
338.79        21.41517
339.24         21.4476
339.69        21.33788
340.14        21.11873
340.59        20.85274
341.05        20.58753
341.50        20.30144
341.95        20.05625
342.40        19.94885
342.85        19.99116
343.30        20.16376
343.75        20.37638
344.20        20.47125
344.66        20.41162
345.11         20.2367
345.56        20.02522
346.01        19.90937
346.46        19.92272
346.91        20.01869
347.36        20.13962
347.81        20.20042
348.26        20.17602
348.72        20.09706
349.17        19.99006
349.62        19.90461
350.07        19.85528
350.52        19.82663
350.97        19.79373
351.42        19.72065
351.87        19.60302
352.32        19.45871
352.77        19.32137
353.22        19.23567
353.67        19.20835
354.13        19.22514
354.58        19.24999
355.03        19.22976
355.48        19.15146
355.93        19.03339
356.38        18.90709
356.83        18.81963
357.28        18.77942
357.73        18.76582
358.18        18.75484
358.63        18.71062
359.08        18.62096
359.53        18.49753
359.98        18.34907
360.43        18.18534
360.88        18.01217
361.33        17.83033
361.78        17.64322
362.23        17.45845
362.68        17.28328
363.13        17.12111
363.58        16.98073
364.03        16.87162
364.48        16.79136
364.93        16.73344
365.38        16.68184
365.83        16.61167
366.28        16.51569
366.73        16.39941
367.18        16.27098
367.63        16.14474
368.08         16.0259
368.53        15.91082
368.98        15.79842
369.43        15.68722
369.88        15.57494
370.33        15.46058
370.78        15.34481
371.23        15.22851
371.68        15.11259
372.13        14.99992
372.58        14.88317
373.03        14.74963
373.48        14.59951
373.93        14.43752
374.38        14.28609
374.83        14.18129
375.28        14.12804
375.72        14.10853
376.17        14.10133
376.62        14.05546
377.07        13.96038
377.52        13.83096
377.97        13.69138
378.42         13.5833
378.87        13.51953
379.32        13.48673
379.77        13.47006
380.22        13.44686
380.67        13.40876
381.11        13.36523
381.56        13.31324
382.01         13.2625
382.46        13.21715
382.91        13.17461
383.36         13.1321
383.81        13.08493
384.26        13.03234
384.71        12.97858
385.15        12.92713
385.60        12.88862
386.05        12.86471
386.50        12.85128
386.95        12.84804
387.40          12.855
387.85        12.86762
388.29        12.87466
388.74        12.88037
389.19        12.86253
389.64        12.81898
390.09        12.75421
390.54        12.67819
390.98        12.60589
391.43        12.55184
391.88        12.51041
392.33        12.47793
392.78        12.44757
393.23        12.41721
393.67        12.38458
394.12        12.36103
394.57        12.33733
395.02        12.31191
395.47        12.28039
395.91        12.25114
396.36        12.23068
396.81        12.22759
397.26        12.24097
397.71        12.25243
398.15        12.24212
398.60         12.2231
399.05        12.15215
399.50        12.06536
399.95        12.10363
400.39        12.23429
400.84        12.22828
401.29        12.08872
401.74        12.01294
402.18        12.00943
402.63         11.9564
403.08        11.87003
403.53         11.8298
403.97        11.84083
404.42        11.88221
404.87        11.92055
405.32        11.90019
405.76        11.81076
406.21        11.67962
406.66        11.54935
407.11        11.48745
407.55        11.51091
408.00        11.59006
408.45        11.68951
408.90        11.73957
409.34        11.71594
409.79        11.64407
410.24        11.54572
410.68        11.44552
411.13        11.35868
411.58        11.27726
412.03        11.20924
412.47        11.17376
412.92        11.17091
413.37         11.1982
413.81         11.2431
414.26        11.29542
414.71        11.34508
415.15        11.39477
415.60        11.43062
416.05         11.4378
416.49        11.41625
416.94          11.372
417.39         11.3218
417.83        11.29254
418.28         11.2899
418.73        11.30237
419.17        11.33129
419.62        11.37663
420.07        11.43199
420.51        11.49503
420.96        11.53728
421.41         11.5129
421.85        11.41625
422.30        11.26292
422.74        11.09837
423.19        11.04062
423.64        11.08601
424.08        11.14693
424.53        11.18696
424.98          11.232
425.42        11.27254
425.87        11.24705
426.31        11.17889
426.76         11.1889
427.21        11.25262
427.65        11.20005
428.10        11.05517
428.54        10.97307
428.99        10.96752
429.44         10.9967
429.88        11.02814
430.33        10.96728
430.77        10.84693
431.22        10.87016
431.66        11.02282
432.11        11.08952
432.56        11.06417
433.00        11.10171
433.45        11.15969
433.89         11.0836
434.34        10.95552
434.78        10.71702
435.23        10.97364
435.67        11.01971
436.12        11.00625
436.57         10.9636
437.01        10.90823
437.46        10.87227
437.90        10.85647
438.35        10.82363
438.79        10.77445
439.24        10.74509
439.68        10.73816
440.13        10.74212
440.57         10.7549
441.02        10.78394
441.46        10.82354
441.91        10.83911
442.35        10.82456
442.80        10.87994
443.24        10.95636
443.69        10.87043
444.13         10.6608
444.58        10.55964
445.02        10.58261
445.47        10.61964
445.91         10.6406
446.36        10.64863
446.80        10.63278
447.24        10.59301
447.69        10.55944
448.13        10.57337
448.58        10.64158
449.02        10.74485
449.47        10.84329
449.91         10.8707
450.36        10.81768
450.80         10.7069
451.25        10.58192
451.69        10.50379
452.13        10.48995
452.58        10.51978
453.02        10.56922
453.47        10.60114
453.91        10.60258
454.36        10.58709
454.80        10.55846
455.24        10.51995
455.69        10.47896
456.13        10.42573
456.58        10.37815
457.02        10.34687
457.46        10.33976
457.91        10.35472
458.35        10.37175
458.79        10.35886
459.24        10.32039
459.68        10.25826
460.13        10.20948
460.57        10.20193
461.01        10.24898
461.46         10.3291
461.90        10.42195
462.34        10.48281
462.79         10.4945
463.23        10.47439
463.68        10.42863
464.12         10.3764
464.56        10.32595
465.01        10.28513
465.45        10.24703
465.89         10.2318
466.34         10.2395
466.78        10.26376
467.22        10.29765
467.67        10.31722
468.11        10.32119
468.55        10.31076
468.99        10.29206
469.44        10.27474
469.88        10.26307
470.32        10.25404
470.77        10.24962
471.21        10.25559
471.65        10.27023
472.10        10.29376
472.54        10.31743
472.98        10.33142
473.42        10.33394
473.87        10.33233
474.31        10.32386
474.75        10.31577
475.20        10.31271
475.64        10.30692
476.08        10.30759
476.52        10.32309
476.97        10.35362
477.41        10.40288
477.85        10.45615
478.29        10.47325
478.74        10.45806
479.18        10.44585
479.62        10.44986
480.06        10.47504
480.50         10.5255
480.95        10.58868
481.39        10.63974
481.83        10.74471
482.27        10.74264
482.72        10.77652
483.16         10.8091
483.60        10.83651
484.04        10.84702
484.48        10.90447
484.93        11.08079
485.37        11.08433
485.81        11.17567
486.25        11.60981
486.69        11.33678
487.14        11.07493
487.58        11.84287
488.02        11.70495
488.46         11.4101
488.90        11.46314
489.34        11.33859
489.79        11.47995
490.23        11.61035
490.67        11.79845
491.11         11.9717
491.55        11.98367
491.99        11.88441
492.43        11.89303
492.88        12.03091
493.32        12.16024
493.76        12.26048
494.20          12.374
494.64        12.49876
495.08        12.59848
495.52        12.67282
495.96        12.80509
496.41        12.96894
496.85        12.96989
497.29        12.85042
497.73         12.9772
498.17        13.16588
498.61        13.32532
499.05        13.37783
499.49        13.44711
499.93        13.50645
500.37        13.62973
500.82        13.79067
501.26        13.90902
501.70          13.976
502.14        14.04028
502.58        14.12403
503.02        14.23501
503.46        14.37457
503.90        14.53938
504.34        14.68808
504.78        14.75149
505.22        14.71876
505.66        14.61572
506.10        14.49691
506.54        14.44878
506.98        14.49432
507.42        14.60814
507.86        14.75723
508.30        14.88524
508.74        14.97112
509.18        15.03105
509.62        15.07122
510.06        15.10181
510.50        15.12874
510.94        15.14547
511.38        15.15843
511.82        15.18122
512.26        15.21711
512.70        15.26578
513.14        15.32049
513.58        15.36751
514.02        15.40284
514.46        15.42914
514.90        15.45145
515.34        15.47856
515.78        15.51164
516.22        15.54616
516.66        15.57521
517.10        15.58864
517.54        15.58448
517.98        15.56702
518.42        15.54231
518.86        15.51991
519.30        15.50282
519.74        15.48802
520.18        15.47451
520.62        15.45977
521.06        15.44343
521.50        15.42917
521.93        15.41468
522.37        15.38976
522.81        15.35617
523.25        15.31379
523.69        15.27497
524.13        15.25966
524.57        15.26787
525.01        15.29051
525.45        15.30541
525.89        15.27667
526.32        15.19761
526.76        15.08848
527.20        14.96919
527.64        14.87193
528.08         14.8074
528.52        14.76435
528.96        14.74478
529.40        14.75106
529.83        14.77726
530.27         14.8227
530.71        14.86046
531.15        14.84824
531.59        14.77935
532.03        14.66493
532.46        14.53734
532.90         14.4605
533.34        14.44487
533.78        14.46318
534.22        14.48649
534.66        14.48688
535.09        14.44375
535.53        14.34196
535.97        14.20745
536.41         14.1165
536.85        14.08296
537.28        14.07166
537.72        14.08248
538.16        14.12555
538.60        14.19527
539.04        14.28921
539.47        14.38432
539.91        14.45318
540.35        14.48883
540.79        14.50057
541.22         14.5106
541.66        14.56182
542.10        14.66059
542.54        14.79158
542.97        14.93465
543.41        15.06401
543.85        15.16906
544.29        15.26123
544.72        15.34038
545.16        15.41717
545.60        15.49432
546.04        15.57143
546.47        15.66206
546.91        15.78564
547.35        15.94082
547.79        16.11954
548.22         16.2999
548.66         16.4444
549.10        16.56567
549.53        16.66823
549.97        16.76417
550.41        16.83464
550.84        16.90434
551.28         17.0154
551.72        17.15761
552.15        17.32833
552.59        17.54393
553.03        17.54513
553.46        17.84692
553.90        17.97141
554.34         18.0696
554.77        18.14693
555.21        18.22395
555.65        18.31849
556.08        18.42815
556.52        18.53749
556.96        18.63367
557.39        18.74875
557.83        18.86468
558.27        18.87653
558.70        18.81218
559.14        18.82895
559.57        18.92486
560.01        19.00249
560.45        19.04844
560.88        19.10254
561.32        19.17165
561.75        19.22332
562.19        19.27298
562.63        19.34013
563.06        19.42384
563.50        19.52307
563.93        19.60444
564.37        19.66598
564.80        19.71348
565.24        19.70474
565.68        19.63261
566.11        19.91128
566.55         19.8346
566.98        19.98157
567.42        20.14624
567.85        20.31827
568.29        20.49469
568.72        20.68763
569.16        20.90611
569.60        21.07076
570.03        21.26431
570.47        21.42252
570.90        21.54741
571.34        21.70903
571.77        21.87269
572.21        21.99262
572.64        22.02322
573.08        22.36761
573.51        22.46621
573.95        22.59568
574.38        22.60072
574.82         22.9431
