SpectraSmart Spectrum 2.9.0.0
--------- Device Information -----------
Spectrum Name :  反射率_0
Saving Time :  2024/04/27 00:18:35
Spectro-Module Model Name : SE2030-DUVN
Spectro-Module Serial Number : OS361AC55029948
Wavelength Start : 200
Wavelength End : 1025
Wavelength Unit : Wavelength(nm)
Spectrum Unit : Reflectance(%)
-----------Spectrum Setting ------------
Integration Time : 20ms
Average : 10
Boxcar : 0
Background removal :  enabled
linearity correction :  enabled
SC :  disabled
Intensity correction :  disabled
DWT denoise :  enabled
savitzky-golay :  disabled
FFT :  disabled
Running average :  disabled
Kalman :  disabled
High pass :  disabled
---------------BEGIN--------------------
Wavelength(nm)             Reflectance(%)
200.29               0
200.75        19.01566
201.21        19.01111
201.67        19.03324
202.13        18.33334
202.58        16.64573
203.04        14.27123
203.50        11.58327
203.96        10.05931
204.42        10.83678
204.88        13.65736
205.34        17.64867
205.80        20.87998
206.26        22.38433
206.72        22.50903
207.18        21.68591
207.64        20.27053
208.10        18.23885
208.55        15.14432
209.01        10.72524
209.47        7.560038
209.93        7.735136
210.39        10.03604
210.85         12.4446
211.31        14.05992
211.77        15.33086
212.23        17.13167
212.69        22.07557
213.14        37.33229
213.60        47.80254
214.06        45.34911
214.52        40.53692
214.98        37.17555
215.44        34.48963
215.90        31.44814
216.36        28.27021
216.81        25.32967
217.27        22.98043
217.73        21.10147
218.19        19.60467
218.65        18.75546
219.11        18.94575
219.57        19.74893
220.02        21.03703
220.48        23.36802
220.94        27.11966
221.40        33.06548
221.86        40.95701
222.32        45.46335
222.77        42.37717
223.23        35.71693
223.69        29.67291
224.15        26.53038
224.61        25.71074
225.06        25.96557
225.52        26.93212
225.98        28.28042
226.44        29.90178
226.90        32.01014
227.36        34.13764
227.81        35.30325
228.27        35.41619
228.73        34.67385
229.19        33.96313
229.65         34.4103
230.10        36.03922
230.56        38.45283
231.02        40.68877
231.48        41.20321
231.93        39.78637
232.39         37.3991
232.85        34.98312
233.31        33.74553
233.77        33.83651
234.22        34.84802
234.68        36.27048
235.14         37.4641
235.60        38.17736
236.05         38.6059
236.51        38.77966
236.97        38.72132
237.43        38.47074
237.88        37.99972
238.34        37.34369
238.80        36.79197
239.26        36.45456
239.71        36.52459
240.17         36.9299
240.63        37.77085
241.08        39.15787
241.54        40.87599
242.00        43.16811
242.46         46.6573
242.91        52.19024
243.37        60.20965
243.83          70.743
244.28         78.7103
244.74        77.09335
245.20        66.83984
245.66        54.42438
246.11         44.7776
246.57        38.33797
247.03        32.98884
247.48        30.03984
247.94         31.5462
248.40        35.97811
248.85        41.18639
249.31        44.60539
249.77        43.86698
250.22        38.79144
250.68        29.18202
251.14        16.65754
251.59        9.285757
252.05         12.2993
252.51          22.311
252.96        32.76839
253.42        37.67699
253.88        37.37304
254.33        34.29543
254.79        31.85891
255.25        32.88989
255.70        37.23523
256.16         43.6105
256.62        49.21127
257.07        49.87513
257.53        46.65923
257.99        42.28641
258.44          38.818
258.90        38.08916
259.35        39.26318
259.81        41.47233
260.27        43.61877
260.72        44.38233
261.18        43.83595
261.63        42.47044
262.09        41.03439
262.55        39.91917
263.00        39.12572
263.46        38.56725
263.91        38.01297
264.37        37.39936
264.83        36.70496
265.28        35.98658
265.74        35.44305
266.19        35.07946
266.65        34.93675
267.11        34.89613
267.56        34.90771
268.02        34.89244
268.47        34.80841
268.93        34.69191
269.38        34.44361
269.84        33.96974
270.30         33.2614
270.75         32.3415
271.21         31.4322
271.66         30.8208
272.12        30.56438
272.57        30.57738
273.03         30.6083
273.48        30.24404
273.94        29.45812
274.39        28.37543
274.85        27.34447
275.31        26.73073
275.76        26.56179
276.22        26.71009
276.67        26.89931
277.13        26.80939
277.58        26.33992
278.04         25.6342
278.49        24.83773
278.95        24.25527
279.40        23.90909
279.86        23.76019
280.31         23.6217
280.77        23.31591
281.22        22.79582
281.68        22.18832
282.13        21.63502
282.59        21.38825
283.04          21.445
283.50        21.71616
283.95        22.01894
284.41          22.072
284.86        21.81402
285.32        21.37475
285.77        20.88436
286.22        20.57129
286.68        20.48426
287.13        20.51512
287.59        20.61913
288.04        20.69427
288.50        20.71991
288.95        20.71263
289.41        20.66233
289.86        20.49657
290.32         20.2475
290.77        19.92556
291.22        19.62862
291.68        19.49687
292.13        19.54781
292.59        19.75215
293.04        20.03023
293.50          20.269
293.95        20.42607
294.40        20.53644
294.86        20.64216
295.31         20.8041
295.77        21.04362
296.22         21.3309
296.68        21.63882
297.13        21.91881
297.58        22.16479
298.04        22.39598
298.49        22.64096
298.95        22.95409
299.40         23.3358
299.85        23.76378
300.31        24.19015
300.76          24.541
301.21        24.79687
301.67        24.98429
302.12        25.12311
302.58         25.2916
303.03        25.48351
303.48        25.69073
303.94         25.8801
304.39        25.97983
304.84        25.99051
305.30        25.95087
305.75        25.88948
306.20        25.89169
306.66        25.97785
307.11        26.10716
307.57        26.24683
308.02        26.31382
308.47        26.29751
308.93        26.23093
309.38        26.13359
309.83        26.07023
310.29        26.05657
310.74        26.06877
311.19        26.08197
311.65        26.05383
312.10        25.96978
312.55        25.84241
313.00         25.7028
313.46        25.59506
313.91        25.51633
314.36        25.45687
314.82        25.37795
315.27        25.22664
315.72        24.99496
316.18         24.7157
316.63        24.42752
317.08        24.19872
317.53        24.04605
317.99         23.9449
318.44        23.87833
318.89        23.80775
319.35        23.71765
319.80        23.61668
320.25        23.50057
320.70        23.36346
321.16        23.20437
321.61        23.02855
322.06         22.8427
322.51        22.66505
322.97        22.49689
323.42        22.33522
323.87        22.18475
324.32         22.0541
324.78        21.93589
325.23        21.84672
325.68        21.74102
326.13        21.54984
326.59        21.26772
327.04        20.92478
327.49         20.6072
327.94         20.4524
328.39         20.4818
328.85        20.64586
329.30        20.85566
329.75        20.90878
330.20        20.74617
330.66        20.42239
331.11        20.04293
331.56        19.76487
332.01        19.63612
332.46        19.60425
332.92        19.61389
333.37          19.603
333.82        19.53124
334.27        19.43261
334.72        19.30818
335.17          19.152
335.63        18.97132
336.08         18.7742
336.53        18.59363
336.98        18.49674
337.43        18.49632
337.88        18.57072
338.34        18.67925
338.79        18.76588
339.24         18.7995
339.69        18.79749
340.14        18.75466
340.59        18.66805
341.05        18.55393
341.50        18.41035
341.95        18.28188
342.40        18.23858
342.85        18.29237
343.30        18.42275
343.75        18.57718
344.20        18.66792
344.66        18.67127
345.11        18.60588
345.56        18.50655
346.01        18.43183
346.46        18.40201
346.91        18.40378
347.36        18.41329
347.81        18.39591
348.26        18.34529
348.72        18.27519
349.17        18.21603
349.62        18.22335
350.07         18.3036
350.52        18.43703
350.97        18.56326
351.42        18.58742
351.87        18.49163
352.32        18.30815
352.77         18.1074
353.22        17.99305
353.67        17.98805
354.13        18.06435
354.58        18.16274
355.03        18.19052
355.48        18.12239
355.93        17.98829
356.38        17.84135
356.83        17.75995
357.28        17.75815
357.73        17.80535
358.18        17.85044
358.63        17.81377
359.08        17.67845
359.53        17.47717
359.98        17.25603
360.43        17.08014
360.88        16.96576
361.33        16.89118
361.78        16.83535
362.23        16.76567
362.68        16.67342
363.13        16.57451
363.58        16.47311
364.03        16.37279
364.48        16.27526
364.93         16.1731
365.38        16.07903
365.83        16.01599
366.28        15.98687
366.73        15.98798
367.18        15.98662
367.63        15.93166
368.08        15.81328
368.53        15.64219
368.98        15.46571
369.43        15.35978
369.88        15.33939
370.33        15.38489
370.78        15.43292
371.23        15.37789
371.68        15.19831
372.13        14.92953
372.58         14.6522
373.03        14.49363
373.48        14.48213
373.93         14.5746
374.38        14.69672
374.83        14.72996
375.28        14.64186
375.72        14.46759
376.17        14.26659
376.62        14.10782
377.07        14.01322
377.52        13.96039
377.97        13.92799
378.42        13.88578
378.87        13.82459
379.32        13.75519
379.77        13.69419
380.22        13.66241
380.67        13.65949
381.11        13.67754
381.56        13.68037
382.01        13.62415
382.46        13.50522
382.91        13.34864
383.36        13.19115
383.81        13.08073
384.26         13.0261
384.71        13.00988
385.15        13.01904
385.60        13.03615
386.05        13.04823
386.50        13.06016
386.95         13.0575
387.40        13.01903
387.85        12.94566
388.29         12.8377
388.74        12.73497
389.19        12.66483
389.64        12.63154
390.09         12.6237
390.54        12.62279
390.98        12.59469
391.43        12.53975
391.88        12.46836
392.33        12.39351
392.78        12.33251
393.23        12.28969
393.67        12.25324
394.12           12.23
394.57        12.20582
395.02        12.17711
395.47        12.14302
395.91        12.11104
396.36        12.08477
396.81        12.07268
397.26        12.07361
397.71        12.07219
398.15        12.05406
398.60        12.03145
399.05        11.95837
399.50         11.8666
399.95        11.88877
400.39        11.99131
400.84        11.95358
401.29         11.7798
401.74         11.6636
402.18        11.61674
402.63        11.52341
403.08        11.41188
403.53        11.37648
403.97         11.4236
404.42        11.52596
404.87        11.63348
405.32        11.66398
405.76        11.59796
406.21        11.46669
406.66        11.32271
407.11        11.25025
407.55         11.2714
408.00         11.3539
408.45        11.45386
408.90        11.48676
409.34        11.42905
409.79        11.31624
410.24        11.18738
410.68        11.09132
411.13        11.04425
411.58        11.02406
412.03        11.02421
412.47        11.03659
412.92        11.04951
413.37        11.07233
413.81        11.08439
414.26        11.06238
414.71        11.00067
415.15        10.90447
415.60        10.80353
416.05        10.76206
416.49        10.79675
416.94        10.88861
417.39        10.99093
417.83        11.02966
418.28        10.98609
418.73        10.87943
419.17        10.75615
419.62        10.69148
420.07        10.70452
420.51        10.77046
420.96        10.84362
421.41        10.85263
421.85        10.78084
422.30        10.65225
422.74        10.51309
423.19        10.47771
423.64        10.54313
424.08        10.62288
424.53         10.6748
424.98         10.7144
425.42        10.73251
425.87        10.67546
426.31        10.58101
426.76        10.58725
427.21        10.67611
427.65        10.67874
428.10        10.60115
428.54        10.56598
428.99        10.57953
429.44        10.60871
429.88        10.62857
430.33        10.55872
430.77        10.43462
431.22         10.4473
431.66        10.58356
432.11        10.63777
432.56        10.60434
433.00        10.63343
433.45         10.6809
433.89        10.59195
434.34        10.44567
434.78        10.19008
435.23        10.40869
435.67        10.44092
436.12         10.4327
436.57        10.41146
437.01         10.3841
437.46        10.36598
437.90        10.35452
438.35         10.3176
438.79        10.26883
439.24        10.26327
439.68        10.30502
440.13         10.3731
440.57        10.44679
441.02        10.50197
441.46          10.526
441.91         10.4996
442.35        10.43221
442.80        10.43834
443.24        10.47762
443.69        10.37194
444.13        10.16293
444.58        10.07878
445.02        10.13289
445.47        10.21505
445.91        10.28844
446.36        10.34369
446.80        10.36427
447.24        10.35179
447.69        10.32806
448.13        10.32299
448.58        10.34643
449.02        10.38704
449.47        10.42612
449.91        10.43131
450.36        10.39932
450.80        10.33976
451.25        10.28076
451.69        10.25896
452.13        10.28183
452.58        10.33579
453.02        10.39119
453.47        10.40207
453.91        10.35935
454.36          10.282
454.80        10.19459
455.24        10.13466
455.69        10.11584
456.13        10.11518
456.58        10.13402
457.02        10.15833
457.46        10.18539
457.91         10.2183
458.35        10.23166
458.79        10.18561
459.24        10.08911
459.68        9.951838
460.13        9.826197
460.57        9.762766
461.01        9.779959
461.46        9.850475
461.90        9.951781
462.34        10.03345
462.79        10.07336
463.23        10.08981
463.68        10.07609
464.12        10.03021
464.56        9.958529
465.01        9.875899
465.45         9.79462
465.89         9.76075
466.34        9.777939
466.78        9.831152
467.22        9.901926
467.67        9.945543
468.11         9.95335
468.55        9.934507
468.99        9.899435
469.44        9.864109
469.88        9.837391
470.32         9.81501
470.77        9.804836
471.21        9.822634
471.65        9.867041
472.10        9.933439
472.54        10.00421
472.98        10.05533
473.42        10.07893
473.87        10.08403
474.31        10.06889
474.75        10.04267
475.20        10.01377
475.64        9.978323
476.08        9.948567
476.52        9.937219
476.97        9.947724
477.41        9.983237
477.85        10.03756
478.29        10.08358
478.74        10.12274
479.18        10.18165
479.62        10.25334
480.06        10.31125
480.50        10.35357
480.95        10.37931
481.39        10.37939
481.83        10.44248
482.27        10.41742
482.72        10.43322
483.16        10.45689
483.60        10.48348
484.04        10.50229
484.48        10.59392
484.93        10.79263
485.37        10.77202
485.81        10.81055
486.25        11.14035
486.69        10.83842
487.14        10.74531
487.58        11.43558
488.02        11.39799
488.46        11.19555
488.90        11.23712
489.34        11.03857
489.79        11.19746
490.23        11.43823
490.67        11.64647
491.11        11.75236
491.55        11.72039
491.99        11.61401
492.43        11.61881
492.88        11.75947
493.32        11.91142
493.76        12.04455
494.20         12.1818
494.64        12.31617
495.08        12.41408
495.52        12.48067
495.96        12.60942
496.41        12.77639
496.85        12.78429
497.29        12.66972
497.73          12.787
498.17        12.95338
498.61        13.08408
499.05          13.106
499.49        13.14561
499.93        13.17863
500.37        13.27323
500.82        13.41029
501.26        13.52159
501.70        13.59939
502.14        13.69183
502.58        13.79986
503.02        13.89719
503.46        13.98161
503.90        14.05955
504.34        14.12869
504.78        14.18529
505.22        14.22935
505.66         14.2615
506.10        14.28689
506.54        14.31483
506.98        14.34793
507.42        14.38445
507.86        14.42294
508.30         14.4593
508.74        14.49345
509.18        14.52994
509.62        14.56691
510.06        14.60154
510.50        14.63385
510.94        14.66118
511.38        14.69543
511.82        14.75587
512.26        14.84292
512.70        14.95024
513.14        15.04928
513.58        15.09427
514.02        15.07729
514.46        15.01279
514.90        14.93808
515.34        14.91362
515.78        14.95412
516.22        15.04146
516.66        15.14273
517.10        15.20443
517.54        15.21155
517.98        15.18059
518.42        15.13368
518.86        15.10588
519.30        15.10686
519.74        15.12364
520.18        15.14195
520.62        15.14076
521.06        15.11521
521.50        15.07527
521.93        15.03222
522.37        14.99671
522.81        14.97575
523.25        14.96375
523.69        14.95679
524.13        14.95016
524.57        14.93906
525.01        14.92135
525.45        14.89522
525.89         14.8572
526.32        14.80691
526.76          14.754
527.20        14.69275
527.64        14.61602
528.08        14.52705
528.52        14.42781
528.96        14.34657
529.40        14.32658
529.83        14.37044
530.27         14.4629
530.71        14.55424
531.15        14.56588
531.59        14.48173
532.03        14.32658
532.46        14.14875
532.90        14.03573
533.34        14.00684
533.78        14.02873
534.22        14.06737
534.66        14.08728
535.09        14.06445
535.53        13.98506
535.97        13.87693
536.41        13.81765
536.85        13.81976
537.28        13.84659
537.72        13.88581
538.16        13.92969
538.60        13.97041
539.04        14.01067
539.47        14.04862
539.91        14.08918
540.35        14.13143
540.79        14.17599
541.22        14.22106
541.66        14.27036
542.10         14.3232
542.54         14.3788
542.97        14.44343
543.41        14.53172
543.85        14.64295
544.29        14.77504
544.72        14.90694
545.16        15.01791
545.60        15.10116
546.04        15.16374
546.47         15.2326
546.91        15.34827
547.35        15.51499
547.79        15.71893
548.22        15.92142
548.66         16.0609
549.10        16.14628
549.53        16.18957
549.97        16.22887
550.41        16.28816
550.84        16.39764
551.28        16.58265
551.72        16.79791
552.15        16.98473
552.59        17.14811
553.03        17.05685
553.46        17.24496
553.90        17.29723
554.34        17.37392
554.77        17.46398
555.21        17.57319
555.65        17.69672
556.08        17.82226
556.52        17.94114
556.96        18.03963
557.39         18.1453
557.83        18.24219
558.27        18.23038
558.70        18.14097
559.14        18.13423
559.57        18.21143
560.01        18.27639
560.45        18.32225
560.88        18.39481
561.32        18.49988
561.75        18.60453
562.19        18.70487
562.63        18.79109
563.06        18.85633
563.50         18.9043
563.93         18.9297
564.37        18.97363
564.80        19.04941
565.24        19.10501
565.68        19.09543
566.11        19.36557
566.55        19.22008
566.98        19.24212
567.42        19.28019
567.85        19.39792
568.29        19.60567
568.72        19.89052
569.16        20.21177
569.60        20.40738
570.03        20.53733
570.47        20.58746
570.90        20.61567
571.34        20.65107
571.77        20.77824
572.21        20.95359
572.64        21.12841
573.08        21.26614
573.51        21.36208
573.95        21.48315
574.38        21.64738
574.82        21.79945
