SpectraSmart Spectrum 2.9.0.0
--------- Device Information -----------
Spectrum Name :  反射率_0
Saving Time :  2024/04/20 00:10:45
Spectro-Module Model Name : SE2030-DUVN
Spectro-Module Serial Number : OS361AC55029948
Wavelength Start : 200
Wavelength End : 1025
Wavelength Unit : Wavelength(nm)
Spectrum Unit : Reflectance(%)
-----------Spectrum Setting ------------
Integration Time : 30ms
Average : 10
Boxcar : 0
Background removal :  enabled
linearity correction :  enabled
SC :  disabled
Intensity correction :  disabled
DWT denoise :  enabled
savitzky-golay :  disabled
FFT :  disabled
Running average :  disabled
Kalman :  disabled
High pass :  disabled
---------------BEGIN--------------------
Wavelength(nm)             Reflectance(%)
200.29               0
200.75        63.83592
201.21        67.26624
201.67        74.17438
202.13        83.65369
202.58        94.73679
203.04        107.5389
203.50        118.3368
203.96        119.1382
204.42        110.6318
204.88        98.56982
205.34        88.11475
205.80        81.37923
206.26        77.15323
206.72        74.02481
207.18        71.85696
207.64        71.43447
208.10        73.49581
208.55        77.84299
209.01        81.92306
209.47        84.49155
209.93         85.5769
210.39        85.37782
210.85        84.23601
211.31         82.5503
211.77        80.24825
212.23        76.96439
212.69        72.79346
213.14        69.81622
213.60        69.23548
214.06        70.75186
214.52        72.86627
214.98        74.70146
215.44        76.30183
215.90        77.71829
216.36         79.4265
216.81        82.01498
217.27        85.07539
217.73        88.34663
218.19        90.20786
218.65        88.50252
219.11        83.06718
219.57        74.23605
220.02        64.51603
220.48        60.59829
220.94        64.73074
221.40        75.37959
221.86        88.27655
222.32         96.8494
222.77        99.21865
223.23        97.47479
223.69        93.66157
224.15        90.88388
224.61        90.01859
225.06        89.92186
225.52        90.20399
225.98        90.50149
226.44        90.73605
226.90        91.17738
227.36         91.8364
227.81        92.41164
228.27        93.01573
228.73        93.45372
229.19        93.70772
229.65         93.8177
230.10        93.73702
230.56        93.67661
231.02        93.54216
231.48        93.34744
231.93        93.02327
232.39         92.6025
232.85        92.14127
233.31        91.80906
233.77        91.61608
234.22        91.56992
234.68        91.33678
235.14        90.27996
235.60        88.38687
236.05        85.94173
236.51        83.64696
236.97        82.50534
237.43        82.78897
237.88        84.64254
238.34        87.40012
238.80        89.56168
239.26        89.86202
239.71        88.46449
240.17        85.91848
240.63        83.78677
241.08        82.58784
241.54        81.87611
242.00        81.10596
242.46        79.07761
242.91        75.11603
243.37        68.43643
243.83        59.53927
244.28        54.03561
244.74        57.43009
245.20        68.65826
245.66        80.03815
246.11        85.15408
246.57        83.51756
247.03         75.8531
247.48        63.68291
247.94        58.20074
248.40        62.36567
248.85        68.80643
249.31        73.91163
249.77        76.83485
250.22        78.17307
250.68        78.80864
251.14        78.91436
251.59        78.44585
252.05        77.62534
252.51        76.63364
252.96        75.32014
253.42        73.82024
253.88        72.59422
254.33        71.88569
254.79        73.14906
255.25        77.45032
255.70         84.0368
256.16        91.59458
256.62         98.2299
257.07        101.8883
257.53        102.7411
257.99        101.5791
258.44        98.78735
258.90        95.91714
259.35        93.17409
259.81        91.37506
260.27        90.04659
260.72         88.8063
261.18        87.92401
261.63         86.8246
262.09        86.27016
262.55        86.59443
263.00        87.47592
263.46          88.835
263.91        89.48042
264.37         88.5478
264.83        86.07082
265.28        82.51106
265.74        79.21652
266.19        77.42912
266.65        77.42429
267.11        78.50527
267.56        79.77589
268.02        80.03115
268.47        78.99471
268.93        77.10843
269.38        74.86356
269.84        73.28464
270.30        72.63617
270.75         72.5782
271.21        72.70531
271.66         72.3872
272.12         71.4726
272.57        70.15987
273.03        68.74938
273.48        67.56854
273.94        66.78644
274.39         66.2134
274.85        65.72105
275.31        65.02948
275.76        64.04969
276.22        62.93155
276.67        61.78199
277.13        60.93261
277.58        60.34071
278.04        59.96512
278.49         59.5205
278.95        58.76213
279.40        57.59053
279.86        56.24218
280.31        54.84835
280.77        53.81074
281.22        53.09813
281.68         52.6496
282.13        52.27405
282.59        51.79348
283.04        51.12996
283.50        50.41152
283.95        49.66676
284.41        49.02293
284.86        48.46358
285.32        47.98711
285.77        47.55537
286.22        47.21686
286.68        46.96916
287.13        46.75318
287.59        46.53889
288.04        46.20106
288.50        45.75297
288.95        45.18689
289.41        44.57801
289.86         43.9491
290.32        43.38665
290.77        42.87644
291.22        42.47485
291.68        42.22562
292.13        42.12296
292.59         42.1763
293.04        42.35762
293.50        42.65434
293.95        43.02885
294.40        43.46717
294.86        43.93064
295.31        44.37025
295.77        44.77476
296.22        45.14972
296.68        45.50607
297.13        45.84962
297.58        46.19518
298.04        46.54872
298.49        46.92899
298.95        47.40998
299.40        47.97575
299.85        48.60456
300.31        49.23742
300.76        49.76203
301.21        50.16161
301.67        50.50202
302.12        50.78147
302.58        51.08999
303.03        51.41292
303.48        51.74514
303.94        52.13464
304.39         52.6013
304.84        53.14677
305.30        53.74918
305.75        54.28289
306.20        54.59481
306.66        54.68417
307.11         54.5789
307.57        54.41604
308.02        54.30646
308.47        54.31603
308.93        54.40645
309.38        54.52853
309.83        54.67315
310.29        54.81556
310.74        54.95359
311.19        55.02729
311.65        54.93458
312.10        54.65522
312.55        54.22301
313.00        53.74387
313.46        53.38065
313.91        53.15738
314.36        53.05358
314.82        52.98294
315.27        52.83357
315.72        52.56348
316.18        52.22153
316.63        51.86978
317.08        51.62026
317.53        51.48761
317.99        51.42051
318.44        51.33959
318.89        51.10555
319.35        50.69121
319.80        50.15177
320.25        49.57503
320.70         49.1035
321.16        48.77087
321.61        48.53962
322.06        48.35478
322.51        48.13002
322.97        47.82533
323.42        47.47926
323.87        47.09222
324.32        46.67133
324.78        46.22096
325.23        45.75649
325.68        45.29243
326.13        44.86788
326.59        44.49893
327.04        44.21022
327.49        43.99533
327.94        43.84664
328.39        43.74778
328.85        43.65948
329.30         43.6126
329.75        43.59009
330.20        43.57398
330.66        43.54092
331.11        43.44646
331.56        43.15995
332.01        42.66848
332.46        42.00968
332.92         41.3172
333.37        40.84604
333.82        40.66729
334.27        40.74177
334.72        40.93507
335.17         41.0024
335.63        40.85491
336.08        40.56777
336.53        40.26284
336.98         40.1664
337.43        40.32803
337.88        40.67002
338.34        40.99877
338.79        41.05757
339.24         40.7685
339.69        40.21616
340.14        39.62002
340.59        39.34424
341.05        39.46603
341.50        39.87466
341.95        40.34342
342.40        40.52393
342.85        40.33731
343.30         39.9102
343.75        39.40245
344.20        39.07092
344.66        38.99054
345.11        39.05081
345.56        39.19371
346.01         39.3288
346.46        39.40419
346.91        39.45668
347.36        39.42639
347.81        39.20927
348.26        38.81372
348.72        38.30165
349.17        37.77411
349.62        37.47773
350.07        37.47486
350.52        37.68507
350.97        38.01376
351.42        38.31458
351.87        38.52247
352.32         38.6621
352.77        38.69683
353.22         38.5732
353.67        38.29831
354.13          37.907
354.58        37.45462
355.03        37.07844
355.48        36.82575
355.93        36.68288
356.38        36.62639
356.83        36.60757
357.28        36.59826
357.73        36.59344
358.18         36.5908
358.63        36.58727
359.08        36.56858
359.53        36.52491
359.98        36.40113
360.43        36.11944
360.88        35.68299
361.33        35.13074
361.78        34.57388
362.23        34.19321
362.68        34.03128
363.13        34.03038
363.58        34.09155
364.03        34.05613
364.48        33.87278
364.93        33.58159
365.38        33.21689
365.83        32.84423
366.28        32.49572
366.73        32.15296
367.18        31.82289
367.63        31.51812
368.08        31.24284
368.53        31.00852
368.98        30.80633
369.43        30.61042
369.88        30.41488
370.33        30.22528
370.78        30.05098
371.23        29.91261
371.68        29.81416
372.13        29.74028
372.58        29.68531
373.03         29.6444
373.48        29.60381
373.93         29.5533
374.38        29.46807
374.83        29.31052
375.28        29.07519
375.72        28.77061
376.17        28.43983
376.62        28.11207
377.07         27.8149
377.52         27.5512
377.97        27.34682
378.42        27.23731
378.87        27.21565
379.32        27.25724
379.77        27.31926
380.22        27.33445
380.67         27.2839
381.11        27.19356
381.56        27.04796
382.01        26.84977
382.46        26.61275
382.91        26.33179
383.36        26.08043
383.81        25.96869
384.26        26.00736
384.71        26.17228
385.15        26.33199
385.60        26.29008
386.05        26.01262
386.50        25.56309
386.95        25.10636
387.40        24.90543
387.85        25.00754
388.29        25.30953
388.74        25.64853
389.19        25.77563
389.64        25.63939
390.09        25.31458
390.54        24.92876
390.98        24.67591
391.43        24.62907
391.88        24.70992
392.33        24.81044
392.78        24.77858
393.23        24.59387
393.67        24.30263
394.12        24.03789
394.57        23.89919
395.02        23.90669
395.47        24.01795
395.91         24.1611
396.36        24.18671
396.81        24.06992
397.26        23.85734
397.71        23.63755
398.15        23.52197
398.60        23.56026
399.05        23.69393
399.50        23.84611
399.95        23.91004
400.39        23.85994
400.84        23.72185
401.29        23.56004
401.74        23.49173
402.18        23.55257
402.63        23.69773
403.08        23.83524
403.53        23.81572
403.97        23.61504
404.42        23.29909
404.87        22.98533
405.32        22.86559
405.76        22.97693
406.21        23.24856
406.66        23.56648
407.11        23.75289
407.55        23.76074
408.00        23.65042
408.45        23.47333
408.90        23.26166
409.34        23.07923
409.79        23.02612
410.24        23.06675
410.68        23.04823
411.13        22.96533
411.58        22.91011
412.03         22.8937
412.47        22.89862
412.92        22.92019
413.37        22.95067
413.81        23.00243
414.26        23.11416
414.71        23.27719
415.15         23.4857
415.60        23.65382
416.05        23.67459
416.49        23.52632
416.94        23.24869
417.39         22.9398
417.83        22.75756
418.28        22.74805
418.73        22.85827
419.17        23.01153
419.62        23.07684
420.07        23.02555
420.51        22.90493
420.96        22.76477
421.41        22.65676
421.85        22.59427
422.30        22.56911
422.74         22.5789
423.19        22.66072
423.64        22.80005
424.08        22.99765
424.53        23.18003
424.98         23.2512
425.42        23.19178
425.87         23.0358
426.31        22.83457
426.76        22.67719
427.21        22.57922
427.65        22.50691
428.10        22.48778
428.54        22.53403
428.99         22.6423
429.44        22.90783
429.88        23.17944
430.33        23.06992
430.77        22.65392
431.22         22.3967
431.66        22.38108
432.11        22.47711
432.56         22.6595
433.00        23.02919
433.45         23.3551
433.89        23.24422
434.34        22.83719
434.78        22.47301
435.23        22.16883
435.67        23.00421
436.12        22.48724
436.57        22.41904
437.01        22.15135
437.46        22.07891
437.90        22.22057
438.35        22.37899
438.79        22.48385
439.24        22.54327
439.68        22.54095
440.13        22.29445
440.57        21.96231
441.02        22.15461
441.46        22.67209
441.91        22.80359
442.35        21.99087
442.80        21.73256
443.24         21.8069
443.69        21.74224
444.13        21.53777
444.58        21.43398
445.02        21.45185
445.47        21.58139
445.91        21.75127
446.36        21.79567
446.80         21.6827
447.24        21.48977
447.69        21.29414
448.13        21.16964
448.58        21.14826
449.02        21.20074
449.47        21.27514
449.91         21.2796
450.36         21.2011
450.80        21.06971
451.25        20.94413
451.69        20.89189
452.13        20.93386
452.58        21.03339
453.02        21.15539
453.47        21.25353
453.91         21.3103
454.36        21.33794
454.80        21.32989
455.24        21.27311
455.69        21.18146
456.13        21.03988
456.58         20.9009
457.02        20.83146
457.46        20.83942
457.91        20.85931
458.35        20.86682
458.79        20.87862
459.24        20.88151
459.68        20.87927
460.13        20.92822
460.57        20.91845
461.01        20.82959
461.46        21.23166
461.90         21.3056
462.34        21.08827
462.79        21.28432
463.23        21.17513
463.68        21.08584
464.12        20.98987
464.56        21.06274
465.01        21.15954
465.45        21.24233
465.89        21.27148
466.34        21.24415
466.78         21.1188
467.22        20.96239
467.67        20.99655
468.11        21.19076
468.55        21.21128
468.99        21.06961
469.44        21.05483
469.88        21.17434
470.32        21.25845
470.77        21.28349
471.21        21.29904
471.65        21.30228
472.10        21.27668
472.54        21.23879
472.98        21.25838
473.42        21.33997
473.87        21.40508
474.31        21.43332
474.75        21.52606
475.20        21.63378
475.64        21.53073
476.08        21.30107
476.52        21.26053
476.97        21.42927
477.41        21.66612
477.85        21.88027
478.29        21.98712
478.74        21.96161
479.18        21.79388
479.62        21.60592
480.06        21.59229
480.50        21.75976
480.95        21.94809
481.39        22.08138
481.83        22.14987
482.27        22.13446
482.72         22.0345
483.16        21.91474
483.60        21.86932
484.04        21.90401
484.48        22.10947
484.93        22.49896
485.37        22.55306
485.81        22.48894
486.25        23.20412
486.69        23.62117
487.14        23.17709
487.58        22.97604
488.02        23.56374
488.46        23.12283
488.90        23.20996
489.34        23.17331
489.79        23.32216
490.23        23.58128
490.67        23.75819
491.11         23.8288
491.55        23.78804
491.99        23.68997
492.43         23.6743
492.88        23.77097
493.32        23.89858
493.76        24.04002
494.20        24.20397
494.64         24.3836
495.08        24.57315
495.52         24.7643
495.96        24.96338
496.41        25.16957
496.85        25.32733
497.29        25.44831
497.73        25.67475
498.17        25.96816
498.61        26.06335
499.05        25.99175
499.49        26.07009
499.93        26.32459
500.37        26.52238
500.82        26.65928
501.26        26.94582
501.70        27.31156
502.14        27.39533
502.58        27.24461
503.02        27.24516
503.46        27.42294
503.90         27.5703
504.34        27.64996
504.78        27.69537
505.22        27.70032
505.66         27.6685
506.10        27.62892
506.54        27.62311
506.98        27.66659
507.42        27.75249
507.86         27.8759
508.30        28.02224
508.74        28.18489
509.18         28.3557
509.62        28.52346
510.06        28.66769
510.50        28.78372
510.94        28.87862
511.38        28.94613
511.82        28.98069
512.26        28.98603
512.70        28.96115
513.14        28.94573
513.58        28.99664
514.02        29.11537
514.46        29.29217
514.90         29.4631
515.34        29.45617
515.78        29.30513
516.22        29.09242
516.66        28.93027
517.10        28.67406
517.54        28.35282
517.98        28.96046
518.42        28.94677
518.86          29.206
519.30          29.259
519.74        29.27541
520.18        29.26507
520.62        29.22458
521.06        29.17976
521.50        29.11187
521.93        29.03383
522.37        28.97702
522.81        28.94621
523.25        28.94048
523.69        28.94152
524.13        28.91705
524.57        28.85951
525.01        28.77546
525.45        28.68755
525.89         28.6323
526.32        28.61579
526.76        28.62901
527.20        28.63819
527.64         28.5938
528.08        28.48528
528.52        28.32586
528.96        28.15899
529.40        28.04974
529.83        28.01027
530.27        28.02947
530.71        28.05187
531.15        27.99232
531.59        27.83942
532.03        27.62615
532.46         27.4197
532.90        27.34389
533.34        27.41142
533.78        27.57406
534.22        27.76114
534.66        27.86573
535.09        27.85341
535.53        27.76705
535.97        27.63282
536.41        27.48933
536.85        27.35863
537.28        27.24489
537.72        27.17248
538.16        27.09742
538.60        27.15468
539.04        27.22169
539.47        27.30182
539.91        27.40888
540.35        27.54984
540.79        27.48761
541.22        27.58803
541.66         27.6727
542.10        27.87311
542.54        27.73293
542.97        27.98333
543.41         28.1045
543.85        28.29269
544.29        28.47392
544.72        28.61397
545.16        28.74317
545.60        28.85254
546.04        28.85113
546.47        28.82336
546.91        29.09259
547.35        29.58918
547.79        29.90208
548.22        29.99802
548.66        30.09284
549.10        30.21226
549.53        30.41334
549.97         30.7132
550.41        30.70919
550.84        30.97633
551.28        31.12727
551.72        31.35326
552.15        31.61868
552.59         31.9222
553.03        32.25194
553.46        32.55184
553.90        32.77339
554.34        32.90194
554.77        32.95684
555.21        32.97977
555.65        33.02266
556.08        33.10011
556.52        33.19633
556.96        33.30801
557.39        33.46983
557.83        33.66598
558.27        33.80946
558.70        33.89572
559.14        33.98686
559.57        34.07231
560.01        34.15326
560.45         34.2184
560.88        34.20959
561.32        34.19833
561.75        34.27142
562.19        34.53704
562.63        34.67414
563.06        34.70386
563.50        34.73404
563.93         34.7751
564.37        34.90745
564.80        34.97754
565.24        35.11893
565.68        35.25248
566.11        35.39099
566.55        35.55583
566.98        35.63863
567.42        35.63782
567.85        36.09365
568.29        36.02991
568.72        36.34373
569.16        36.70104
569.60        36.96131
570.03        37.09302
570.47        37.29395
570.90        37.36943
571.34        37.80796
571.77        37.44971
572.21        37.99739
572.64        38.26503
573.08         38.5948
573.51        38.50138
573.95        38.84302
574.38        39.32837
574.82        39.66018
