SpectraSmart Spectrum 2.9.0.0
--------- Device Information -----------
Spectrum Name :  反射率_0
Saving Time :  2024/04/20 00:04:25
Spectro-Module Model Name : SE2030-DUVN
Spectro-Module Serial Number : OS361AC55029948
Wavelength Start : 200
Wavelength End : 1025
Wavelength Unit : Wavelength(nm)
Spectrum Unit : Reflectance(%)
-----------Spectrum Setting ------------
Integration Time : 30ms
Average : 10
Boxcar : 0
Background removal :  enabled
linearity correction :  enabled
SC :  disabled
Intensity correction :  disabled
DWT denoise :  enabled
savitzky-golay :  disabled
FFT :  disabled
Running average :  disabled
Kalman :  disabled
High pass :  disabled
---------------BEGIN--------------------
Wavelength(nm)             Reflectance(%)
200.29               0
200.75        57.56074
201.21        60.74545
201.67        66.83989
202.13        74.02402
202.58         80.9986
203.04        87.97513
203.50        93.38176
203.96        93.89738
204.42        90.06295
204.88        84.31216
205.34        79.12428
205.80        75.56538
206.26         72.9676
206.72        70.45856
207.18        67.96411
207.64        66.57716
208.10        67.53303
208.55        70.87837
209.01        73.72098
209.47        74.24465
209.93        72.69781
210.39        69.83668
210.85        66.89632
211.31        65.21332
211.77        64.88599
212.23        65.62511
212.69        66.88681
213.14        67.05207
213.60        65.40949
214.06        63.69895
214.52        62.81192
214.98        63.28373
215.44        64.93275
215.90        67.24026
216.36        70.24863
216.81        73.52869
217.27        76.23203
217.73        78.54234
218.19        79.21632
218.65        76.50353
219.11        70.27976
219.57        60.57659
220.02        49.86049
220.48        44.95327
220.94        48.13893
221.40        58.07561
221.86         70.1048
222.32         76.9484
222.77        76.79821
223.23        72.08044
223.69         66.0185
224.15        63.29467
224.61        64.47864
225.06        67.38818
225.52        70.26325
225.98        71.71481
226.44        71.68816
226.90         70.8283
227.36        69.80032
227.81        69.51044
228.27        70.37523
228.73        71.75202
229.19        72.87708
229.65        72.92503
230.10        71.90919
230.56        70.40852
231.02        68.96207
231.48        68.27916
231.93        68.33385
232.39        68.82969
232.85        69.34448
233.31         69.2954
233.77         68.5522
234.22         67.3802
234.68        65.93562
235.14        64.41505
235.60        63.02809
236.05        61.76296
236.51        60.91455
236.97        60.91142
237.43         61.8991
237.88        64.19186
238.34        67.33413
238.80         70.0003
239.26        70.99443
239.71         70.1838
240.17        68.26136
240.63        67.13414
241.08        67.36485
241.54        68.48183
242.00        69.46201
242.46        68.24654
242.91        63.77594
243.37        55.12927
243.83        42.85292
244.28        34.46875
244.74        37.88336
245.20        51.97812
245.66         66.7843
246.11        73.67529
246.57         71.9978
247.03        62.70728
247.48        48.13753
247.94        42.56356
248.40        48.98253
248.85        57.88028
249.31         64.3623
249.77        67.19907
250.22        67.27605
250.68        65.73723
251.14        63.27973
251.59        61.33124
252.05        61.01643
252.51         62.1189
252.96        63.66007
253.42        64.15635
253.88        63.33441
254.33        61.85547
254.79        61.57735
255.25        64.02287
255.70        68.68549
256.16        74.28786
256.62        78.98248
257.07         80.7507
257.53        79.81487
257.99        77.05949
258.44        73.40844
258.90        70.86288
259.35        69.30693
259.81        68.73447
260.27        68.24835
260.72        67.10839
261.18        65.60164
261.63         63.5665
262.09         61.9106
262.55        61.30436
263.00        61.62192
263.46        62.62919
263.91        63.28503
264.37        62.72021
264.83        60.93827
265.28        58.32526
265.74        55.98762
266.19        54.96566
266.65         55.4277
267.11         56.7681
267.56        58.17876
268.02        58.53351
268.47        57.61557
268.93        55.83086
269.38          53.667
269.84        52.14278
270.30        51.52729
270.75        51.51559
271.21        51.71522
271.66        51.52611
272.12        50.79152
272.57        49.70906
273.03        48.56417
273.48        47.68124
273.94        47.19962
274.39        46.94347
274.85        46.73871
275.31        46.28756
275.76        45.51044
276.22        44.54482
276.67        43.55265
277.13        42.90144
277.58        42.57391
278.04         42.4917
278.49         42.3471
278.95         41.8086
279.40        40.79449
279.86        39.54601
280.31        38.26385
280.77        37.39582
281.22        36.93789
281.68        36.77841
282.13        36.70736
282.59        36.47868
283.04        36.01485
283.50        35.45462
283.95        34.84461
284.41        34.30269
284.86        33.83842
285.32        33.43895
285.77        33.11559
286.22        32.97079
286.68        32.99523
287.13        33.11991
287.59        33.24308
288.04        33.17051
288.50        32.89315
288.95         32.4355
289.41        31.91346
289.86        31.42771
290.32        31.07275
290.77        30.81193
291.22        30.66026
291.68        30.60078
292.13        30.62703
292.59        30.77141
293.04        31.03992
293.50        31.45617
293.95        32.00169
294.40        32.64768
294.86        33.35503
295.31        34.07769
295.77        34.79833
296.22        35.52158
296.68        36.23923
297.13        36.92005
297.58          37.571
298.04        38.20686
298.49        38.86162
298.95        39.63464
299.40        40.52014
299.85        41.48078
300.31        42.45898
300.76        43.35229
301.21        44.13277
301.67         44.8572
302.12        45.49775
302.58        46.09482
303.03        46.63735
303.48        47.14089
303.94        47.68913
304.39        48.36043
304.84         49.1686
305.30        50.07047
305.75        50.92767
306.20        51.56118
306.66        51.95602
307.11        52.14817
307.57         52.2526
308.02        52.35356
308.47        52.51241
308.93        52.68933
309.38        52.87688
309.83        53.13129
310.29        53.43723
310.74        53.77975
311.19        54.03741
311.65        54.00656
312.10        53.66069
312.55        53.08277
313.00         52.4656
313.46        52.10596
313.91        52.05548
314.36        52.23895
314.82         52.5151
315.27        52.67678
315.72         52.6381
316.18        52.47583
316.63        52.22813
317.08        51.97394
317.53        51.74141
317.99         51.4903
318.44        51.23147
318.89         50.9786
319.35        50.73561
319.80        50.51458
320.25        50.30436
320.70        50.07898
321.16        49.82864
321.61        49.57098
322.06        49.30975
322.51        49.05949
322.97        48.81373
323.42        48.56754
323.87        48.32087
324.32        48.08455
324.78        47.84959
325.23        47.63964
325.68        47.40166
326.13        47.05685
326.59        46.59962
327.04        46.08327
327.49        45.61147
327.94        45.36111
328.39        45.36481
328.85        45.54332
329.30        45.81878
329.75        45.97171
330.20         45.9254
330.66        45.71475
331.11        45.41272
331.56        45.07699
332.01        44.74297
332.46         44.3873
332.92         44.0369
333.37        43.77215
333.82        43.60708
334.27         43.5531
334.72        43.56122
335.17        43.53207
335.63        43.42397
336.08        43.27036
336.53        43.12583
336.98        43.10937
337.43        43.24009
337.88         43.4782
338.34        43.68702
338.79        43.69748
339.24        43.45371
339.69        43.00939
340.14        42.53387
340.59        42.31016
341.05         42.3958
341.50        42.71322
341.95        43.07848
342.40        43.20539
342.85         43.0337
343.30        42.66879
343.75        42.25345
344.20        42.01879
344.66        42.02407
345.11        42.16068
345.56        42.36571
346.01        42.54001
346.46        42.63046
346.91        42.67749
347.36         42.6174
347.81         42.3431
348.26         41.8681
348.72        41.25698
349.17        40.64384
349.62         40.3266
350.07        40.37521
350.52        40.69358
350.97        41.13628
351.42        41.47934
351.87        41.64342
352.32        41.67717
352.77        41.59317
353.22        41.41712
353.67        41.17635
354.13        40.88138
354.58        40.54439
355.03        40.23846
355.48        39.99154
355.93        39.80438
356.38        39.68819
356.83        39.64814
357.28         39.6664
357.73        39.72209
358.18        39.76475
358.63        39.71431
359.08        39.54833
359.53        39.29243
359.98        38.96156
360.43        38.58141
360.88        38.17274
361.33         37.7333
361.78           37.32
362.23        37.02498
362.68        36.86261
363.13        36.80723
363.58         36.7699
364.03        36.60659
364.48        36.27927
364.93        35.81935
365.38        35.30082
365.83        34.85976
366.28        34.53855
366.73        34.29873
367.18        34.08198
367.63        33.79372
368.08        33.41594
368.53        32.99567
368.98          32.578
369.43        32.22058
369.88        31.94043
370.33        31.71651
370.78        31.53516
371.23        31.37937
371.68         31.2395
372.13        31.11646
372.58        31.01045
373.03        30.92223
373.48        30.84308
373.93        30.75886
374.38        30.64719
374.83        30.47763
375.28        30.24269
375.72        29.94397
376.17         29.6215
376.62        29.29919
377.07        29.00083
377.52        28.73279
377.97        28.50756
378.42         28.3402
378.87        28.22728
379.32        28.15558
379.77        28.11477
380.22        28.08607
380.67         28.0567
381.11        28.03325
381.56        27.96873
382.01        27.81272
382.46        27.56073
382.91        27.22334
383.36          26.885
383.81        26.67307
384.26        26.61016
384.71          26.672
385.15        26.74051
385.60        26.63947
386.05        26.33989
386.50        25.90253
386.95        25.48315
387.40        25.32712
387.85        25.47188
388.29        25.81138
388.74        26.18055
389.19        26.33004
389.64        26.20531
390.09        25.87568
390.54        25.46363
390.98        25.15792
391.43        25.03552
391.88        25.02815
392.33        25.03625
392.78        24.91749
393.23        24.65882
393.67        24.30898
394.12        24.00698
394.57        23.85851
395.02        23.88303
395.47         24.0354
395.91        24.23469
396.36        24.31402
396.81        24.23864
397.26        24.05292
397.71        23.84854
398.15        23.74539
398.60        23.79385
399.05        23.93155
399.50        24.07566
399.95        24.10993
400.39        24.01041
400.84        23.81252
401.29        23.59131
401.74        23.48301
402.18        23.53178
402.63        23.68612
403.08        23.85729
403.53        23.90005
403.97        23.78393
404.42        23.56982
404.87        23.34759
405.32        23.26524
405.76        23.35296
406.21        23.55501
406.66        23.78988
407.11        23.93203
407.55         23.9486
408.00        23.88541
408.45        23.77726
408.90        23.62325
409.34        23.47311
409.79        23.43889
410.24        23.48568
410.68        23.45886
411.13        23.35671
411.58        23.27136
412.03        23.22324
412.47        23.21287
412.92        23.24036
413.37        23.29388
413.81         23.3784
414.26        23.51969
414.71        23.70525
415.15        23.93411
415.60        24.12082
416.05        24.15897
416.49        24.02934
416.94        23.77258
417.39        23.49385
417.83         23.3616
418.28        23.42518
418.73        23.62983
419.17        23.89084
419.62        24.06585
420.07         24.1194
420.51        24.09401
420.96        24.04426
421.41        24.02969
421.85        24.06012
422.30        24.12357
422.74        24.19797
423.19        24.29413
423.64        24.39715
424.08        24.52074
424.53        24.62205
424.98        24.66097
425.42        24.63602
425.87        24.56663
426.31        24.47745
426.76        24.41487
427.21        24.38225
427.65        24.35839
428.10        24.37918
428.54        24.46946
428.99        24.62807
429.44        24.94702
429.88        25.27096
430.33        25.19478
430.77        24.80031
431.22        24.59781
431.66        24.65761
432.11        24.79919
432.56        24.98876
433.00        25.34661
433.45        25.66352
433.89         25.5808
434.34          25.262
434.78        25.05981
435.23         24.9306
435.67        25.94978
436.12        25.40012
436.57        25.25712
437.01        24.86334
437.46        24.73019
437.90        24.90047
438.35        25.12979
438.79        25.32004
439.24        25.44381
439.68        25.46994
440.13        25.23149
440.57        24.90158
441.02        25.10172
441.46        25.63337
441.91        25.82889
442.35        25.03487
442.80        24.79828
443.24        24.88364
443.69        24.88133
444.13        24.77283
444.58        24.71825
445.02        24.73438
445.47         24.8595
445.91        25.03334
446.36        25.08369
446.80        24.98284
447.24        24.81422
447.69        24.64793
448.13        24.54174
448.58        24.52592
449.02        24.57404
449.47         24.6444
449.91        24.66085
450.36        24.61167
450.80        24.51795
451.25        24.42414
451.69        24.37341
452.13        24.38467
452.58        24.43449
453.02        24.50003
453.47        24.55541
453.91        24.59077
454.36        24.61296
454.80        24.62093
455.24        24.60805
455.69        24.58463
456.13        24.52618
456.58        24.46741
457.02        24.44892
457.46        24.47347
457.91        24.47524
458.35        24.44566
458.79        24.43911
459.24        24.44798
459.68         24.4666
460.13        24.55006
460.57          24.554
461.01        24.44884
461.46        24.91276
461.90        24.98557
462.34        24.71505
462.79        24.92831
463.23        24.78056
463.68        24.65813
464.12        24.54221
464.56        24.63951
465.01        24.77852
465.45        24.90084
465.89        24.94736
466.34        24.91335
466.78        24.73601
467.22         24.5115
467.67        24.56842
468.11        24.85837
468.55        24.88746
468.99        24.66903
469.44        24.62881
469.88        24.77656
470.32        24.86049
470.77        24.86017
471.21        24.86821
471.65        24.88586
472.10        24.88784
472.54        24.87857
472.98        24.91318
473.42        24.99339
473.87        25.03485
474.31        25.04461
474.75        25.18932
475.20        25.41537
475.64        25.43798
476.08        25.30588
476.52        25.32069
476.97        25.49323
477.41        25.67702
477.85        25.80859
478.29        25.86237
478.74        25.83035
479.18        25.68022
479.62        25.52317
480.06        25.53773
480.50        25.72106
480.95        25.90671
481.39        26.03106
481.83        26.10518
482.27        26.11163
482.72         26.0612
483.16        26.01975
483.60        25.96029
484.04        26.12036
484.48        26.37863
484.93        26.77869
485.37        26.94549
485.81        26.96865
486.25        27.48666
486.69         28.2271
487.14        27.82554
487.58        27.45758
488.02        28.07401
488.46        27.72083
488.90        27.79926
489.34        27.61683
489.79        27.73864
490.23        28.08449
490.67        28.25131
491.11        28.23788
491.55        28.22702
491.99        28.25393
492.43        28.30045
492.88         28.3819
493.32        28.48698
493.76        28.63445
494.20        28.85112
494.64        29.13315
495.08        29.50251
495.52        29.88497
495.96         30.0911
496.41        30.15072
496.85         30.2483
497.29        30.41518
497.73        30.65676
498.17        30.93276
498.61        31.03938
499.05         31.0071
499.49        31.13667
499.93        31.44785
500.37        31.68655
500.82        31.85091
501.26        32.18171
501.70        32.60176
502.14        32.70623
502.58        32.53376
503.02        32.49176
503.46         32.6109
503.90        32.67606
504.34        32.67194
504.78        32.67538
505.22          32.689
505.66        32.70038
506.10        32.72999
506.54        32.80366
506.98        32.92545
507.42        33.09191
507.86        33.27163
508.30        33.41207
508.74        33.49841
509.18        33.53759
509.62        33.56701
510.06        33.64844
510.50        33.79455
510.94        33.99007
511.38        34.17747
511.82        34.26295
512.26        34.22938
512.70        34.10803
513.14        33.97988
513.58        33.96676
514.02        34.08842
514.46        34.30961
514.90        34.55319
515.34         34.6211
515.78        34.54907
516.22        34.41157
516.66        34.30097
517.10        34.05482
517.54        33.69987
517.98        34.16158
518.42        34.04861
518.86        34.26317
519.30        34.37323
519.74        34.51392
520.18        34.64062
520.62        34.66283
521.06        34.58491
521.50        34.41888
521.93        34.22171
522.37        34.09595
522.81        34.06817
523.25        34.11373
523.69        34.19097
524.13        34.23273
524.57        34.21864
525.01        34.16631
525.45        34.10274
525.89        34.06945
526.32        34.07403
526.76        34.10239
527.20         34.1182
527.64        34.07131
528.08        33.95192
528.52        33.77592
528.96        33.59167
529.40        33.47004
529.83        33.42471
530.27        33.44536
530.71        33.47147
531.15        33.41105
531.59        33.24986
532.03        33.01994
532.46        32.79366
532.90        32.70562
533.34        32.76896
533.78        32.93406
534.22        33.11677
534.66        33.18877
535.09        33.11509
535.53        32.95076
535.97        32.74599
536.41        32.57655
536.85        32.47156
537.28        32.42311
537.72        32.43578
538.16        32.41768
538.60        32.51752
539.04        32.59895
539.47         32.6728
539.91        32.76928
540.35        32.90279
540.79        32.78484
541.22        32.86227
541.66        32.93875
542.10        33.17352
542.54        33.02385
542.97        33.34066
543.41        33.47044
543.85        33.64169
544.29        33.77689
544.72        33.86594
545.16        33.98589
545.60        34.13141
546.04        34.19601
546.47        34.24505
546.91        34.56212
547.35        35.07019
547.79        35.40744
548.22        35.53865
548.66        35.61031
549.10        35.67662
549.53        35.93504
549.97         36.3891
550.41        36.43237
550.84        36.73239
551.28        36.89284
551.72        37.14203
552.15        37.41314
552.59         37.7098
553.03        38.02911
553.46         38.3116
553.90        38.51205
554.34        38.61684
554.77        38.64408
555.21        38.65118
555.65        38.71326
556.08        38.84406
556.52        39.01624
556.96        39.19723
557.39        39.38325
557.83        39.54911
558.27        39.60923
558.70        39.58852
559.14         39.6083
559.57        39.66853
560.01         39.7567
560.45        39.84885
560.88        39.84809
561.32        39.82762
561.75        39.93036
562.19        40.27389
562.63        40.39515
563.06        40.35506
563.50        40.44528
563.93        40.64767
564.37        40.86827
564.80        40.91176
565.24        41.03461
565.68        41.16546
566.11        41.28857
566.55         41.4311
566.98        41.52787
567.42        41.55906
567.85        41.95599
568.29        41.76826
568.72        42.10843
569.16        42.61495
569.60        42.94992
570.03        43.06163
570.47        43.21869
570.90        43.22242
571.34        43.57332
571.77         43.4173
572.21         43.7204
572.64        44.13128
573.08        44.50912
573.51        44.34969
573.95        44.79021
574.38        45.35924
574.82         45.6079
