SpectraSmart Spectrum 2.9.0.0
--------- Device Information -----------
Spectrum Name :  反射率_0
Saving Time :  2024/04/20 00:47:27
Spectro-Module Model Name : SE2030-DUVN
Spectro-Module Serial Number : OS361AC55029948
Wavelength Start : 200
Wavelength End : 1025
Wavelength Unit : Wavelength(nm)
Spectrum Unit : Reflectance(%)
-----------Spectrum Setting ------------
Integration Time : 30ms
Average : 10
Boxcar : 0
Background removal :  enabled
linearity correction :  enabled
SC :  disabled
Intensity correction :  disabled
DWT denoise :  enabled
savitzky-golay :  disabled
FFT :  disabled
Running average :  disabled
Kalman :  disabled
High pass :  disabled
---------------BEGIN--------------------
Wavelength(nm)             Reflectance(%)
200.29               0
200.75        50.63344
201.21        53.03399
201.67        58.23112
202.13        65.61238
202.58        74.43914
203.04        84.90703
203.50        94.02483
203.96        95.11819
204.42        88.52332
204.88        78.88148
205.34        70.29497
205.80        64.37353
206.26        59.99909
206.72        55.67617
207.18        50.99967
207.64        47.44026
208.10         47.3088
208.55        51.02304
209.01        55.19844
209.47         57.3526
209.93        57.41321
210.39        56.03152
210.85        54.21111
211.31        53.08867
211.77        52.83358
212.23        53.35405
212.69        54.06573
213.14        53.53228
213.60        51.49729
214.06        49.64329
214.52        49.19654
214.98        51.10538
215.44        55.17898
215.90        60.91048
216.36        67.74596
216.81         73.2961
217.27        75.79865
217.73        76.15394
218.19        74.19504
218.65        69.59216
219.11        62.57794
219.57         52.7549
220.02        42.63318
220.48        39.05804
220.94        44.13306
221.40        56.60263
221.86        70.99098
222.32        78.78043
222.77        78.03838
223.23        71.54676
223.69        63.54966
224.15        60.27635
224.61        62.28823
225.06        66.57956
225.52        70.67683
225.98        72.53385
226.44        72.07298
226.90        70.26125
227.36         67.9309
227.81        66.33208
228.27        66.19869
228.73        66.90392
229.19          67.809
229.65        68.21891
230.10        68.02301
230.56        67.58682
231.02        67.28635
231.48         67.6405
231.93         68.5569
232.39        69.78265
232.85        70.76404
233.31        70.71635
233.77        69.49815
234.22         67.4201
234.68         64.9016
235.14        62.63164
235.60        60.96385
236.05        59.78551
236.51        59.09358
236.97        58.79436
237.43        58.82016
237.88        59.44814
238.34        60.36892
238.80        61.07995
239.26        61.12016
239.71        60.37642
240.17        59.16071
240.63        58.54521
241.08         58.8265
241.54        59.76613
242.00        60.52189
242.46        59.38281
242.91        55.39325
243.37        47.49273
243.83        36.17481
244.28        28.53189
244.74        31.93434
245.20        45.49902
245.66        59.08951
246.11        63.52351
246.57        57.82084
247.03        42.29505
247.48        21.26897
247.94        16.53312
248.40        30.12691
248.85        46.46299
249.31        57.87767
249.77        62.68253
250.22        62.59571
250.68        59.43257
251.14        54.30746
251.59        49.82806
252.05        47.98712
252.51        48.36205
252.96        49.90714
253.42        50.83245
253.88        50.63856
254.33         50.1403
254.79         51.0091
255.25        54.60157
255.70        60.37453
256.16        66.94645
256.62         72.3995
257.07        74.68629
257.53        74.01195
257.99        71.29668
258.44        67.54963
258.90        64.84343
259.35        63.14311
259.81        62.41756
260.27        61.75626
260.72        60.38117
261.18         58.5584
261.63         56.1889
262.09        54.23987
262.55        53.50643
263.00        53.88198
263.46        55.05147
263.91        55.91379
264.37        55.47837
264.83        53.75568
265.28        51.17144
265.74        48.86656
266.19        47.96825
266.65        48.62407
267.11        50.18876
267.56        51.80605
268.02        52.27275
268.47        51.36668
268.93        49.52015
269.38        47.24199
269.84        45.58694
270.30        44.85071
270.75        44.73416
271.21        44.86539
271.66        44.67662
272.12        44.01226
272.57        43.06825
273.03        42.10633
273.48        41.41603
273.94         41.1103
274.39        41.01187
274.85        40.93856
275.31        40.60186
275.76         39.9226
276.22        39.02611
276.67        38.06763
277.13          37.393
277.58        36.99892
278.04        36.82204
278.49        36.58998
278.95        36.00055
279.40        34.99039
279.86        33.78307
280.31        32.58087
280.77        31.81394
281.22        31.47646
281.68         31.4492
282.13        31.51388
282.59        31.39758
283.04        31.02336
283.50        30.52931
283.95        29.97171
284.41        29.47832
284.86        29.05868
285.32        28.67414
285.77        28.34713
286.22        28.19032
286.68        28.19186
287.13        28.30191
287.59         28.3617
288.04        28.09961
288.50        27.51043
288.95        26.65733
289.41         25.7802
289.86        25.18197
290.32        24.97857
290.77        25.05091
291.22        25.25794
291.68        25.34935
292.13        25.26569
292.59        25.10819
293.04        24.96761
293.50        24.99878
293.95        25.22792
294.40        25.57697
294.86        25.99352
295.31        26.41405
295.77        26.81245
296.22        27.22131
296.68        27.60737
297.13        27.88876
297.58        28.07439
298.04        28.18954
298.49        28.34731
298.95        28.76653
299.40        29.45781
299.85        30.33903
300.31        31.24005
300.76        31.89664
301.21        32.25077
301.67         32.4171
302.12        32.47679
302.58        32.60714
303.03        32.83813
303.48        33.12608
303.94        33.49398
304.39         33.9431
304.84        34.45814
305.30        35.02381
305.75        35.52894
306.20        35.81968
306.66        35.88985
307.11        35.77617
307.57        35.58967
308.02        35.43213
308.47        35.36608
308.93        35.35927
309.38        35.40718
309.83         35.5465
310.29        35.75652
310.74        36.02445
311.19        36.24903
311.65         36.2662
312.10        36.04527
312.55        35.63439
313.00        35.16162
313.46        34.82847
313.91        34.66906
314.36        34.64223
314.82        34.65361
315.27        34.57143
315.72        34.35095
316.18        34.05109
316.63        33.72947
317.08        33.47614
317.53        33.30989
317.99        33.18724
318.44         33.0732
318.89        32.90593
319.35        32.66908
319.80        32.38853
320.25         32.0832
320.70        31.78254
321.16        31.49417
321.61        31.20983
322.06        30.93219
322.51        30.67034
322.97        30.41751
323.42          30.181
323.87        29.93441
324.32        29.63709
324.78        29.28079
325.23        28.88997
325.68        28.49394
326.13        28.14857
326.59        27.87391
327.04        27.67451
327.49        27.53682
327.94        27.43943
328.39        27.36713
328.85        27.30399
329.30         27.2688
329.75        27.25224
330.20         27.2417
330.66        27.20784
331.11        27.13906
331.56        26.96959
332.01        26.68836
332.46        26.31466
332.92        25.89672
333.37        25.52059
333.82        25.22711
334.27        25.02303
334.72        24.88759
335.17        24.77755
335.63        24.66962
336.08        24.56937
336.53        24.52459
336.98        24.62291
337.43        24.86281
337.88        25.21222
338.34        25.48912
338.79        25.44846
339.24        25.03145
339.69         24.3108
340.14        23.55601
340.59        23.22142
341.05        23.40083
341.50        23.96722
341.95        24.62509
342.40        24.91089
342.85         24.7225
343.30        24.22134
343.75        23.62657
344.20        23.29606
344.66        23.32338
345.11        23.54874
345.56         23.8716
346.01        24.13548
346.46        24.26776
346.91        24.34132
347.36        24.28436
347.81        23.97096
348.26        23.42555
348.72        22.72088
349.17         22.0461
349.62        21.80008
350.07        22.06209
350.52        22.68899
350.97        23.45481
351.42        24.01665
351.87        24.26561
352.32        24.28838
352.77         24.1251
353.22        23.84904
353.67        23.51314
354.13         23.1135
354.58        22.69839
355.03        22.38758
355.48        22.21525
355.93        22.17739
356.38        22.23152
356.83        22.29178
357.28        22.32167
357.73        22.32303
358.18        22.30806
358.63        22.30164
359.08        22.30403
359.53        22.30532
359.98        22.25153
360.43        22.06679
360.88        21.75237
361.33        21.34032
361.78        20.94585
362.23        20.75405
362.68        20.79436
363.13        20.99692
363.58         21.2257
364.03        21.26857
364.48         21.0736
364.93        20.71007
365.38        20.25782
365.83        19.85791
366.28        19.56925
366.73        19.34989
367.18        19.20313
367.63         19.1329
368.08        19.12119
368.53        19.16948
368.98        19.21826
369.43        19.16621
369.88        18.99721
370.33        18.74103
370.78        18.45554
371.23        18.24828
371.68        18.15504
372.13        18.14086
372.58        18.19062
373.03        18.27594
373.48         18.3683
373.93        18.46689
374.38        18.52489
374.83        18.47054
375.28        18.29492
375.72        18.01081
376.17        17.69422
376.62        17.43155
377.07        17.25954
377.52        17.16134
377.97         17.1242
378.42        17.12279
378.87        17.13848
379.32        17.17005
379.77        17.20449
380.22        17.22034
380.67        17.20931
381.11        17.17597
381.56        17.09819
382.01        16.96214
382.46        16.77302
382.91        16.53774
383.36        16.31147
383.81        16.17328
384.26        16.13891
384.71        16.19809
385.15        16.27368
385.60        16.24708
386.05        16.09691
386.50        15.85408
386.95        15.62452
387.40        15.57633
387.85        15.72917
388.29        16.01297
388.74        16.28657
389.19        16.35267
389.64        16.17561
390.09        15.81707
390.54        15.40231
390.98         15.1265
391.43        15.05748
391.88        15.12547
392.33        15.22334
392.78         15.1962
393.23        15.02103
393.67        14.74849
394.12        14.49361
394.57        14.35946
395.02        14.36551
395.47        14.47129
395.91        14.60313
396.36        14.62012
396.81        14.49442
397.26        14.26842
397.71        14.03552
398.15        13.91976
398.60        13.95926
399.05        14.09877
399.50        14.24531
399.95        14.26647
400.39        14.13502
400.84        13.89083
401.29        13.62349
401.74        13.49761
402.18         13.5627
402.63         13.7557
403.08        13.96934
403.53        14.03223
403.97        13.90713
404.42         13.6629
404.87        13.39332
405.32        13.25164
405.76        13.27625
406.21        13.40996
406.66        13.58614
407.11        13.70291
407.55        13.72953
408.00         13.7024
408.45        13.63802
408.90        13.52861
409.34        13.40232
409.79        13.32066
410.24        13.27728
410.68        13.20667
411.13        13.11223
411.58        13.04641
412.03        13.00113
412.47        12.94275
412.92        12.86857
413.37        12.78308
413.81        12.72763
414.26        12.77737
414.71        12.93205
415.15        13.17193
415.60        13.39287
416.05         13.4487
416.49        13.30434
416.94        13.01275
417.39        12.67869
417.83        12.47394
418.28        12.44923
418.73        12.54357
419.17        12.68607
419.62        12.75235
420.07        12.71176
420.51        12.60726
420.96        12.46916
421.41        12.32565
421.85        12.19172
422.30        12.06833
422.74        11.96908
423.19        11.93922
423.64        11.97443
424.08        12.06843
424.53        12.17333
424.98        12.22463
425.42        12.20324
425.87        12.12995
426.31         12.0192
426.76        11.90397
427.21        11.78994
427.65        11.66199
428.10        11.55946
428.54        11.52927
428.99        11.57999
429.44        11.74833
429.88         11.9355
430.33        11.90382
430.77        11.68583
431.22        11.53261
431.66        11.49742
432.11        11.53247
432.56        11.62906
433.00        11.82781
433.45        11.99643
433.89        11.94256
434.34        11.73789
434.78        11.51394
435.23        11.26877
435.67         11.7555
436.12        11.33182
436.57        11.22117
437.01        11.00443
437.46        10.92473
437.90        10.99446
438.35        11.10735
438.79        11.20741
439.24         11.2571
439.68         11.2366
440.13        11.06563
440.57        10.83262
441.02        10.85006
441.46        11.02423
441.91        11.00751
442.35        10.54108
442.80         10.3604
443.24         10.3515
443.69        10.29139
444.13        10.16848
444.58        10.08312
445.02        10.04052
445.47        10.04126
445.91        10.05991
446.36        10.03447
446.80        9.952417
447.24        9.843119
447.69        9.737545
448.13        9.657679
448.58         9.61762
449.02        9.609846
449.47        9.610064
449.91        9.574889
450.36        9.501314
450.80        9.401005
451.25        9.316552
451.69        9.301192
452.13        9.365579
452.58        9.480136
453.02        9.603824
453.47        9.669218
453.91        9.662489
454.36        9.604536
454.80        9.516786
455.24        9.438857
455.69        9.391066
456.13        9.349628
456.58        9.329638
457.02        9.347611
457.46        9.400674
457.91        9.464184
458.35        9.514344
458.79        9.531454
459.24        9.510351
459.68        9.455446
460.13        9.427321
460.57        9.426358
461.01        9.453437
461.46        9.746389
461.90        9.893627
462.34        9.836883
462.79        9.892363
463.23         9.74643
463.68        9.592893
464.12        9.486536
464.56        9.529618
465.01        9.629745
465.45        9.742786
465.89        9.812186
466.34        9.827613
466.78        9.779131
467.22        9.704368
467.67        9.732727
468.11         9.84574
468.55        9.842241
468.99        9.742987
469.44        9.742072
469.88        9.847107
470.32        9.952186
470.77        10.01556
471.21        10.02548
471.65        9.972534
472.10        9.866401
472.54        9.747858
472.98        9.709292
473.42        9.767649
473.87        9.865999
474.31         9.96974
474.75         10.0825
475.20        10.16921
475.64        10.13605
476.08        10.03156
476.52         10.0196
476.97        10.11377
477.41        10.24131
477.85        10.35569
478.29        10.41357
478.74        10.40156
479.18        10.31565
479.62         10.2154
480.06        10.19589
480.50        10.26001
480.95        10.33095
481.39        10.37079
481.83        10.36979
482.27        10.32383
482.72        10.24367
483.16        10.16315
483.60        10.14675
484.04        10.20438
484.48        10.33726
484.93        10.56865
485.37        10.74154
485.81        10.86678
486.25        11.27862
486.69        11.45818
487.14        11.02965
487.58        10.96614
488.02        11.63343
488.46        11.17319
488.90         11.2018
489.34        11.09984
489.79        11.21726
490.23        11.48783
490.67         11.6709
491.11        11.72341
491.55        11.63179
491.99        11.44409
492.43        11.32213
492.88        11.30259
493.32        11.27811
493.76        11.26947
494.20         11.3614
494.64         11.5555
495.08        11.81897
495.52        12.10321
495.96        12.34161
496.41        12.51152
496.85        12.60378
497.29        12.64239
497.73        12.73162
498.17        12.86698
498.61        12.90925
499.05        12.87776
499.49        12.93546
499.93        13.09636
500.37        13.24679
500.82        13.37746
501.26         13.5842
501.70        13.82549
502.14        13.91586
502.58        13.87617
503.02        13.90176
503.46          14.006
503.90        14.08392
504.34        14.11412
504.78        14.11064
505.22        14.07404
505.66        14.01206
506.10        13.95457
506.54        13.94473
506.98        13.99609
507.42         14.0998
507.86        14.23926
508.30        14.38492
508.74        14.52066
509.18         14.6448
509.62        14.75826
510.06        14.86444
510.50        14.96385
510.94        15.05728
511.38        15.12394
511.82        15.13344
512.26        15.08534
512.70        14.98917
513.14        14.89996
513.58        14.90061
514.02        14.99819
514.46         15.1684
514.90        15.33946
515.34        15.34321
515.78        15.16999
516.22          14.958
516.66        14.80436
517.10        14.50028
517.54        14.07439
517.98        14.72868
518.42        14.63901
518.86        14.93575
519.30          15.053
519.74        15.17397
520.18        15.26972
520.62        15.27128
521.06        15.19548
521.50        15.04434
521.93        14.86402
522.37         14.7415
522.81        14.69845
523.25        14.71552
523.69        14.76483
524.13        14.79904
524.57        14.80101
525.01        14.78266
525.45        14.75146
525.89        14.71813
526.32        14.68618
526.76        14.65233
527.20        14.60775
527.64        14.54469
528.08        14.46284
528.52        14.36402
528.96        14.27094
529.40        14.21548
529.83        14.20228
530.27        14.22724
530.71        14.24916
531.15        14.20311
531.59        14.08119
532.03        13.90547
532.46        13.73462
532.90        13.67495
533.34        13.73737
533.78        13.88243
534.22        14.04261
534.66        14.11438
535.09        14.06996
535.53        13.94946
535.97        13.79212
536.41        13.65783
536.85        13.57119
537.28        13.52267
537.72        13.51566
538.16        13.51265
538.60        13.57384
539.04        13.64177
539.47        13.71783
539.91        13.80717
540.35        13.91174
540.79         13.9079
541.22        13.97795
541.66        14.02792
542.10         14.1262
542.54        14.04614
542.97        14.16185
543.41        14.21627
543.85        14.31274
544.29        14.41562
544.72        14.51233
545.16         14.6241
545.60        14.74493
546.04        14.82245
546.47        14.89115
546.91        15.10164
547.35        15.41049
547.79        15.62009
548.22        15.70811
548.66         15.7463
549.10         15.7692
549.53        15.88361
549.97        16.09599
550.41        16.11973
550.84        16.25198
551.28        16.33584
551.72        16.47857
552.15         16.6506
552.59        16.84667
553.03        17.07111
553.46        17.28452
553.90        17.41476
554.34        17.44849
554.77        17.51401
555.21        17.45798
555.65        17.48849
556.08         17.5606
556.52        17.66145
556.96        17.77417
557.39         17.8995
557.83        18.02369
558.27        18.10337
558.70        18.13916
559.14        18.16559
559.57        18.18184
560.01        18.19145
560.45        18.19338
560.88        18.16421
561.32         18.1467
561.75        18.18418
562.19        18.33728
562.63          18.438
563.06        18.49509
563.50        18.56353
563.93        18.63578
564.37        18.73329
564.80        18.76969
565.24        18.82263
565.68        18.86673
566.11        18.92858
566.55        19.02482
566.98        19.11129
567.42        19.17465
567.85        19.43414
568.29        19.38535
568.72        19.62567
569.16        19.94776
569.60        20.16547
570.03        20.25812
570.47        20.33059
570.90         20.3006
571.34        20.60068
571.77        20.58677
572.21        20.76365
572.64        20.93994
573.08          21.196
573.51         21.3468
573.95        21.75237
574.38        22.14717
574.82        22.29125
