SpectraSmart Spectrum 2.9.0.0
--------- Device Information -----------
Spectrum Name :  反射率_0
Saving Time :  2024/04/20 00:37:48
Spectro-Module Model Name : SE2030-DUVN
Spectro-Module Serial Number : OS361AC55029948
Wavelength Start : 200
Wavelength End : 1025
Wavelength Unit : Wavelength(nm)
Spectrum Unit : Reflectance(%)
-----------Spectrum Setting ------------
Integration Time : 30ms
Average : 10
Boxcar : 0
Background removal :  enabled
linearity correction :  enabled
SC :  disabled
Intensity correction :  disabled
DWT denoise :  enabled
savitzky-golay :  disabled
FFT :  disabled
Running average :  disabled
Kalman :  disabled
High pass :  disabled
---------------BEGIN--------------------
Wavelength(nm)             Reflectance(%)
200.29               0
200.75        62.15237
201.21         63.4473
201.67        67.08164
202.13        73.90103
202.58        83.96172
203.04        97.20035
203.50        109.4033
203.96        110.9472
204.42        102.0364
204.88        89.39385
205.34        78.38436
205.80        71.08274
206.26        66.17446
206.72        61.81505
207.18        58.12793
207.64        57.70892
208.10        62.44316
208.55        71.26534
209.01        78.80735
209.47        81.56999
209.93        80.23372
210.39        76.14347
210.85         71.5947
211.31        69.18817
211.77         69.2345
212.23         71.2534
212.69        74.37442
213.14        75.37629
213.60        72.88496
214.06        69.75492
214.52        67.63044
214.98        67.33975
215.44         68.6063
215.90        70.70769
216.36        73.77183
216.81        77.58112
217.27         81.2799
217.73        84.98817
218.19        87.16841
218.65        85.76284
219.11         80.6775
219.57        72.00285
220.02        62.52823
220.48        59.58331
220.94        65.51781
221.40        78.70728
221.86        93.82257
222.32        102.7269
222.77         103.452
223.23         98.7328
223.69        92.26211
224.15         89.3965
224.61        90.87686
225.06        94.27315
225.52        97.79411
225.98        99.85123
226.44        100.4204
226.90         100.219
227.36        100.0222
227.81         100.793
228.27         102.829
228.73        105.3371
229.19        107.2838
229.65        107.5769
230.10        106.2709
230.56        104.2622
231.02        102.3285
231.48        101.5401
231.93        101.8794
232.39        102.9455
232.85        104.1347
233.31        104.6364
233.77         104.208
234.22        103.1487
234.68        101.5709
235.14        99.62695
235.60        97.55341
236.05        95.39744
236.51        93.43888
236.97        92.02432
237.43         91.1478
237.88        90.91608
238.34        90.87475
238.80         90.7794
239.26        90.30284
239.71        89.52787
240.17         88.0582
240.63        85.76655
241.08        82.75781
241.54        79.13881
242.00        75.02379
242.46        70.27094
242.91        64.53087
243.37        56.51553
243.83        46.93615
244.28        42.36997
244.74        48.68995
245.20        64.12008
245.66        78.58974
246.11        83.97379
246.57        79.65187
247.03        65.86874
247.48         44.8332
247.94        34.47134
248.40        40.31623
248.85        50.69518
249.31        59.12984
249.77        63.96621
250.22        66.22724
250.68        67.41479
251.14        68.03432
251.59        68.46781
252.05        69.08173
252.51        69.72216
252.96        69.76558
253.42        68.72862
253.88        66.96961
254.33        65.09309
254.79        65.08493
255.25        68.53876
255.70        74.79139
256.16        82.39039
256.62        89.25534
257.07        93.09699
257.53        94.06151
257.99        93.05122
258.44          90.618
258.90        88.41099
259.35        86.48834
259.81        85.39368
260.27        84.60773
260.72        83.73438
261.18        83.07602
261.63        82.17654
262.09        81.75795
262.55        82.10966
263.00         82.9588
263.46        84.24849
263.91        84.95877
264.37        84.40081
264.83        82.58166
265.28        79.85238
265.74        77.35429
266.19        76.06211
266.65        76.21864
267.11        77.24001
267.56        78.38391
268.02        78.65513
268.47        77.82521
268.93        76.26826
269.38        74.39057
269.84        73.06974
270.30         72.5224
270.75        72.46233
271.21        72.54866
271.66        72.24104
272.12        71.41748
272.57        70.25254
273.03        69.00935
273.48        67.95967
273.94        67.26087
274.39        66.74149
274.85        66.31963
275.31        65.78061
275.76        65.03376
276.22        64.19175
276.67         63.2934
277.13        62.57573
277.58        61.98182
278.04        61.51811
278.49        60.95004
278.95        60.10747
279.40        58.91385
279.86         57.5882
280.31         56.2536
280.77        55.30538
281.22        54.69793
281.68        54.36411
282.13        54.09247
282.59        53.67978
283.04        53.03081
283.50        52.27065
283.95        51.42345
284.41        50.61702
284.86        49.84283
285.32        49.11921
285.77        48.41873
286.22        47.80613
286.68        47.30171
287.13        46.85794
287.59        46.47727
288.04        46.07494
288.50        45.65762
288.95        45.18805
289.41        44.69277
289.86        44.12058
290.32        43.52827
290.77        42.91133
291.22        42.33124
291.68        41.84515
292.13        41.45816
292.59        41.17988
293.04        41.00047
293.50        40.93589
293.95        40.96171
294.40        41.06669
294.86        41.20995
295.31        41.33195
295.77        41.41972
296.22        41.48667
296.68        41.54993
297.13        41.62306
297.58        41.72786
298.04        41.87169
298.49        42.07512
298.95        42.41125
299.40        42.86427
299.85        43.40924
300.31        43.98799
300.76        44.49444
301.21        44.90791
301.67        45.28915
302.12        45.62604
302.58        45.98402
303.03        46.35248
303.48        46.73393
303.94        47.19624
304.39        47.79463
304.84        48.53339
305.30        49.37362
305.75        50.17479
306.20        50.75536
306.66         51.1027
307.11        51.25473
307.57        51.33679
308.02        51.45021
308.47        51.65967
308.93         51.9211
309.38         52.2158
309.83        52.58192
310.29        52.99576
310.74         53.4387
311.19         53.7937
311.65        53.86802
312.10        53.62803
312.55        53.14183
313.00        52.58056
313.46        52.20918
313.91        52.07843
314.36        52.13698
314.82        52.25978
315.27        52.26612
315.72        52.09144
316.18        51.81082
316.63         51.4975
317.08        51.27971
317.53        51.18171
317.99        51.14088
318.44        51.09608
318.89        50.94144
319.35        50.65003
319.80        50.26662
320.25        49.83789
320.70        49.43754
321.16        49.08727
321.61        48.77478
322.06        48.48645
322.51        48.20555
322.97        47.91394
323.42        47.62719
323.87        47.33198
324.32        47.01221
324.78        46.65625
325.23        46.28437
325.68         45.8868
326.13        45.46254
326.59         45.0202
327.04        44.59277
327.49        44.21152
327.94        43.93145
328.39        43.75975
328.85        43.65622
329.30        43.62682
329.75        43.60521
330.20        43.56141
330.66        43.48218
331.11        43.37196
331.56        43.17837
332.01        42.89596
332.46        42.53115
332.92        42.12491
333.37        41.77926
333.82        41.52475
334.27        41.36413
334.72         41.2629
335.17        41.15258
335.63        41.00325
336.08        40.84624
336.53        40.73371
336.98        40.77118
337.43        40.96568
337.88          41.273
338.34        41.53777
338.79        41.56201
339.24        41.28492
339.69         40.7697
340.14        40.19821
340.59        39.87988
341.05        39.88482
341.50        40.12797
341.95        40.44213
342.40        40.56342
342.85        40.42887
343.30        40.13921
343.75        39.79092
344.20        39.53817
344.66        39.42787
345.11        39.37608
345.56        39.38423
346.01         39.4573
346.46        39.56698
346.91        39.72216
347.36        39.80242
347.81        39.61301
348.26        39.14429
348.72        38.48571
349.17        37.80599
349.62        37.46262
350.07        37.53719
350.52         37.9034
350.97         38.3842
351.42        38.71211
351.87        38.79766
352.32         38.7107
352.77        38.47642
353.22        38.13847
353.67        37.73848
354.13        37.28563
354.58        36.81183
355.03        36.41837
355.48         36.1354
355.93        35.95543
356.38        35.86279
356.83        35.81684
357.28        35.78892
357.73        35.77223
358.18        35.73312
358.63        35.62252
359.08        35.42845
359.53        35.16342
359.98        34.84408
360.43        34.49851
360.88        34.14429
361.33         33.7823
361.78        33.44318
362.23        33.17675
362.68        32.98826
363.13        32.85625
363.58        32.73755
364.03        32.56054
364.48        32.29987
364.93        31.97172
365.38        31.58004
365.83        31.14284
366.28        30.68198
366.73        30.20007
367.18        29.74244
367.63        29.37478
368.08        29.10944
368.53        28.93779
368.98        28.80167
369.43        28.60202
369.88         28.3172
370.33        27.97212
370.78        27.62637
371.23        27.38705
371.68        27.28082
372.13         27.2667
372.58        27.28873
373.03        27.25644
373.48        27.13723
373.93        26.95728
374.38        26.73528
374.83        26.49656
375.28        26.25209
375.72        25.98413
376.17        25.72323
376.62        25.48015
377.07        25.26715
377.52        25.09054
377.97        24.95282
378.42        24.85264
378.87        24.78215
379.32        24.73114
379.77        24.69236
380.22        24.65371
380.67        24.60991
381.11        24.57142
381.56        24.50403
382.01        24.37555
382.46        24.18331
382.91        23.92727
383.36        23.68338
383.81        23.56565
384.26        23.58825
384.71        23.72848
385.15        23.85136
385.60        23.75465
386.05        23.41088
386.50        22.89119
386.95        22.38732
387.40        22.20159
387.85        22.38297
388.29        22.80966
388.74        23.27997
389.19        23.49727
389.64        23.39809
390.09        23.06919
390.54        22.65438
390.98        22.37614
391.43        22.31682
391.88        22.39338
392.33        22.49198
392.78        22.45181
393.23        22.25397
393.67        21.95456
394.12        21.69424
394.57        21.58876
395.02        21.66017
395.47        21.86002
395.91        22.10326
396.36        22.21709
396.81        22.16267
397.26        21.98777
397.71         21.7849
398.15        21.67595
398.60        21.71271
399.05          21.836
399.50        21.96951
399.95        22.00657
400.39        21.92374
400.84        21.75243
401.29        21.56244
401.74        21.47931
402.18        21.54186
402.63        21.70163
403.08        21.86645
403.53        21.88701
403.97        21.73537
404.42        21.47501
404.87        21.21024
405.32        21.11144
405.76        21.21483
406.21        21.45984
406.66        21.75007
407.11        21.93661
407.55        21.97924
408.00        21.92571
408.45        21.82428
408.90        21.70258
409.34        21.61105
409.79        21.64194
410.24        21.73893
410.68        21.72452
411.13        21.59362
411.58        21.44566
412.03        21.33011
412.47         21.2985
412.92        21.36342
413.37        21.49513
413.81        21.66923
414.26        21.86603
414.71         22.0598
415.15        22.26066
415.60        22.39798
416.05        22.39029
416.49        22.22626
416.94        21.93756
417.39        21.62022
417.83        21.43022
418.28         21.4145
418.73        21.52642
419.17        21.69101
419.62          21.777
420.07        21.75368
420.51        21.66232
420.96        21.55386
421.41        21.48329
421.85        21.46237
422.30        21.48321
422.74        21.52724
423.19        21.60601
423.64        21.70552
424.08        21.83473
424.53         21.9565
424.98        22.03756
425.42        22.07105
425.87        22.06733
426.31        22.03216
426.76        21.98633
427.21        21.92817
427.65        21.84428
428.10         21.7817
428.54        21.78915
428.99        21.87856
429.44        22.12935
429.88        22.39785
430.33        22.31386
430.77        21.94593
431.22        21.74608
431.66        21.78202
432.11        21.90005
432.56        22.06657
433.00         22.4021
433.45        22.70869
433.89        22.58656
434.34        22.16727
434.78        21.98535
435.23        21.73689
435.67        22.54367
436.12        22.16208
436.57        22.13252
437.01        21.89225
437.46        21.80702
437.90        21.90022
438.35        21.97803
438.79        21.99626
439.24        22.01011
439.68        22.01374
440.13        21.81775
440.57        21.55398
441.02        21.78453
441.46         22.3036
441.91        22.42051
442.35        21.60152
442.80        21.34062
443.24        21.42389
443.69        21.38229
444.13        21.20244
444.58        21.10237
445.02        21.10041
445.47        21.19463
445.91        21.33437
446.36        21.38631
446.80        21.32419
447.24         21.2132
447.69        21.10566
448.13        21.03857
448.58        21.03436
449.02        21.07262
449.47        21.12142
449.91        21.12178
450.36        21.06775
450.80        20.97841
451.25        20.89116
451.69        20.84118
452.13        20.84454
452.58         20.8786
453.02        20.93166
453.47        20.99156
453.91        21.04912
454.36        21.10598
454.80        21.13982
455.24        21.11045
455.69          21.024
456.13        20.87633
456.58        20.72806
457.02        20.65786
457.46        20.67681
457.91        20.71217
458.35        20.74073
458.79        20.78228
459.24        20.82049
459.68        20.85675
460.13        20.93479
460.57        20.92424
461.01        20.80293
461.46        21.14851
461.90        21.15861
462.34        20.89554
462.79        21.06497
463.23        20.94942
463.68        20.86892
464.12        20.79187
464.56        20.88845
465.01        21.01539
465.45        21.12743
465.89        21.18034
466.34           21.17
466.78        21.03866
467.22        20.86112
467.67        20.90761
468.11        21.13433
468.55        21.12541
468.99        20.90052
469.44        20.83132
469.88        20.93133
470.32        20.98889
470.77        20.98387
471.21        20.99012
471.65        21.00557
472.10        21.00644
472.54        21.00364
472.98         21.0574
473.42        21.16718
473.87        21.25513
474.31        21.30002
474.75        21.40175
475.20        21.51224
475.64        21.40871
476.08        21.17485
476.52        21.12529
476.97        21.28073
477.41        21.49932
477.85        21.69861
478.29        21.80655
478.74        21.79882
479.18        21.66225
479.62        21.49875
480.06        21.47329
480.50        21.58826
480.95        21.69329
481.39         21.7416
481.83        21.76477
482.27        21.75583
482.72        21.70863
483.16        21.65461
483.60        21.64171
484.04        21.66689
484.48        21.79971
484.93        22.09015
485.37        22.17685
485.81        22.28212
486.25        23.01892
486.69        23.47193
487.14        23.09512
487.58        22.69081
488.02        23.22251
488.46         22.8963
488.90        23.03856
489.34         22.9788
489.79        23.03522
490.23        23.17111
490.67        23.29729
491.11        23.39353
491.55        23.36103
491.99        23.24226
492.43        23.22166
492.88        23.32505
493.32        23.44295
493.76        23.57038
494.20        23.73825
494.64        23.93898
495.08        24.18256
495.52        24.42954
495.96        24.58075
496.41        24.65635
496.85        24.74571
497.29        24.86936
497.73        25.06977
498.17        25.31101
498.61        25.39918
499.05         25.3589
499.49        25.45143
499.93        25.69609
500.37        25.88012
500.82        26.00048
501.26        26.26416
501.70        26.60362
502.14         26.6624
502.58        26.49384
503.02        26.48601
503.46        26.66508
503.90         26.8265
504.34        26.91968
504.78        26.95312
505.22        26.91626
505.66         26.8224
506.10        26.72391
506.54        26.68026
506.98        26.71065
507.42        26.83678
507.86        27.04528
508.30        27.11356
508.74        27.33426
509.18        27.45938
509.62        27.58199
510.06        27.69407
510.50        27.79862
510.94        27.89417
511.38        27.95996
511.82        27.97622
512.26        27.94337
512.70        27.86714
513.14        27.80335
513.58        27.83372
514.02        27.96311
514.46        28.17067
514.90        28.37519
515.34        28.37777
515.78        28.20321
516.22        27.95108
516.66        27.74148
517.10        27.43862
517.54        27.07882
517.98         27.6689
518.42        27.64514
518.86        27.94164
519.30        28.06756
519.74        28.18271
520.18        28.26359
520.62        28.25338
521.06        28.16811
521.50        28.00983
521.93        27.81672
522.37        27.66274
522.81        27.57172
523.25        27.53319
523.69        27.53692
524.13        27.56163
524.57        27.59394
525.01        27.63386
525.45        27.67401
525.89        27.70121
526.32        27.70911
526.76        27.70127
527.20        27.66454
527.64        27.58626
528.08        27.46926
528.52        27.31672
528.96        27.17057
529.40        27.09326
529.83        27.09281
530.27        27.15907
530.71        27.22702
531.15        27.19423
531.59        27.04482
532.03        26.81478
532.46        26.57824
532.90        26.47193
533.34        26.51337
533.78        26.65198
534.22        26.81723
534.66        26.90107
535.09        26.87038
535.53        26.77259
535.97        26.63309
536.41        26.48788
536.85        26.35896
537.28        26.24821
537.72        26.18749
538.16        26.14817
538.60        26.25898
539.04        26.39405
539.47        26.53547
539.91        26.66532
540.35        26.78521
540.79        26.67578
541.22        26.71339
541.66        26.75789
542.10        26.94614
542.54        26.82783
542.97        27.09888
543.41        27.23757
543.85        27.42796
544.29        27.60524
544.72        27.73948
545.16        27.86405
545.60        27.96989
546.04        27.96502
546.47        27.93202
546.91        28.17781
547.35        28.63358
547.79        28.93165
548.22        29.03274
548.66        29.07212
549.10        29.10436
549.53        29.32171
549.97        29.72063
550.41        29.75476
550.84        29.96677
551.28        30.06775
551.72        30.25063
552.15        30.45626
552.59        30.68936
553.03        30.94868
553.46        31.18455
553.90        31.35522
554.34        31.44842
554.77        31.48046
555.21        31.49276
555.65        31.53723
556.08        31.62498
556.52        31.73739
556.96        31.86123
557.39        32.01489
557.83        32.18095
558.27        32.28194
558.70        32.32263
559.14        32.37647
559.57        32.43785
560.01        32.50453
560.45        32.56628
560.88        32.56209
561.32        32.55728
561.75        32.65187
562.19        32.94073
562.63         33.0657
563.06        33.06364
563.50         33.1256
563.93         33.2464
564.37        33.40599
564.80        33.45014
565.24        33.55803
565.68        33.66796
566.11        33.78013
566.55        33.91623
566.98        34.01208
567.42        34.05018
567.85        34.43432
568.29        34.27744
568.72        34.63188
569.16        35.14054
569.60         35.4646
570.03        35.55653
570.47        35.64921
570.90        35.62213
571.34         35.9912
571.77        35.86432
572.21        36.24181
572.64         36.5587
573.08        36.60779
573.51        36.84604
573.95        37.52578
574.38        37.55117
574.82        37.76315
