SpectraSmart Spectrum 2.9.0.0
--------- Device Information -----------
Spectrum Name :  反射率_0
Saving Time :  2024/04/20 00:38:03
Spectro-Module Model Name : SE2030-DUVN
Spectro-Module Serial Number : OS361AC55029948
Wavelength Start : 200
Wavelength End : 1025
Wavelength Unit : Wavelength(nm)
Spectrum Unit : Reflectance(%)
-----------Spectrum Setting ------------
Integration Time : 30ms
Average : 10
Boxcar : 0
Background removal :  enabled
linearity correction :  enabled
SC :  disabled
Intensity correction :  disabled
DWT denoise :  enabled
savitzky-golay :  disabled
FFT :  disabled
Running average :  disabled
Kalman :  disabled
High pass :  disabled
---------------BEGIN--------------------
Wavelength(nm)             Reflectance(%)
200.29               0
200.75        62.76422
201.21        64.41054
201.67        68.28142
202.13        74.96754
202.58        84.45427
203.04        96.77986
203.50        108.1661
203.96        109.9026
204.42        102.1101
204.88        90.72749
205.34        80.90948
205.80        74.89288
206.26        71.61785
206.72         69.7243
207.18        69.14944
207.64        70.04264
208.10        72.20737
208.55         75.7278
209.01         78.3709
209.47        79.16626
209.93        78.42604
210.39          76.478
210.85        74.21054
211.31        72.67981
211.77        71.91682
212.23        71.61316
212.69        71.52997
213.14        71.20618
213.60        70.34074
214.06        70.01544
214.52         70.1447
214.98         70.6493
215.44        71.48511
215.90        72.31833
216.36        73.79529
216.81        76.94231
217.27        81.38979
217.73        86.71897
218.19        90.64359
218.65        90.18781
219.11        85.05952
219.57        75.61604
220.02         64.9048
220.48        60.82678
220.94        66.11854
221.40        79.09423
221.86        94.38543
222.32        103.7572
222.77        105.1478
223.23        101.2631
223.69        95.78844
224.15        93.97474
224.61        96.40218
225.06        100.5686
225.52        104.5425
225.98        106.5924
226.44        106.7061
226.90        105.5565
227.36        104.2192
227.81        104.2601
228.27        106.1043
228.73        108.7986
229.19        110.7248
229.65        110.0435
230.10        106.9532
230.56        102.8446
231.02        99.11564
231.48        97.58266
231.93        98.24163
232.39        100.3013
232.85        102.7837
233.31        104.3151
233.77        104.4733
234.22        103.7626
234.68        102.2998
235.14        100.2465
235.60        97.90459
236.05         95.2626
236.51        92.89287
236.97        91.64444
237.43         91.6779
237.88        93.22718
238.34        95.53948
238.80        97.01201
239.26        96.41306
239.71         94.0276
240.17        90.40437
240.63        87.01287
241.08        84.35661
241.54         82.0528
242.00        79.81312
242.46        76.84261
242.91        72.57685
243.37         66.1932
243.83        58.08963
244.28        53.14431
244.74        56.10947
245.20         66.0668
245.66        75.82316
246.11        79.17417
246.57        75.33477
247.03        64.48864
247.48        48.62786
247.94        41.94234
248.40        47.88083
248.85        57.00587
249.31        64.10181
249.77        67.89864
250.22        69.34934
250.68        69.60642
251.14        69.49572
251.59        70.35554
252.05        72.87824
252.51         76.6933
252.96        80.10315
253.42        80.58495
253.88        78.05111
254.33         73.9815
254.79        71.40202
255.25        72.90864
255.70        78.03976
256.16        85.05953
256.62        91.91434
257.07        96.36633
257.53        98.40454
257.99        98.75543
258.44        97.55266
258.90        95.94822
259.35        93.99004
259.81        92.55901
260.27        91.37263
260.72        90.22912
261.18        89.45042
261.63        88.46772
262.09         87.9474
262.55        88.08339
263.00        88.61213
263.46        89.57151
263.91        89.98651
264.37        89.24088
264.83        87.33737
265.28         84.5962
265.74        82.13662
266.19        80.88825
266.65        81.07837
267.11        82.09686
267.56        83.22435
268.02        83.50793
268.47        82.71578
268.93        81.23615
269.38        79.36927
269.84        77.82057
270.30        76.80867
270.75        76.11882
271.21        75.66164
271.66        75.26064
272.12        74.82938
272.57        74.39445
273.03        73.92432
273.48        73.21978
273.94        72.34348
274.39        71.30002
274.85        70.22065
275.31         69.1873
275.76        68.19027
276.22        67.23534
276.67        66.33376
277.13        65.69407
277.58        65.21925
278.04        64.93924
278.49         64.5173
278.95        63.63614
279.40        62.20865
279.86        60.50719
280.31        58.79259
280.77        57.67167
281.22        57.12244
281.68        57.00911
282.13        56.98561
282.59        56.65085
283.04        55.87487
283.50        54.86612
283.95        53.75686
284.41         52.8367
284.86        52.12188
285.32        51.55909
285.77        51.04996
286.22        50.56021
286.68        50.07759
287.13        49.58931
287.59        49.10697
288.04        48.54642
288.50        47.93382
288.95        47.23784
289.41        46.52901
289.86        45.82738
290.32        45.20731
290.77        44.64323
291.22        44.16753
291.68        43.78809
292.13        43.48984
292.59        43.29558
293.04        43.18587
293.50        43.16525
293.95         43.2113
294.40        43.31466
294.86        43.46028
295.31        43.63316
295.77        43.82724
296.22        44.03926
296.68        44.25867
297.13        44.45266
297.58        44.62491
298.04        44.79313
298.49        44.98115
298.95        45.27144
299.40        45.65374
299.85        46.09989
300.31        46.56367
300.76        46.95721
301.21         47.2631
301.67        47.53814
302.12         47.7565
302.58        47.96393
303.03        48.14476
303.48         48.3131
303.94        48.54188
304.39        48.89328
304.84        49.37812
305.30        49.95533
305.75          50.499
306.20        50.85121
306.66        51.00093
307.11        50.97908
307.57         50.8852
308.02        50.78013
308.47        50.72222
308.93         50.6832
309.38        50.67298
309.83        50.77047
310.29        50.96655
310.74        51.23893
311.19        51.45664
311.65        51.40412
312.10        51.04483
312.55        50.45284
313.00         49.8197
313.46        49.44181
313.91        49.36737
314.36        49.52309
314.82        49.74334
315.27        49.78313
315.72        49.56256
316.18        49.17969
316.63        48.73682
317.08        48.40416
317.53        48.22489
317.99         48.1297
318.44         48.0657
318.89        47.94044
319.35        47.72353
319.80        47.45047
320.25        47.14851
320.70        46.85799
321.16        46.58719
321.61        46.32885
322.06        46.06218
322.51        45.76241
322.97        45.41948
323.42        45.05725
323.87        44.69652
324.32         44.3761
324.78        44.09842
325.23        43.86728
325.68        43.64829
326.13        43.39293
326.59        43.08795
327.04        42.77308
327.49        42.47275
327.94        42.23566
328.39        42.07046
328.85        41.93305
329.30        41.84953
329.75        41.79612
330.20         41.7562
330.66        41.71449
331.11        41.64921
331.56        41.46049
332.01         41.1357
332.46        40.70008
332.92        40.23289
333.37        39.89743
333.82        39.74094
334.27        39.74368
334.72        39.83656
335.17        39.89172
335.63        39.85472
336.08        39.76866
336.53        39.69191
336.98        39.74377
337.43        39.94058
337.88         40.2326
338.34        40.47799
338.79        40.50316
339.24        40.25243
339.69        39.78564
340.14        39.27113
340.59        38.98971
341.05        39.00473
341.50        39.24423
341.95        39.54711
342.40        39.65891
342.85        39.52302
343.30        39.23539
343.75        38.90735
344.20        38.71832
344.66        38.71318
345.11        38.79496
345.56        38.93151
346.01        39.07378
346.46        39.18274
346.91         39.2881
347.36        39.29572
347.81        39.05172
348.26        38.56294
348.72        37.91026
349.17        37.26888
349.62        37.00372
350.07        37.19201
350.52        37.70454
350.97        38.34019
351.42        38.79548
351.87        38.97363
352.32        38.95031
352.77        38.76956
353.22        38.50865
353.67        38.21389
354.13        37.87973
354.58        37.51892
355.03        37.20341
355.48        36.95774
355.93        36.78915
356.38        36.69207
356.83        36.64071
357.28        36.61413
357.73         36.6002
358.18        36.57667
358.63        36.51245
359.08        36.39425
359.53        36.22791
359.98        36.00103
360.43        35.69756
360.88        35.32788
361.33        34.90638
361.78        34.49548
362.23        34.19682
362.68        34.03108
363.13        33.96525
363.58         33.9314
364.03         33.8189
364.48        33.59393
364.93        33.28411
365.38        32.91805
365.83        32.55343
366.28        32.21568
366.73        31.88585
367.18        31.57267
367.63        31.28815
368.08        31.03343
368.53        30.82049
368.98        30.61763
369.43        30.36599
369.88        30.05802
370.33        29.70783
370.78        29.37386
371.23        29.16008
371.68        29.08937
372.13        29.12502
372.58        29.19781
373.03        29.19291
373.48        29.07215
373.93        28.86556
374.38        28.61189
374.83        28.36844
375.28        28.15472
375.72        27.94782
376.17        27.75617
376.62         27.5545
377.07        27.34563
377.52        27.14173
377.97        26.97768
378.42         26.9017
378.87        26.91107
379.32        26.97838
379.77        27.04255
380.22        27.01273
380.67        26.87037
381.11        26.64784
381.56        26.37864
382.01         26.1454
382.46         25.9742
382.91        25.83426
383.36        25.72262
383.81        25.62946
384.26         25.5476
384.71        25.50037
385.15        25.43494
385.60        25.27483
386.05        25.01726
386.50        24.68435
386.95         24.3981
387.40        24.35335
387.85        24.56718
388.29         24.9509
388.74        25.34288
389.19        25.49769
389.64        25.36736
390.09        25.02147
390.54        24.58918
390.98        24.27382
391.43         24.1548
391.88         24.1571
392.33         24.1848
392.78        24.09918
393.23        23.88178
393.67        23.57931
394.12        23.30677
394.57        23.13705
395.02        23.08833
395.47        23.12746
395.91        23.20614
396.36        23.22026
396.81        23.15091
397.26        23.01815
397.71        22.88643
398.15        22.83379
398.60        22.89777
399.05        23.03575
399.50        23.15863
399.95        23.13935
400.39        22.95788
400.84        22.64747
401.29        22.32482
401.74        22.20307
402.18        22.33958
402.63         22.6572
403.08        22.99467
403.53        23.09592
403.97        22.90764
404.42        22.52435
404.87        22.09797
405.32        21.87789
405.76        21.92474
406.21         22.1549
406.66        22.44518
407.11        22.60469
407.55        22.58288
408.00         22.4461
408.45        22.26328
408.90        22.09453
409.34        21.99911
409.79        22.05319
410.24        22.18398
410.68        22.18969
411.13        22.05792
411.58        21.89962
412.03        21.75836
412.47        21.67603
412.92        21.66954
413.37        21.71197
413.81        21.81043
414.26        21.99378
414.71        22.24315
415.15         22.5564
415.60        22.81809
416.05        22.86954
416.49        22.67972
416.94        22.30137
417.39        21.87744
417.83        21.64086
418.28        21.65706
418.73        21.85325
419.17        22.11391
419.62        22.24621
420.07        22.20347
420.51        22.04795
420.96        21.85818
421.41        21.73068
421.85          21.688
422.30        21.70758
422.74        21.75275
423.19         21.8086
423.64        21.85589
424.08          21.916
424.53         21.9652
424.98        21.99429
425.42        22.00479
425.87        21.99602
426.31        21.96968
426.76         21.9407
427.21        21.90158
427.65        21.84159
428.10        21.79018
428.54        21.76723
428.99        21.78512
429.44        21.93627
429.88        22.11078
430.33        21.99026
430.77        21.64953
431.22        21.51838
431.66        21.63857
432.11        21.81946
432.56        22.01914
433.00         22.3542
433.45        22.62513
433.89        22.53214
434.34        22.22948
434.78        21.99869
435.23        21.67137
435.67        22.79892
436.12        22.14894
436.57        22.10359
437.01        21.80882
437.46        21.67865
437.90        21.73573
438.35        21.79187
438.79        21.80821
439.24         21.8171
439.68        21.81259
440.13        21.61815
440.57          21.359
441.02        21.58294
441.46        22.08625
441.91         22.1827
442.35        21.36841
442.80        21.15626
443.24        21.33495
443.69        21.42505
444.13        21.36678
444.58         21.3064
445.02         21.2477
445.47        21.21189
445.91        21.19383
446.36        21.13499
446.80        21.03201
447.24        20.93077
447.69        20.85472
448.13        20.79495
448.58        20.76245
449.02        20.75414
449.47        20.75897
449.91        20.74882
450.36        20.72446
450.80        20.69101
451.25         20.6669
451.69        20.66091
452.13         20.6818
452.58        20.71507
453.02         20.7616
453.47        20.82846
453.91        20.91111
454.36        21.00384
454.80        21.07386
455.24        21.06452
455.69        20.97648
456.13        20.81066
456.58        20.63614
457.02        20.54316
457.46        20.54624
457.91        20.57117
458.35        20.58824
458.79        20.60685
459.24        20.61045
459.68        20.60511
460.13        20.64657
460.57        20.62498
461.01         20.5218
461.46          20.901
461.90        20.95479
462.34        20.71884
462.79        20.88674
463.23        20.75233
463.68         20.6483
464.12        20.56958
464.56        20.68987
465.01        20.85802
465.45        21.01019
465.89         21.0769
466.34        21.05108
466.78        20.88476
467.22        20.67109
467.67        20.70761
468.11        20.95783
468.55        20.99902
468.99        20.83004
469.44        20.79029
469.88        20.88488
470.32        20.91103
470.77        20.86183
471.21        20.83134
471.65        20.82478
472.10        20.81474
472.54        20.80514
472.98        20.84485
473.42        20.93211
473.87        20.99503
474.31        21.02459
474.75        21.13581
475.20        21.28252
475.64         21.2366
476.08         21.0626
476.52        21.04738
476.97        21.20663
477.41        21.40647
477.85        21.57907
478.29        21.67727
478.74        21.68301
479.18        21.57431
479.62        21.44251
480.06        21.43631
480.50        21.55533
480.95        21.65827
481.39        21.70013
481.83        21.71461
482.27        21.69454
482.72        21.62766
483.16        21.55701
483.60        21.54296
484.04        21.58481
484.48        21.76616
484.93        22.11903
485.37        22.15193
485.81        22.09145
486.25        22.68577
486.69        23.46522
487.14        22.74511
487.58        22.40485
488.02        23.20387
488.46         22.7279
488.90        22.91559
489.34        22.81533
489.79        22.91959
490.23        23.16028
490.67        23.30135
491.11        23.34878
491.55        23.36303
491.99        23.36413
492.43        23.36996
492.88          23.395
493.32        23.41378
493.76        23.45388
494.20        23.57611
494.64        23.78762
495.08        24.06501
495.52        24.35411
495.96        24.58779
496.41        24.74905
496.85        24.80895
497.29        24.81813
497.73        24.97545
498.17         25.2593
498.61        25.39215
499.05        25.38335
499.49        25.50154
499.93        25.75833
500.37        25.95595
500.82         26.0932
501.26        26.33816
501.70        26.64393
502.14        26.74685
502.58        26.67377
503.02         26.6909
503.46        26.81644
503.90        26.90919
504.34        26.94431
504.78          26.946
505.22        26.91382
505.66        26.85425
506.10        26.79604
506.54        26.78006
506.98         26.8205
507.42        26.90971
507.86        27.03711
508.30        27.18277
508.74        27.33187
509.18        27.47925
509.62        27.61807
510.06        27.73883
510.50        27.83899
510.94        27.92418
511.38        27.97874
511.82        27.98083
512.26        27.93452
512.70        27.84871
513.14         27.7806
513.58        27.81415
514.02        27.95565
514.46        28.18242
514.90        28.41903
515.34        28.47593
515.78        28.37483
516.22         28.2064
516.66        28.07088
517.10        27.80388
517.54         27.4346
517.98        27.97433
518.42        27.88192
518.86        28.11221
519.30        28.18846
519.74         28.2699
520.18        28.33274
520.62        28.31812
521.06        28.23994
521.50        28.09778
521.93        27.93524
522.37        27.83335
522.81        27.81094
523.25        27.85117
523.69        27.91453
524.13        27.93682
524.57        27.90051
525.01        27.82112
525.45        27.73303
525.89        27.69062
526.32        27.70359
526.76        27.75513
527.20        27.79829
527.64        27.76407
528.08        27.63956
528.52         27.4479
528.96        27.24829
529.40        27.12872
529.83        27.10713
530.27        27.16397
530.71         27.2342
531.15         27.2177
531.59        27.09523
532.03        26.90024
532.46        26.69952
532.90        26.61666
533.34         26.6653
533.78        26.79898
534.22        26.94518
534.66        26.99435
535.09        26.91651
535.53        26.76024
535.97        26.56787
536.41        26.40159
536.85        26.28807
537.28        26.22356
537.72         26.2157
538.16        26.19592
538.60         26.2849
539.04        26.36786
539.47        26.45439
539.91        26.56952
540.35        26.72261
540.79        26.67885
541.22        26.78645
541.66        26.86275
542.10        27.03544
542.54        26.86883
542.97        27.08273
543.41        27.18883
543.85         27.3817
544.29        27.58579
544.72         27.7593
545.16        27.91822
545.60        28.04724
546.04        28.05838
546.47        28.03839
546.91        28.30081
547.35        28.77713
547.79        29.09427
548.22        29.20523
548.66        29.23679
549.10        29.24385
549.53        29.42413
549.97        29.78492
550.41        29.79611
550.84        30.00462
551.28        30.12167
551.72        30.33267
552.15        30.54617
552.59        30.75934
553.03        31.05145
553.46        31.25081
553.90         31.4244
554.34        31.52476
554.77        31.56681
555.21        31.59382
555.65        31.66299
556.08        31.78543
556.52        31.94122
556.96        32.10651
557.39        32.27624
557.83        32.42779
558.27        32.50055
558.70        32.52235
559.14         32.5284
559.57        32.63978
560.01        32.74751
560.45        32.84845
560.88        32.83863
561.32        32.78038
561.75        32.77459
562.19        32.94974
562.63        33.04029
563.06        33.07567
563.50        33.14219
563.93        33.23341
564.37        33.40081
564.80        33.48775
565.24        33.63058
565.68        33.75293
566.11        33.86366
566.55        33.98546
566.98        34.02135
567.42        33.98301
567.85        34.39201
568.29        34.33395
568.72        34.68779
569.16        35.10024
569.60        35.39494
570.03        35.51776
570.47        35.58538
570.90        35.46934
571.34        35.87719
571.77        35.66372
572.21        35.99453
572.64        36.35445
573.08        36.31609
573.51        36.50262
573.95        37.16506
574.38        37.37185
574.82        37.71346
