SpectraSmart Spectrum 2.9.0.0
--------- Device Information -----------
Spectrum Name :  反射率_0
Saving Time :  2024/04/20 00:58:29
Spectro-Module Model Name : SE2030-DUVN
Spectro-Module Serial Number : OS361AC55029948
Wavelength Start : 200
Wavelength End : 1025
Wavelength Unit : Wavelength(nm)
Spectrum Unit : Reflectance(%)
-----------Spectrum Setting ------------
Integration Time : 30ms
Average : 10
Boxcar : 0
Background removal :  enabled
linearity correction :  enabled
SC :  disabled
Intensity correction :  disabled
DWT denoise :  enabled
savitzky-golay :  disabled
FFT :  disabled
Running average :  disabled
Kalman :  disabled
High pass :  disabled
---------------BEGIN--------------------
Wavelength(nm)             Reflectance(%)
200.29               0
200.75        49.88589
201.21        47.26565
201.67        46.00307
202.13         48.2046
202.58        54.87252
203.04        66.38111
203.50        79.16696
203.96        83.55464
204.42        78.15604
204.88        68.57741
205.34        59.61827
205.80        53.35331
206.26        48.78082
206.72        44.23701
207.18        39.22654
207.64        35.39889
208.10        35.28419
208.55        39.16964
209.01        44.22406
209.47        48.52725
209.93        51.69717
210.39        53.95457
210.85        55.02758
211.31        54.71212
211.77         52.9549
212.23        49.43639
212.69         44.5985
213.14        41.67957
213.60        42.17318
214.06        45.03279
214.52        47.98863
214.98        49.70972
215.44        50.36173
215.90        50.12169
216.36         49.9901
216.81        51.86591
217.27        55.89698
217.73        61.26807
218.19        65.23215
218.65        64.21064
219.11         57.6146
219.57        45.76245
220.02        31.79099
220.48          24.185
220.94        26.00537
221.40        35.72446
221.86        47.52934
222.32        52.26783
222.77         48.0881
223.23        38.35199
223.69        28.41035
224.15        25.78986
224.61        30.43594
225.06        38.06612
225.52        44.83177
225.98        47.72158
226.44        46.71175
226.90        43.30513
227.36        38.63784
227.81        34.68422
228.27        32.71701
228.73         32.0183
229.19        32.35144
229.65        33.45502
230.10        34.97659
230.56        36.78591
231.02        38.57771
231.48        39.93924
231.93         40.7775
232.39        41.21874
232.85        41.17788
233.31        40.56833
233.77         39.4623
234.22        37.89928
234.68        36.31028
235.14        35.35899
235.60        35.24797
236.05        35.85239
236.51        36.80385
236.97        37.47699
237.43        37.73096
237.88        37.81641
238.34        37.81655
238.80        38.26187
239.26        39.29024
239.71        40.41645
240.17        41.47611
240.63        42.80885
241.08        44.48591
241.54        46.53669
242.00        47.86658
242.46        46.26752
242.91        40.52946
243.37           29.17
243.83        12.91233
244.28        2.073982
244.74        7.513791
245.20        27.73469
245.66        48.67692
246.11        58.08813
246.57        55.32392
247.03        41.76466
247.48        21.50912
247.94        15.84374
248.40        27.75441
248.85        42.38198
249.31        52.85456
249.77        57.90449
250.22        59.03662
250.68        58.05785
251.14         55.4773
251.59        52.10216
252.05        49.00713
252.51        46.09404
252.96        43.65943
253.42        42.54104
253.88         42.8618
254.33        44.32804
254.79        47.24083
255.25        51.57763
255.70        56.72718
256.16        61.96891
256.62        65.80171
257.07        66.58832
257.53        64.65278
257.99        60.80382
258.44        56.27609
258.90        53.37457
259.35        51.97349
259.81        51.71251
260.27        51.44119
260.72         50.1759
261.18        48.16315
261.63        45.44792
262.09        43.10562
262.55        42.14166
263.00        42.49313
263.46        43.73055
263.91        44.68092
264.37        44.18876
264.83        42.28946
265.28        39.48657
265.74        36.98914
266.19        36.07663
266.65        36.87412
267.11        38.68159
267.56        40.56646
268.02        41.19697
268.47        40.34317
268.93        38.47833
269.38        36.15132
269.84        34.48225
270.30        33.79084
270.75         33.7538
271.21        33.99733
271.66        33.97051
272.12        33.49973
272.57        32.77455
273.03        32.01452
273.48        31.44876
273.94        31.17729
274.39        31.07141
274.85        30.96296
275.31        30.60525
275.76        29.94653
276.22        29.09075
276.67        28.24981
277.13        27.82723
277.58        27.81507
278.04        28.09773
278.49        28.30993
278.95        27.98919
279.40        27.06711
279.86        25.81873
280.31        24.54315
280.77        23.78457
281.22        23.57642
281.68        23.74524
282.13         24.0538
282.59        24.18314
283.04        24.03805
283.50         23.7571
283.95        23.38337
284.41        23.00494
284.86        22.64323
285.32         22.2783
285.77         21.9601
286.22        21.83748
286.68        21.91006
287.13        22.11869
287.59        22.32662
288.04        22.30931
288.50        22.05095
288.95        21.60313
289.41        21.11865
289.86        20.76398
290.32        20.63091
290.77        20.64867
291.22        20.77612
291.68        20.91954
292.13        21.04974
292.59         21.2018
293.04        21.39497
293.50        21.66783
293.95        22.01471
294.40        22.40314
294.86        22.78968
295.31        23.12514
295.77        23.39824
296.22        23.62542
296.68        23.83382
297.13        24.04328
297.58        24.27675
298.04        24.53885
298.49        24.83059
298.95        25.18597
299.40        25.59208
299.85        26.03508
300.31         26.4876
300.76        26.90993
301.21        27.28395
301.67        27.63639
302.12        27.93532
302.58        28.18172
303.03        28.36633
303.48        28.50811
303.94        28.67956
304.39        28.95832
304.84        29.35962
305.30        29.84328
305.75        30.31079
306.20        30.62735
306.66        30.78055
307.11         30.8031
307.57         30.7721
308.02        30.74075
308.47          30.755
308.93        30.79059
309.38        30.85792
309.83        31.01535
310.29         31.2516
310.74        31.55288
311.19        31.81852
311.65        31.88571
312.10        31.72812
312.55        31.39774
313.00        31.02868
313.46        30.83039
313.91        30.83589
314.36        30.99578
314.82         31.2022
315.27        31.29909
315.72        31.23065
316.18        31.05747
316.63        30.83844
317.08        30.66817
317.53        30.57138
317.99         30.5052
318.44        30.44754
318.89        30.35698
319.35        30.22206
319.80        30.06677
320.25        29.89466
320.70        29.70746
321.16        29.50779
321.61        29.29498
322.06         29.0894
322.51        28.92988
322.97        28.81443
323.42        28.73483
323.87        28.64556
324.32        28.47722
324.78         28.2099
325.23        27.87328
325.68        27.49999
326.13         27.1514
326.59         26.8557
327.04        26.62309
327.49        26.44735
327.94        26.31752
328.39        26.22494
328.85        26.15354
329.30        26.13735
329.75        26.19057
330.20        26.29849
330.66        26.42083
331.11        26.50205
331.56        26.40842
332.01        26.11393
332.46        25.65463
332.92        25.12257
333.37        24.68267
333.82        24.39985
334.27        24.25777
334.72        24.20609
335.17        24.14751
335.63        24.04043
336.08        23.91228
336.53        23.81725
336.98        23.85159
337.43        24.02306
337.88        24.29381
338.34        24.50714
338.79         24.4602
339.24        24.10012
339.69        23.49069
340.14        22.85595
340.59        22.57149
341.05         22.7109
341.50        23.16621
341.95        23.69225
342.40        23.90573
342.85        23.71936
343.30        23.26675
343.75        22.71953
344.20        22.35848
344.66        22.26204
345.11        22.30544
345.56        22.42896
346.01        22.53888
346.46        22.58377
346.91        22.61449
347.36        22.55199
347.81        22.25977
348.26        21.74994
348.72        21.09745
349.17        20.46484
349.62        20.20525
350.07        20.39465
350.52        20.91047
350.97         21.5621
351.42        22.06141
351.87        22.31383
352.32        22.38656
352.77        22.31333
353.22        22.15554
353.67        21.95063
354.13        21.69145
354.58        21.39396
355.03        21.12801
355.48        20.92003
355.93        20.77958
356.38        20.70247
356.83        20.66579
357.28        20.65253
357.73        20.65272
358.18        20.65725
358.63        20.65286
359.08        20.62898
359.53        20.58811
359.98         20.4962
360.43        20.30494
360.88        20.02007
361.33        19.66368
361.78         19.3235
362.23        19.14279
362.68        19.14389
363.13        19.27036
363.58        19.42258
364.03        19.44521
364.48        19.29511
364.93        19.02045
365.38        18.66313
365.83        18.29943
366.28        17.97359
366.73        17.67305
367.18        17.42728
367.63        17.28005
368.08        17.23038
368.53        17.26542
368.98        17.33883
369.43        17.37088
369.88        17.34032
370.33        17.26817
370.78        17.16481
371.23        17.05663
371.68        16.95614
372.13        16.84403
372.58        16.75204
373.03        16.73679
373.48        16.79724
373.93        16.91396
374.38        17.00559
374.83        16.94394
375.28        16.71036
375.72        16.34271
376.17        15.95301
376.62        15.68162
377.07        15.57625
377.52        15.59532
377.97        15.69259
378.42         15.7946
378.87        15.86592
379.32        15.91635
379.77        15.94653
380.22        15.95571
380.67         15.9441
381.11        15.91302
381.56        15.83229
382.01        15.67654
382.46        15.44993
382.91        15.16219
383.36        14.89215
383.81         14.7533
384.26        14.76216
384.71        14.89557
385.15        15.03257
385.60        14.98588
386.05        14.72668
386.50        14.31508
386.95        13.91106
387.40        13.76771
387.85        13.92654
388.29        14.29029
388.74        14.68132
389.19        14.85426
389.64         14.7587
390.09        14.46966
390.54        14.11712
390.98        13.90318
391.43        13.89376
391.88        14.00913
392.33        14.14044
392.78        14.13383
393.23        13.96913
393.67        13.70456
394.12        13.45266
394.57        13.31457
395.02         13.3115
395.47        13.40232
395.91        13.52944
396.36        13.57945
396.81        13.52481
397.26        13.39641
397.71        13.25134
398.15        13.16167
398.60         13.1606
399.05         13.2151
399.50        13.27064
399.95        13.25052
400.39        13.13912
400.84        12.95857
401.29        12.77728
401.74        12.71977
402.18        12.81947
402.63        13.02682
403.08        13.23907
403.53        13.29218
403.97        13.15473
404.42        12.89093
404.87        12.60622
405.32        12.47498
405.76        12.53724
406.21        12.72879
406.66        12.96529
407.11        13.11562
407.55        13.14295
408.00        13.09472
408.45        12.99828
408.90        12.86723
409.34        12.73921
409.79        12.66658
410.24        12.64865
410.68        12.63243
411.13         12.6183
411.58        12.65122
412.03        12.70562
412.47        12.71634
412.92        12.66966
413.37        12.57813
413.81        12.49194
414.26         12.5017
414.71        12.61613
415.15        12.81446
415.60        13.00253
416.05         13.0497
416.49         12.9243
416.94        12.67676
417.39        12.40136
417.83        12.25045
418.28        12.26785
418.73        12.39623
419.17        12.56577
419.62        12.65549
420.07        12.63695
420.51        12.55089
420.96        12.43139
421.41        12.31387
421.85        12.21284
422.30         12.1253
422.74        12.06051
423.19        12.05686
423.64        12.10929
424.08        12.21695
424.53        12.32965
424.98        12.37839
425.42        12.34696
425.87        12.25922
426.31        12.14652
426.76        12.06803
427.21        12.03312
427.65        12.01734
428.10        12.03624
428.54        12.09396
428.99        12.18461
429.44        12.35898
429.88        12.53208
430.33        12.48405
430.77        12.25774
431.22        12.10882
431.66        12.08875
432.11         12.1396
432.56        12.25174
433.00         12.4759
433.45        12.67622
433.89        12.65143
434.34        12.47418
434.78         12.2743
435.23        12.05258
435.67        12.62607
436.12        12.23262
436.57        12.18481
437.01        12.00679
437.46        11.92248
437.90        11.94092
438.35        11.95988
438.79        11.96421
439.24        11.98325
439.68        12.01108
440.13        11.94208
440.57        11.82323
441.02         11.9232
441.46        12.12428
441.91        12.06628
442.35        11.50825
442.80        11.31174
443.24        11.36281
443.69        11.39723
444.13        11.37239
444.58        11.35321
445.02        11.33277
445.47        11.32595
445.91        11.32579
446.36        11.29553
446.80        11.23031
447.24        11.15292
447.69        11.07992
448.13        11.00986
448.58        10.95429
449.02        10.91594
449.47        10.88806
449.91        10.85369
450.36        10.81422
450.80        10.76842
451.25        10.74318
451.69        10.76694
452.13        10.84368
452.58        10.95364
453.02        11.05855
453.47        11.09631
453.91        11.05769
454.36        10.96169
454.80        10.84329
455.24        10.76432
455.69        10.74825
456.13        10.76288
456.58        10.80154
457.02        10.84791
457.46        10.89235
457.91        10.91599
458.35        10.91509
458.79        10.90552
459.24        10.88861
459.68        10.85941
460.13        10.86302
460.57        10.86326
461.01        10.85378
461.46        11.12146
461.90        11.22098
462.34        11.13039
462.79        11.21563
463.23        11.10902
463.68        11.00154
464.12        10.90881
464.56        10.93556
465.01        10.99273
465.45        11.05707
465.89        11.10208
466.34        11.12255
466.78        11.09419
467.22        11.04065
467.67        11.07864
468.11         11.1806
468.55        11.13122
468.99        10.97205
469.44        10.94831
469.88        11.07498
470.32        11.22201
470.77        11.33613
471.21        11.39435
471.65           11.38
472.10        11.30516
472.54        11.20496
472.98        11.16506
473.42        11.20313
473.87        11.26093
474.31        11.31949
474.75        11.41535
475.20         11.5161
475.64        11.50816
476.08        11.42931
476.52        11.43873
476.97        11.54582
477.41        11.67465
477.85        11.78669
478.29        11.85617
478.74        11.87213
479.18        11.82061
479.62         11.7516
480.06        11.74776
480.50        11.80876
480.95        11.85715
481.39        11.86632
481.83        11.85178
482.27        11.81212
482.72        11.74626
483.16        11.68741
483.60        11.68784
484.04        11.74301
484.48        11.91439
484.93        12.22027
485.37         12.3352
485.81        12.27239
486.25        12.92008
486.69        12.92603
487.14        12.60098
487.58        12.49647
488.02        13.49974
488.46         13.0139
488.90         13.1156
489.34        12.97463
489.79        13.08294
490.23        13.38483
490.67        13.56893
491.11        13.60353
491.55        13.50634
491.99         13.3368
492.43        13.26266
492.88        13.31827
493.32        13.38329
493.76        13.46356
494.20        13.62769
494.64        13.86964
495.08        14.15778
495.52        14.44196
495.96        14.65889
496.41        14.79297
496.85        14.83427
497.29        14.82751
497.73        14.91813
498.17        15.10436
498.61        15.21616
499.05        15.25752
499.49        15.38857
499.93        15.61272
500.37        15.79818
500.82        15.93729
501.26        16.15092
501.70        16.39532
502.14        16.45214
502.58         16.3511
503.02        16.32932
503.46        16.40686
503.90        16.46209
504.34        16.48087
504.78        16.49427
505.22        16.50175
505.66         16.5037
506.10        16.51221
506.54        16.54202
506.98        16.59836
507.42        16.67853
507.86        16.77777
508.30        16.88755
508.74        17.00001
509.18        17.11005
509.62        17.21492
510.06        17.31127
510.50        17.39859
510.94        17.48176
511.38         17.5463
511.82        17.57031
512.26         17.5536
512.70        17.50079
513.14        17.45624
513.58        17.48671
514.02        17.59531
514.46        17.76292
514.90        17.92559
515.34         17.9256
515.78        17.76397
516.22        17.56466
516.66        17.42266
517.10        17.13347
517.54        16.72328
517.98        17.35821
518.42        17.26709
518.86        17.53961
519.30        17.62811
519.74        17.71428
520.18        17.77643
520.62        17.75777
521.06        17.67722
521.50         17.5325
521.93        17.36814
522.37        17.26752
522.81        17.24878
523.25        17.29308
523.69        17.36228
524.13        17.39373
524.57        17.36888
525.01        17.30351
525.45        17.22256
525.89        17.16547
526.32        17.14158
526.76        17.13948
527.20         17.1309
527.64        17.07648
528.08        16.96861
528.52        16.81959
528.96        16.66936
529.40        16.57608
529.83        16.55057
530.27        16.58048
530.71        16.61251
531.15        16.56308
531.59        16.42027
532.03        16.21457
532.46        16.01275
532.90        15.93401
533.34        15.99224
533.78        16.14162
534.22        16.31239
534.66        16.39846
535.09        16.36874
535.53        16.26448
535.97        16.11777
536.41        15.97656
536.85        15.86502
537.28        15.77985
537.72        15.73607
538.16        15.70891
538.60        15.77335
539.04        15.85515
539.47        15.95246
539.91        16.06583
540.35        16.19518
540.79        16.20138
541.22        16.28935
541.66        16.33803
542.10        16.42669
542.54        16.29411
542.97        16.39442
543.41        16.46067
543.85        16.61627
544.29        16.80794
544.72        16.99199
545.16        17.14925
545.60        17.26395
546.04           17.29
546.47        17.29337
546.91        17.48936
547.35        17.83992
547.79        18.10467
548.22        18.24284
548.66        18.31636
549.10        18.35818
549.53        18.49961
549.97        18.75333
550.41         18.7937
550.84        18.96914
551.28         19.0923
551.72        19.28011
552.15        19.48758
552.59        19.71128
553.03        19.95081
553.46        20.16994
553.90        20.33364
554.34        20.43333
554.77        20.47781
555.21        20.50044
555.65        20.54348
556.08        20.61736
556.52        20.71379
556.96        20.81461
557.39        20.91766
557.83        21.01085
558.27        21.04611
558.70        21.05218
559.14        21.11429
559.57         21.2322
560.01        21.39011
560.45        21.53808
560.88        21.57234
561.32        21.52813
561.75        21.48464
562.19        21.55066
562.63        21.58816
563.06        21.62725
563.50        21.71423
563.93        21.83093
564.37        21.98774
564.80        22.07379
565.24        22.18571
565.68        22.28324
566.11        22.37895
566.55        22.49064
566.98        22.57081
567.42        22.61283
567.85        22.89454
568.29        22.82269
568.72        23.08926
569.16        23.45576
569.60        23.69028
570.03        23.76367
570.47        23.85785
570.90        23.86001
571.34         24.0643
571.77        23.86038
572.21        23.99874
572.64        24.32572
573.08        24.42229
573.51        24.67862
573.95        25.24924
574.38         25.2154
574.82        25.35568
