SpectraSmart Spectrum 2.9.0.0
--------- Device Information -----------
Spectrum Name :  反射率_0
Saving Time :  2024/04/20 00:58:56
Spectro-Module Model Name : SE2030-DUVN
Spectro-Module Serial Number : OS361AC55029948
Wavelength Start : 200
Wavelength End : 1025
Wavelength Unit : Wavelength(nm)
Spectrum Unit : Reflectance(%)
-----------Spectrum Setting ------------
Integration Time : 30ms
Average : 10
Boxcar : 0
Background removal :  enabled
linearity correction :  enabled
SC :  disabled
Intensity correction :  disabled
DWT denoise :  enabled
savitzky-golay :  disabled
FFT :  disabled
Running average :  disabled
Kalman :  disabled
High pass :  disabled
---------------BEGIN--------------------
Wavelength(nm)             Reflectance(%)
200.29               0
200.75         51.2291
201.21        51.49419
201.67        53.81342
202.13        58.48516
202.58        65.30725
203.04        74.60735
203.50        83.22968
203.96        83.70294
204.42        76.34644
204.88        66.37962
205.34        57.69943
205.80        51.67057
206.26         47.1629
206.72         42.5087
207.18        37.87671
207.64        36.63524
208.10        41.35657
208.55        50.59882
209.01        58.40661
209.47        60.76145
209.93        58.47054
210.39        53.42834
210.85        47.92013
211.31        44.34529
211.77        42.95306
212.23        42.93142
212.69        44.29034
213.14        46.53646
213.60        48.19731
214.06        49.69992
214.52        50.70489
214.98        51.16134
215.44        51.20957
215.90        50.52804
216.36        49.70801
216.81        50.15568
217.27        52.05272
217.73        54.96607
218.19        56.87387
218.65        54.91775
219.11        48.57629
219.57        38.17997
220.02        26.00831
220.48        18.68744
220.94        18.69308
221.40        25.02692
221.86        33.68305
222.32        38.25454
222.77        37.19909
223.23        32.57666
223.69        27.74763
224.15        27.43336
224.61        31.37918
225.06        36.79659
225.52        41.05409
225.98        42.14684
226.44        40.13102
226.90        36.12799
227.36        31.16042
227.81        27.09523
228.27        25.16754
228.73        24.75056
229.19        25.56737
229.65        27.27152
230.10         29.4367
230.56        31.81953
231.02        34.07512
231.48        35.76247
231.93        36.79116
232.39         37.3154
232.85        37.23046
233.31        36.40448
233.77        34.94203
234.22        32.92913
234.68        30.93125
235.14        29.84536
235.60        29.92081
236.05        30.93667
236.51        32.42712
236.97        33.62589
237.43        34.37744
237.88        35.06351
238.34        35.68328
238.80        36.38801
239.26        37.14602
239.71        37.49464
240.17        37.93658
240.63        39.87828
241.08        43.56432
241.54        48.70741
242.00        53.52248
242.46        54.64779
242.91        50.50906
243.37        39.86962
243.83        23.27613
244.28        10.93024
244.74        13.94142
245.20        31.18676
245.66        49.83104
246.11        58.10328
246.57        55.10658
247.03        42.48161
247.48        24.11435
247.94          19.395
248.40        30.84543
248.85        44.73542
249.31        54.79621
249.77        60.10586
250.22        62.11112
250.68        62.34568
251.14        61.48203
251.59        60.44886
252.05        59.92429
252.51        59.61369
252.96        58.48413
253.42        55.35443
253.88        50.59917
254.33        45.48268
254.79        42.41579
255.25        43.22148
255.70        47.27655
256.16        53.03614
256.62         58.1678
257.07        60.10812
257.53        58.93512
257.99        55.65095
258.44        51.66081
258.90        49.40193
259.35          48.626
259.81        48.76785
260.27        48.61252
260.72         47.1258
261.18        44.61823
261.63        41.28045
262.09        38.28281
262.55        36.79242
263.00        36.81803
263.46        37.85695
263.91        38.76958
264.37        38.39882
264.83        36.74342
265.28        34.27237
265.74        32.07114
266.19        31.27729
266.65         31.9967
267.11        33.60093
267.56        35.25195
268.02          35.734
268.47        34.85734
268.93        33.06476
269.38        30.87811
269.84        29.37035
270.30        28.83122
270.75        28.93332
271.21        29.32023
271.66        29.47254
272.12        29.21103
272.57        28.71741
273.03         28.1187
273.48        27.51484
273.94        26.99902
274.39        26.49904
274.85         26.0133
275.31        25.53863
275.76        25.05522
276.22        24.58428
276.67        24.15158
277.13        23.87002
277.58        23.69834
278.04        23.62862
278.49        23.48915
278.95        23.08054
279.40        22.37429
279.86        21.51704
280.31        20.66699
280.77        20.16388
281.22        20.00366
281.68        20.08817
282.13        20.24891
282.59        20.25414
283.04        20.04969
283.50        19.74583
283.95        19.39145
284.41        19.07735
284.86        18.82484
285.32        18.61217
285.77        18.47955
286.22        18.54766
286.68        18.79973
287.13        19.17586
287.59        19.52708
288.04        19.62642
288.50        19.45507
288.95        19.06201
289.41        18.60957
289.86        18.28376
290.32        18.17931
290.77        18.22729
291.22        18.37076
291.68        18.48803
292.13        18.55628
292.59        18.63035
293.04        18.76337
293.50        19.04142
293.95          19.468
294.40        19.98603
294.86        20.53305
295.31        21.03181
295.77        21.45249
296.22        21.81322
296.68        22.11418
297.13        22.33498
297.58        22.49541
298.04        22.61298
298.49        22.73773
298.95        22.97989
299.40        23.35152
299.85        23.82935
300.31        24.35038
300.76        24.81655
301.21         25.1965
301.67         25.5314
302.12        25.82978
302.58        26.14971
303.03        26.48319
303.48        26.81449
303.94        27.15653
304.39        27.50131
304.84        27.84812
305.30         28.1922
305.75        28.48358
306.20         28.6599
306.66          28.735
307.11        28.72615
307.57        28.70157
308.02        28.70236
308.47        28.76366
308.93        28.86213
309.38        28.99932
309.83        29.21543
310.29         29.4921
310.74        29.81652
311.19        30.08298
311.65        30.12578
312.10        29.92177
312.55        29.52377
313.00        29.08361
313.46        28.83825
313.91        28.82534
314.36        28.98885
314.82        29.19977
315.27        29.26465
315.72        29.12187
316.18        28.84743
316.63        28.52347
317.08        28.27659
317.53        28.14054
317.99        28.06307
318.44        28.01274
318.89        27.93376
319.35        27.80729
319.80        27.65818
320.25        27.48895
320.70        27.30035
321.16        27.09191
321.61        26.85732
322.06        26.61239
322.51        26.39007
322.97        26.19136
323.42        26.01755
323.87        25.82828
324.32        25.56058
324.78        25.20099
325.23        24.77524
325.68        24.33798
326.13        23.98451
326.59        23.74464
327.04        23.61613
327.49        23.54226
327.94        23.42906
328.39        23.24932
328.85        23.00936
329.30        22.79845
329.75        22.73753
330.20        22.84596
330.66        23.05619
331.11        23.26411
331.56        23.25701
332.01        22.98435
332.46        22.50615
332.92        21.94287
333.37        21.50222
333.82        21.26421
334.27        21.19348
334.72        21.21986
335.17        21.21663
335.63        21.13177
336.08        21.00046
336.53        20.88893
336.98        20.91054
337.43        21.07912
337.88        21.35151
338.34        21.56549
338.79        21.50812
339.24        21.12639
339.69        20.49191
340.14        19.83518
340.59        19.54132
341.05        19.68511
341.50        20.15041
341.95        20.69356
342.40        20.93428
342.85         20.7816
343.30        20.36864
343.75        19.84344
344.20        19.44972
344.66        19.26162
345.11        19.16535
345.56        19.14446
346.01        19.17445
346.46        19.21914
346.91        19.31203
347.36        19.32645
347.81        19.04979
348.26        18.48062
348.72        17.72102
349.17        16.97993
349.62        16.68947
350.07        16.94135
350.52        17.57571
350.97        18.36338
351.42        18.96134
351.87        19.25793
352.32        19.34203
352.77         19.2441
353.22        19.02002
353.67        18.71696
354.13        18.32984
354.58        17.91937
355.03        17.62467
355.48        17.48241
355.93        17.48289
356.38        17.56415
356.83        17.60905
357.28        17.57859
357.73        17.48919
358.18         17.3815
358.63         17.3271
359.08        17.33722
359.53         17.3835
359.98        17.39245
360.43        17.25794
360.88        16.97046
361.33        16.57383
361.78        16.17653
362.23        15.95229
362.68        15.93593
363.13        16.06264
363.58        16.22601
364.03        16.26227
364.48        16.12487
364.93        15.86413
365.38        15.53002
365.83        15.20864
366.28        14.94454
366.73         14.7223
367.18        14.54714
367.63        14.42827
368.08        14.35838
368.53        14.32925
368.98         14.3353
369.43         14.3602
369.88        14.39291
370.33        14.44056
370.78        14.45239
371.23        14.34992
371.68        14.12659
372.13         13.7995
372.58         13.4882
373.03        13.39557
373.48          13.554
373.93        13.88959
374.38        14.23943
374.83        14.35351
375.28        14.17764
375.72        13.78648
376.17        13.31963
376.62        12.96325
377.07         12.7865
377.52        12.73298
377.97        12.76727
378.42         12.8347
378.87        12.90365
379.32         12.9884
379.77        13.07074
380.22        13.11616
380.67        13.11778
381.11          13.081
381.56        13.00023
382.01        12.89102
382.46        12.76168
382.91        12.60382
383.36        12.45439
383.81        12.36617
384.26        12.34448
384.71        12.38561
385.15        12.41329
385.60        12.30684
386.05        12.05507
386.50        11.70085
386.95        11.36685
387.40         11.2465
387.85        11.37025
388.29        11.66485
388.74        11.98984
389.19        12.15656
389.64        12.12314
390.09        11.94425
390.54         11.7111
390.98        11.56492
391.43        11.55725
391.88        11.63263
392.33        11.71655
392.78        11.70462
393.23         11.5842
393.67        11.39189
394.12        11.21746
394.57        11.14018
395.02         11.1746
395.47        11.28979
395.91        11.42484
396.36        11.46141
396.81        11.37383
397.26         11.1954
397.71         11.0011
398.15        10.89079
398.60        10.89956
399.05        10.98883
399.50        11.08607
399.95        11.08764
400.39        10.97185
400.84        10.76758
401.29        10.55884
401.74         10.4976
402.18        10.62433
402.63         10.8807
403.08        11.14248
403.53         11.2149
403.97        11.06025
404.42        10.75049
404.87          10.415
405.32         10.2655
405.76        10.35063
406.21        10.59581
406.66        10.88742
407.11        11.04904
407.55        11.03444
408.00        10.90272
408.45        10.71787
408.90        10.56387
409.34        10.49039
409.79         10.5134
410.24         10.5912
410.68        10.61945
411.13        10.58519
411.58        10.54914
412.03        10.51532
412.47        10.47175
412.92        10.42225
413.37         10.3611
413.81         10.3221
414.26        10.37104
414.71        10.50737
415.15        10.71741
415.60        10.90874
416.05        10.95099
416.49        10.81292
416.94        10.54257
417.39        10.23553
417.83        10.04851
418.28        10.02882
418.73        10.12351
419.17        10.26546
419.62         10.3341
420.07        10.30363
420.51         10.2164
420.96        10.11055
421.41         10.0288
421.85        9.983911
422.30        9.964464
422.74        9.970154
423.19        10.02466
423.64        10.11975
424.08        10.25682
424.53        10.38775
424.98        10.44553
425.42        10.41477
425.87        10.31751
426.31        10.19014
426.76         10.1006
427.21        10.05994
427.65        10.04253
428.10        10.05613
428.54        10.09205
428.99        10.14427
429.44        10.26483
429.88         10.3838
430.33        10.31668
430.77        10.10278
431.22         9.95158
431.66        9.918689
432.11        9.980947
432.56        10.13247
433.00        10.40768
433.45        10.66506
433.89        10.68035
434.34        10.49939
434.78        10.25336
435.23        9.972937
435.67        10.36711
436.12        9.997442
436.57        9.932358
437.01        9.781975
437.46        9.728135
437.90        9.774446
438.35        9.839923
438.79        9.896813
439.24        9.945045
439.68        9.973162
440.13         9.89462
440.57        9.765053
441.02        9.833559
441.46        10.00728
441.91        9.980612
442.35        9.531638
442.80        9.345595
443.24         9.32299
443.69        9.257974
444.13        9.137872
444.58        9.050883
445.02        9.001174
445.47        8.993264
445.91        9.005514
446.36        8.982426
446.80        8.913338
447.24        8.824463
447.69        8.744094
448.13        8.692697
448.58         8.68203
449.02        8.702255
449.47        8.730538
449.91        8.726391
450.36        8.685521
450.80          8.6189
451.25        8.559435
451.69        8.546244
452.13        8.590119
452.58        8.668035
453.02        8.756517
453.47        8.814707
453.91        8.833387
454.36        8.823434
454.80        8.790778
455.24        8.748198
455.69        8.707133
456.13         8.65445
456.58        8.608961
457.02        8.592987
457.46        8.609025
457.91        8.632648
458.35        8.652102
458.79        8.663503
459.24        8.662633
459.68        8.647736
460.13        8.660509
460.57        8.677075
461.01        8.693514
461.46        8.935958
461.90        9.036554
462.34        8.958133
462.79        8.993897
463.23        8.852601
463.68        8.712631
464.12        8.625798
464.56        8.683546
465.01        8.801199
465.45        8.928215
465.89         8.99752
466.34        8.998572
466.78        8.926702
467.22        8.829498
467.67        8.847038
468.11         8.96751
468.55        9.000725
468.99        8.951295
469.44        8.974775
469.88        9.073136
470.32        9.156584
470.77        9.195112
471.21        9.191758
471.65        9.142272
472.10        9.051029
472.54        8.954549
472.98         8.93763
473.42        9.013945
473.87        9.130971
474.31        9.251084
474.75        9.368424
475.20        9.449258
475.64        9.408587
476.08        9.299132
476.52        9.284932
476.97        9.381703
477.41        9.520213
477.85        9.650597
478.29        9.720988
478.74         9.71619
479.18        9.635334
479.62        9.542551
480.06        9.540002
480.50        9.631783
480.95        9.739654
481.39        9.816144
481.83         9.83581
482.27        9.791553
482.72        9.697837
483.16        9.596436
483.60        9.567489
484.04         9.61937
484.48        9.750752
484.93        9.991611
485.37        10.15637
485.81        10.21423
486.25        10.69165
486.69        10.73245
487.14        10.22803
487.58        10.32921
488.02        10.96814
488.46        10.62978
488.90         10.7312
489.34        10.71802
489.79        10.85803
490.23        11.09212
490.67        11.24571
491.11        11.28833
491.55        11.19922
491.99        11.02915
492.43        10.93524
492.88        10.95254
493.32        10.98456
493.76        11.03786
494.20        11.16514
494.64        11.36206
495.08        11.60465
495.52         11.8582
495.96         12.0791
496.41        12.25237
496.85        12.36376
497.29        12.43013
497.73        12.54407
498.17        12.69778
498.61        12.75569
499.05        12.74117
499.49        12.82214
499.93        13.01218
500.37        13.19416
500.82        13.34696
501.26        13.54925
501.70        13.75839
502.14        13.79812
502.58        13.70625
503.02        13.70121
503.46        13.80231
503.90        13.89806
504.34        13.95987
504.78        13.98841
505.22        13.97795
505.66        13.93991
506.10        13.89791
506.54        13.88554
506.98        13.91573
507.42        13.98034
507.86        14.07668
508.30        14.19928
508.74        14.33731
509.18        14.48374
509.62        14.62342
510.06         14.7324
510.50        14.80625
510.94        14.85647
511.38        14.87919
511.82        14.87144
512.26        14.83993
512.70        14.78345
513.14         14.7461
513.58        14.79443
514.02        14.92768
514.46         15.1246
514.90        15.31084
515.34        15.31438
515.78        15.12632
516.22        14.88627
516.66        14.69757
517.10        14.36215
517.54        13.91266
517.98        14.55229
518.42        14.45381
518.86        14.74877
519.30        14.86896
519.74        14.99923
520.18        15.10553
520.62        15.11041
521.06        15.02913
521.50        14.86464
521.93        14.67091
522.37        14.54839
522.81        14.52093
523.25        14.56451
523.69        14.64031
524.13        14.68427
524.57        14.67564
525.01        14.63139
525.45        14.56967
525.89        14.51834
526.32        14.48527
526.76        14.46246
527.20        14.43171
527.64         14.3699
528.08        14.27412
528.52        14.15291
528.96        14.03803
529.40         13.9751
529.83        13.97089
530.27        14.01358
530.71        14.05683
531.15        14.02793
531.59        13.91529
532.03        13.74464
532.46         13.5687
532.90        13.48439
533.34        13.50432
533.78        13.59331
534.22        13.70151
534.66        13.75285
535.09        13.72376
535.53        13.64496
535.97        13.53636
536.41        13.42647
536.85        13.33163
537.28        13.25191
537.72        13.20297
538.16        13.16841
538.60        13.21363
539.04        13.27631
539.47        13.35434
539.91         13.4472
540.35        13.55515
540.79        13.56168
541.22         13.6428
541.66        13.70329
542.10        13.80901
542.54        13.73621
542.97        13.85625
543.41        13.92777
543.85        14.05167
544.29        14.18905
544.72        14.31376
545.16        14.42606
545.60        14.51791
546.04          14.546
546.47        14.56208
546.91         14.7428
547.35        15.05329
547.79        15.28852
548.22        15.41364
548.66        15.48739
549.10        15.53431
549.53        15.64762
549.97        15.84367
550.41        15.87273
550.84        16.03233
551.28        16.15147
551.72         16.3293
552.15        16.53368
552.59        16.75911
553.03        17.00248
553.46        17.22569
553.90         17.3867
554.34         17.4777
554.77        17.51069
555.21        17.52186
555.65        17.55964
556.08        17.63515
556.52        17.73526
556.96        17.84271
557.39        17.95315
557.83        18.05383
558.27        18.10616
558.70        18.12404
559.14        18.16275
559.57        18.22272
560.01        18.29757
560.45        18.36843
560.88        18.38361
561.32        18.37907
561.75        18.40849
562.19        18.54007
562.63        18.61492
563.06        18.64828
563.50         18.6931
563.93        18.74953
564.37        18.85068
564.80        18.91016
565.24        19.00372
565.68         19.0901
566.11        19.17072
566.55        19.25747
566.98        19.31182
567.42        19.33544
567.85        19.57576
568.29        19.52792
568.72        19.78056
569.16        20.11423
569.60        20.32183
570.03        20.37422
570.47        20.41008
570.90        20.35867
571.34        20.58552
571.77        20.43085
572.21        20.67981
572.64        20.77333
573.08        20.89744
573.51        21.24435
573.95         21.7057
574.38        21.78232
574.82        21.91977
