SpectraSmart Spectrum 2.9.0.0
--------- Device Information -----------
Spectrum Name :  反射率_0
Saving Time :  2024/04/20 00:59:49
Spectro-Module Model Name : SE2030-DUVN
Spectro-Module Serial Number : OS361AC55029948
Wavelength Start : 200
Wavelength End : 1025
Wavelength Unit : Wavelength(nm)
Spectrum Unit : Reflectance(%)
-----------Spectrum Setting ------------
Integration Time : 30ms
Average : 10
Boxcar : 0
Background removal :  enabled
linearity correction :  enabled
SC :  disabled
Intensity correction :  disabled
DWT denoise :  enabled
savitzky-golay :  disabled
FFT :  disabled
Running average :  disabled
Kalman :  disabled
High pass :  disabled
---------------BEGIN--------------------
Wavelength(nm)             Reflectance(%)
200.29               0
200.75        56.31561
201.21        59.39956
201.67        64.95499
202.13        71.91636
202.58        79.35059
203.04        87.27413
203.50        93.52851
203.96        93.64204
204.42        88.26507
204.88        80.79092
205.34        74.19735
205.80        69.56367
206.26        65.98094
206.72        62.28219
207.18        58.15873
207.64        55.05461
208.10        54.99701
208.55        58.14106
209.01        61.43812
209.47        62.70144
209.93        62.01025
210.39        60.27682
210.85        58.17202
211.31         56.3704
211.77        54.88275
212.23        53.16207
212.69         51.6911
213.14        52.33125
213.60         54.7484
214.06         58.0235
214.52        60.54488
214.98        61.55725
215.44        61.32905
215.90        59.87543
216.36        58.12976
216.81        58.24272
217.27        60.72549
217.73        64.89861
218.19        68.30841
218.65        67.61647
219.11        62.26797
219.57        52.74258
220.02        41.67582
220.48        36.23627
220.94        38.89697
221.40        48.15416
221.86        59.26274
222.32        64.90726
222.77         63.3798
223.23        57.23727
223.69        50.18175
224.15        47.50124
224.61        49.49335
225.06        53.43407
225.52        56.90966
225.98         57.9828
226.44        56.56709
226.90        53.57347
227.36        49.85931
227.81        46.89348
228.27        45.62513
228.73        45.49223
229.19        45.97941
229.65        46.47349
230.10        46.78613
230.56         47.0863
231.02        47.55938
231.48        48.44752
231.93        49.66557
232.39        51.05686
232.85        52.19496
233.31        52.47343
233.77        51.79954
234.22        50.38689
234.68          48.694
235.14        47.44632
235.60        46.92779
236.05        46.98209
236.51        47.42051
236.97        47.91462
237.43        48.40394
237.88        49.21692
238.34        50.29702
238.80        51.62528
239.26        52.96849
239.71         54.0026
240.17        54.76763
240.63        56.07245
241.08        58.15432
241.54        60.77253
242.00         63.1303
242.46        63.65464
242.91        61.63186
243.37        56.47756
243.83        48.73107
244.28        43.98964
244.74        47.58912
245.20        58.18052
245.66        68.63488
246.11        73.03126
246.57        70.86092
247.03        62.92393
247.48        50.51111
247.94        44.39667
248.40         47.8065
248.85         53.7468
249.31        58.61099
249.77        61.70672
250.22        63.59583
250.68        65.20261
251.14        66.49129
251.59         66.7664
252.05        65.90607
252.51        63.97436
252.96        61.50772
253.42        59.99146
253.88        59.91889
254.33        60.83841
254.79        62.85028
255.25        65.66727
255.70        68.85573
256.16        72.05408
256.62        74.53809
257.07        75.50686
257.53        75.09127
257.99        73.47688
258.44        70.81062
258.90        68.22029
259.35        65.77706
259.81        64.05306
260.27        62.52635
260.72        60.69499
261.18        58.75557
261.63        56.41944
262.09        54.51161
262.55         53.6614
263.00        53.75825
263.46        54.58908
263.91        55.11864
264.37        54.41672
264.83        52.49342
265.28        49.72738
265.74        47.25974
266.19        46.23203
266.65        46.78057
267.11         48.2706
267.56         49.7823
268.02        50.00912
268.47        48.73085
268.93        46.41524
269.38        43.69854
269.84        41.85801
270.30        41.23795
270.75        41.45826
271.21         41.9967
271.66        42.06807
272.12        41.45219
272.57        40.39917
273.03        39.24137
273.48        38.38597
273.94        37.98602
274.39        37.84408
274.85        37.73404
275.31        37.31084
275.76        36.50227
276.22        35.46904
276.67        34.44691
277.13        33.88417
277.58        33.77697
278.04        33.98835
278.49        34.15306
278.95        33.83271
279.40        32.93716
279.86        31.73654
280.31        30.46915
280.77        29.61023
281.22        29.18497
281.68        29.06367
282.13        29.06699
282.59        28.97674
283.04        28.71842
283.50         28.4066
283.95        28.05114
284.41        27.69949
284.86        27.35308
285.32        27.01053
285.77         26.7144
286.22        26.60727
286.68        26.69032
287.13        26.89286
287.59          27.094
288.04        27.08807
288.50         26.8602
288.95        26.44515
289.41        25.97978
289.86        25.59914
290.32        25.39665
290.77        25.32645
291.22        25.35826
291.68        25.40927
292.13        25.46762
292.59        25.58149
293.04        25.81275
293.50        26.26831
293.95        26.94265
294.40        27.76994
294.86        28.65205
295.31        29.45199
295.77        30.13087
296.22        30.72891
296.68        31.27305
297.13        31.78882
297.58        32.30926
298.04        32.83276
298.49          33.407
298.95        34.14785
299.40        35.04725
299.85        36.06514
300.31        37.09977
300.76        37.98345
301.21        38.67511
301.67        39.24593
302.12        39.72172
302.58         40.2149
303.03        40.73153
303.48        41.26025
303.94        41.83505
304.39        42.46312
304.84        43.14526
305.30        43.86802
305.75        44.54486
306.20        45.06918
306.66        45.44008
307.11        45.66903
307.57        45.83471
308.02        45.97568
308.47        46.13854
308.93        46.30351
309.38         46.4738
309.83        46.71319
310.29        47.01242
310.74        47.35121
311.19        47.62497
311.65        47.66155
312.10        47.43278
312.55        47.00276
313.00        46.52487
313.46        46.23438
313.91        46.17175
314.36        46.28594
314.82         46.4596
315.27        46.52517
315.72        46.41871
316.18        46.20497
316.63        45.94212
317.08        45.73498
317.53        45.60533
317.99        45.50032
318.44          45.383
318.89         45.1864
319.35        44.89704
319.80        44.55512
320.25         44.1837
320.70        43.81578
321.16        43.46471
321.61        43.12622
322.06        42.82213
322.51        42.59318
322.97         42.4297
323.42        42.32353
323.87        42.20688
324.32        41.97571
324.78         41.5994
325.23         41.1243
325.68        40.59674
326.13        40.10873
326.59        39.70089
327.04        39.38099
327.49        39.14605
327.94        38.99347
328.39        38.90872
328.85        38.86384
329.30        38.87886
329.75        38.91954
330.20        38.95878
330.66        38.96846
331.11        38.91318
331.56        38.68394
332.01        38.27133
332.46        37.71143
332.92         37.1072
333.37        36.65606
333.82        36.42268
334.27        36.38303
334.72        36.46865
335.17        36.54766
335.63        36.55565
336.08        36.52667
336.53        36.49699
336.98        36.54795
337.43        36.68705
337.88        36.87846
338.34        36.98972
338.79        36.86448
339.24        36.46158
339.69        35.83865
340.14        35.20151
340.59        34.89056
341.05        34.97425
341.50        35.36047
341.95        35.81938
342.40        35.98978
342.85        35.79007
343.30        35.34211
343.75        34.81451
344.20        34.48496
344.66        34.42632
345.11        34.51338
345.56        34.66943
346.01        34.77477
346.46        34.77395
346.91         34.7244
347.36        34.57285
347.81         34.2218
348.26        33.69233
348.72        33.04999
349.17        32.43307
349.62        32.15071
350.07        32.26744
350.52        32.67038
350.97        33.20396
351.42        33.63107
351.87        33.86433
352.32        33.95683
352.77        33.89234
353.22        33.65503
353.67        33.27169
354.13        32.76403
354.58         32.2171
355.03        31.81209
355.48         31.5986
355.93        31.55481
356.38         31.6004
356.83        31.59175
357.28        31.48361
357.73         31.2996
358.18        31.10271
358.63        31.00154
359.08         31.0092
359.53        31.07643
359.98        31.09337
360.43        30.89939
360.88        30.47403
361.33        29.88386
361.78        29.25965
362.23        28.81365
362.68        28.60097
363.13        28.54922
363.58        28.56391
364.03        28.49614
364.48          28.294
364.93          28.001
365.38        27.63369
365.83        27.22376
366.28        26.80053
366.73        26.35917
367.18        25.93818
367.63        25.59989
368.08        25.35676
368.53        25.19944
368.98        25.09273
369.43        24.97073
369.88        24.81536
370.33        24.64555
370.78        24.47201
371.23        24.31884
371.68        24.19442
372.13        24.07745
372.58        23.98364
373.03        23.94504
373.48        23.95359
373.93        23.99209
374.38        23.99598
374.83        23.86476
375.28        23.58384
375.72        23.18151
376.17        22.74988
376.62         22.3989
377.07        22.17138
377.52         22.0384
377.97        21.97768
378.42        21.95031
378.87        21.93195
379.32        21.92788
379.77        21.91962
380.22        21.87516
380.67        21.78938
381.11        21.67365
381.56        21.52418
382.01          21.362
382.46         21.1971
382.91        21.01688
383.36        20.85909
383.81        20.77755
384.26        20.77275
384.71        20.83712
385.15        20.87465
385.60        20.74216
386.05         20.4225
386.50         19.9651
386.95         19.5173
387.40        19.31263
387.85        19.39265
388.29        19.67222
388.74         19.9929
389.19         20.1219
389.64        20.00965
390.09        19.72047
390.54        19.37961
390.98        19.18032
391.43        19.18681
391.88        19.32194
392.33        19.46336
392.78        19.43843
393.23        19.22901
393.67        18.89615
394.12        18.58932
394.57        18.44663
395.02        18.49425
395.47         18.6798
395.91        18.91083
396.36        19.00478
396.81        18.91886
397.26        18.70528
397.71        18.46355
398.15        18.32608
398.60        18.34234
399.05         18.4523
399.50        18.57041
399.95        18.57619
400.39        18.44414
400.84        18.21108
401.29        17.96116
401.74        17.84604
402.18        17.91292
402.63         18.1069
403.08        18.32045
403.53        18.38111
403.97         18.2539
404.42         18.0054
404.87        17.74776
405.32        17.66488
405.76        17.79382
406.21        18.06471
406.66        18.37111
407.11        18.54935
407.55        18.55756
408.00        18.45311
408.45        18.28985
408.90        18.11584
409.34        17.98629
409.79        17.96789
410.24        18.02562
410.68        18.02993
411.13        17.97316
411.58        17.93501
412.03        17.91525
412.47        17.88512
412.92        17.84246
413.37        17.78493
413.81         17.7534
414.26        17.82705
414.71        18.00631
415.15         18.2762
415.60        18.52303
416.05        18.58676
416.49        18.43208
416.94        18.11455
417.39        17.76253
417.83        17.58461
418.28        17.63581
418.73        17.84078
419.17        18.09358
419.62        18.21778
420.07        18.17303
420.51        18.02336
420.96        17.83018
421.41        17.66612
421.85        17.55746
422.30        17.49109
422.74        17.47137
423.19        17.53864
423.64        17.68118
424.08        17.89924
424.53        18.12284
424.98        18.25103
425.42        18.25773
425.87        18.17313
426.31        18.03996
426.76        17.93905
427.21        17.88532
427.65        17.84517
428.10        17.84613
428.54          17.906
428.99        18.02203
429.44        18.27085
429.88        18.51855
430.33        18.43252
430.77        18.07391
431.22        17.82298
431.66        17.76859
432.11        17.84598
432.56        18.04531
433.00        18.43573
433.45        18.79647
433.89        18.78275
434.34        18.49477
434.78        18.14499
435.23        17.76302
435.67        18.59613
436.12        18.05474
436.57        18.05498
437.01        17.88234
437.46        17.84597
437.90         17.9498
438.35        18.04939
438.79        18.10544
439.24        18.13416
439.68        18.12903
440.13        17.94068
440.57         17.6856
441.02        17.83885
441.46        18.23591
441.91        18.30705
442.35        17.62512
442.80        17.42113
443.24        17.51739
443.69        17.53063
444.13        17.42495
444.58        17.34101
445.02        17.28793
445.47        17.27658
445.91        17.29828
446.36        17.29887
446.80         17.2676
447.24        17.23773
447.69        17.22157
448.13        17.20052
448.58        17.18167
449.02        17.16626
449.47        17.14351
449.91        17.08968
450.36        17.01002
450.80        16.91018
451.25        16.82648
451.69        16.79641
452.13        16.83177
452.58         16.9126
453.02        17.00925
453.47        17.07671
453.91        17.10242
454.36        17.09555
454.80        17.06531
455.24         17.0277
455.69        16.99694
456.13        16.95074
456.58        16.90718
457.02        16.88464
457.46        16.88419
457.91        16.86478
458.35        16.82811
458.79        16.81807
459.24        16.83043
459.68        16.85374
460.13        16.92408
460.57        16.93512
461.01        16.86619
461.46        17.18712
461.90        17.23138
462.34        17.01915
462.79        17.12223
463.23        16.96234
463.68        16.82898
464.12        16.74631
464.56        16.86016
465.01        17.03287
465.45        17.19548
465.89        17.26534
466.34        17.23219
466.78        17.07067
467.22        16.85655
467.67        16.83174
468.11        16.97182
468.55        16.93412
468.99         16.7502
469.44        16.74132
469.88        16.91633
470.32        17.09507
470.77        17.21891
471.21        17.28343
471.65        17.27274
472.10        17.18696
472.54        17.07056
472.98        17.03548
473.42        17.10008
473.87        17.18236
474.31        17.24886
474.75        17.35263
475.20        17.44623
475.64        17.36127
476.08        17.16673
476.52        17.11699
476.97        17.23125
477.41        17.39377
477.85        17.54627
478.29        17.64652
478.74        17.67649
479.18        17.61763
479.62         17.5419
480.06        17.56803
480.50        17.69276
480.95         17.7973
481.39        17.84299
481.83        17.85516
482.27        17.83224
482.72        17.77328
483.16        17.71128
483.60         17.7004
484.04        17.74489
484.48        17.88437
484.93        18.17553
485.37        18.29594
485.81        18.38268
486.25        18.94432
486.69        19.68777
487.14        18.87692
487.58        18.58104
488.02        19.41938
488.46        18.96832
488.90        19.09783
489.34        18.87634
489.79        19.04203
490.23        19.48884
490.67        19.71618
491.11        19.70722
491.55        19.64486
491.99        19.57399
492.43         19.5181
492.88        19.50459
493.32        19.49402
493.76        19.52222
494.20        19.65749
494.64        19.90122
495.08        20.26506
495.52         20.6636
495.96        20.87894
496.41        20.93088
496.85         21.0317
497.29        21.20288
497.73        21.38994
498.17        21.56791
498.61        21.63192
499.05        21.60982
499.49        21.70398
499.93        21.93158
500.37        22.11729
500.82        22.25702
501.26        22.52433
501.70        22.85827
502.14        22.95185
502.58        22.83734
503.02        22.83078
503.46        22.95435
503.90         23.0387
504.34        23.06334
504.78        23.07371
505.22        23.07003
505.66        23.05059
506.10        23.03727
506.54         23.0596
506.98        23.12695
507.42        23.23505
507.86        23.37001
508.30        23.50698
508.74        23.63329
509.18        23.74651
509.62         23.8528
510.06        23.96367
510.50        24.08022
510.94        24.20092
511.38          24.297
511.82        24.32401
512.26        24.27843
512.70         24.1756
513.14         24.0761
513.58        24.07058
514.02        24.16976
514.46        24.34848
514.90        24.53835
515.34        24.56618
515.78        24.44541
516.22        24.27862
516.66        24.15588
517.10        23.88317
517.54        23.48656
517.98        24.04062
518.42        23.92747
518.86        24.16588
519.30        24.25603
519.74        24.35796
520.18        24.44829
520.62         24.4688
521.06        24.43094
521.50        24.33219
521.93        24.20014
522.37        24.09091
522.81        24.01991
523.25        23.97836
523.69        23.95159
524.13        23.91396
524.57        23.85728
525.01        23.78849
525.45        23.72044
525.89        23.67107
526.32        23.64325
526.76        23.63388
527.20        23.61799
527.64        23.56144
528.08        23.45732
528.52        23.31117
528.96        23.16488
529.40        23.08152
529.83        23.07051
530.27        23.12111
530.71        23.16643
531.15        23.10227
531.59        22.91536
532.03        22.64382
532.46        22.37755
532.90        22.27469
533.34        22.35525
533.78        22.56082
534.22        22.79614
534.66        22.91505
535.09        22.87657
535.53        22.73692
535.97        22.54541
536.41        22.37761
536.85        22.26455
537.28        22.19374
537.72        22.17433
538.16        22.15322
538.60         22.2331
539.04        22.32068
539.47        22.41383
539.91        22.51509
540.35        22.63025
540.79        22.56458
541.22         22.6315
541.66         22.7062
542.10        22.90038
542.54         22.8326
542.97        23.08759
543.41         23.2103
543.85        23.35754
544.29        23.47968
544.72        23.56466
545.16        23.66117
545.60        23.76761
546.04        23.80159
546.47        23.82636
546.91        24.09173
547.35         24.5343
547.79        24.84104
548.22        24.97853
548.66        25.06491
549.10        25.14733
549.53         25.3881
549.97        25.78257
550.41          25.852
550.84        26.06363
551.28        26.17228
551.72        26.34786
552.15        26.52899
552.59        26.72073
553.03        26.97815
553.46        27.17252
553.90        27.33956
554.34        27.44373
554.77        27.49671
555.21        27.54297
555.65        27.64124
556.08        27.79895
556.52        27.99369
556.96        28.18317
557.39        28.33815
557.83        28.43755
558.27        28.42741
558.70        28.35658
559.14        28.35921
559.57        28.44603
560.01        28.59405
560.45        28.75129
560.88        28.80088
561.32        28.78639
561.75        28.80287
562.19        28.96978
562.63        29.06001
563.06        29.10257
563.50        29.17229
563.93        29.25624
564.37        29.38958
564.80        29.43431
565.24        29.51555
565.68        29.58876
566.11        29.68474
566.55        29.82739
566.98         29.9523
567.42        30.03403
567.85        30.41647
568.29        30.31093
568.72        30.64255
569.16        31.10317
569.60        31.43726
570.03        31.53312
570.47        31.67677
570.90        31.72573
571.34        32.05478
571.77        31.64632
572.21        32.26306
572.64        32.51548
573.08        32.55482
573.51        32.66488
573.95        33.27721
574.38        33.45914
574.82         33.7347
