SpectraSmart Spectrum 2.9.0.0
--------- Device Information -----------
Spectrum Name :  反射率_0
Saving Time :  2024/04/20 00:34:09
Spectro-Module Model Name : SE2030-DUVN
Spectro-Module Serial Number : OS361AC55029948
Wavelength Start : 200
Wavelength End : 1025
Wavelength Unit : Wavelength(nm)
Spectrum Unit : Reflectance(%)
-----------Spectrum Setting ------------
Integration Time : 30ms
Average : 10
Boxcar : 0
Background removal :  enabled
linearity correction :  enabled
SC :  disabled
Intensity correction :  disabled
DWT denoise :  enabled
savitzky-golay :  disabled
FFT :  disabled
Running average :  disabled
Kalman :  disabled
High pass :  disabled
---------------BEGIN--------------------
Wavelength(nm)             Reflectance(%)
200.29               0
200.75        59.62136
201.21        59.90487
201.67        61.58524
202.13         64.7129
202.58        69.13098
203.04        74.94104
203.50        80.57355
203.96        81.88544
204.42        78.66804
204.88        73.60276
205.34        68.72318
205.80        64.61967
206.26        60.54837
206.72        55.26513
207.18        48.51898
207.64        43.62169
208.10        44.46817
208.55        50.41305
209.01        56.84373
209.47        60.29888
209.93         60.7704
210.39        59.53858
210.85        57.39006
211.31        55.03518
211.77        52.47068
212.23        48.99283
212.69        45.00985
213.14        43.33833
213.60        44.76717
214.06        48.17302
214.52        51.34386
214.98         53.0943
215.44        53.59939
215.90         52.8864
216.36        51.82737
216.81        52.27255
217.27         54.5757
217.73        58.25048
218.19         60.5938
218.65        57.83386
219.11        49.36498
219.57        35.62196
220.02        20.37205
220.48        13.37978
220.94        18.06479
221.40        32.34682
221.86        49.19063
222.32        57.74922
222.77        55.61443
223.23        46.50623
223.69        35.99273
224.15        32.06787
224.61        35.21567
225.06        41.34725
225.52        46.95578
225.98        49.28452
226.44        48.23439
226.90        45.16222
227.36        41.10767
227.81        37.79377
228.27        36.30348
228.73        35.94434
229.19         36.2845
229.65        36.84644
230.10        37.40482
230.56        38.03931
231.02        38.78488
231.48        39.64906
231.93        40.56784
232.39        41.50318
232.85        42.16332
233.31        42.14803
233.77        41.41794
234.22         40.0737
234.68        38.62171
235.14        37.84866
235.60        37.98802
236.05        38.87319
236.51        40.02048
236.97         40.6487
237.43        40.57372
237.88        40.02341
238.34        39.29447
238.80        39.62875
239.26        41.54657
239.71        44.41359
240.17        47.34071
240.63        49.61854
241.08        51.13599
241.54        52.20147
242.00        52.26423
242.46        50.09404
242.91        44.94799
243.37         35.3633
243.83        22.37197
244.28         15.5893
244.74        23.96358
245.20        45.05318
245.66        65.11414
246.11        72.91029
246.57         67.7971
247.03        50.41667
247.48        24.38292
247.94        13.33792
248.40        23.14663
248.85        37.97416
249.31        49.34595
249.77        55.20693
250.22        57.06098
250.68        56.90984
251.14        55.54786
251.59        54.13964
252.05        53.67237
252.51        53.76612
252.96         53.7149
253.42        52.84965
253.88        51.22497
254.33        49.38525
254.79        49.08172
255.25        51.68438
255.70        56.57527
256.16        62.45517
256.62        67.20332
257.07        68.46351
257.53        66.51239
257.99        62.48343
258.44        57.80283
258.90        54.98718
259.35        53.85627
259.81        53.87276
260.27        53.86963
260.72        52.88746
261.18        51.17454
261.63        48.76377
262.09        46.63207
262.55        45.62806
263.00          45.696
263.46        46.49702
263.91        47.00371
264.37        46.24278
264.83        44.24292
265.28        41.44079
265.74        38.92184
266.19        37.78895
266.65        38.17236
267.11        39.45768
267.56        40.84354
268.02        41.16969
268.47        40.23293
268.93        38.44998
269.38        36.27651
269.84        34.67856
270.30        33.92728
270.75         33.7385
271.21        33.81786
271.66         33.7314
272.12        33.32372
272.57        32.74098
273.03        32.10795
273.48        31.51353
273.94        31.04176
274.39        30.62651
274.85        30.21682
275.31         29.7288
275.76         29.1353
276.22        28.47755
276.67        27.86881
277.13        27.56665
277.58        27.53305
278.04        27.70444
278.49         27.7815
278.95        27.39379
279.40        26.49117
279.86        25.30797
280.31         24.1057
280.77        23.37863
281.22        23.14967
281.68         23.2666
282.13         23.5113
282.59        23.58824
283.04        23.41245
283.50        23.11721
283.95        22.74082
284.41        22.36288
284.86        22.00619
285.32        21.65642
285.77        21.37332
286.22        21.31821
286.68        21.48647
287.13        21.80448
287.59        22.12149
288.04        22.19704
288.50        22.00891
288.95        21.61247
289.41        21.15281
289.86        20.78632
290.32        20.60727
290.77        20.55083
291.22        20.60289
291.68        20.70711
292.13        20.84706
292.59        21.05944
293.04         21.3357
293.50        21.66929
293.95        22.04579
294.40        22.43797
294.86        22.85607
295.31        23.33449
295.77        23.87201
296.22         24.4613
296.68        25.02859
297.13        25.43159
297.58        25.66188
298.04        25.77215
298.49        25.90047
298.95        26.29663
299.40        26.99013
299.85        27.89672
300.31        28.84392
300.76        29.56825
301.21        30.00439
301.67        30.25356
302.12        30.40817
302.58          30.658
303.03        31.02678
303.48        31.46397
303.94        31.93547
304.39        32.35809
304.84         32.7143
305.30        33.02612
305.75        33.28099
306.20        33.47356
306.66        33.62702
307.11        33.73158
307.57        33.80881
308.02        33.82619
308.47        33.80957
308.93        33.76334
309.38        33.73905
309.83        33.85818
310.29        34.11893
310.74        34.47787
311.19        34.78657
311.65        34.81186
312.10        34.51261
312.55        33.96876
313.00        33.36057
313.46        32.96478
313.91        32.83474
314.36        32.90654
314.82        33.04581
315.27        33.05396
315.72        32.86459
316.18        32.55236
316.63        32.20389
317.08        31.95378
317.53        31.82931
317.99        31.76967
318.44        31.71022
318.89        31.54318
319.35        31.24502
319.80        30.86431
320.25        30.45341
320.70        30.09198
321.16        29.80341
321.61        29.56359
322.06        29.36091
322.51        29.18031
322.97        29.00091
323.42        28.83137
323.87         28.6361
324.32         28.3605
324.78        27.99295
325.23        27.55771
325.68         27.0906
326.13         26.6624
326.59        26.30283
327.04        26.01863
327.49        25.80337
327.94        25.64267
328.39        25.52271
328.85        25.42755
329.30        25.37242
329.75        25.34287
330.20        25.32241
330.66        25.28288
331.11        25.20325
331.56        25.00403
332.01        24.67394
332.46        24.23751
332.92        23.75875
333.37        23.35125
333.82        23.06013
334.27        22.87348
334.72        22.76231
335.17        22.66833
335.63        22.55952
336.08        22.45319
336.53        22.36348
336.98        22.32107
337.43        22.32861
337.88        22.37894
338.34        22.38928
338.79        22.27077
339.24        21.99734
339.69        21.59632
340.14        21.22357
340.59        21.13759
341.05         21.3669
341.50        21.82671
341.95        22.30412
342.40        22.46984
342.85        22.25446
343.30        21.77641
343.75        21.18806
344.20        20.74354
344.66        20.52129
345.11        20.41444
345.56        20.40577
346.01        20.46145
346.46        20.54089
346.91        20.67661
347.36        20.73469
347.81        20.49508
348.26        19.95119
348.72        19.19844
349.17        18.45127
349.62        18.15279
350.07        18.39662
350.52        19.02473
350.97        19.78924
351.42        20.31707
351.87        20.49832
352.32        20.43647
352.77         20.2055
353.22        19.92998
353.67        19.66759
354.13        19.38597
354.58        19.09743
355.03        18.86549
355.48        18.70618
355.93        18.63425
356.38        18.61148
356.83        18.55826
357.28        18.45282
357.73        18.30326
358.18        18.15651
358.63        18.09542
359.08         18.1304
359.53        18.22883
359.98        18.30541
360.43        18.23387
360.88        17.99539
361.33        17.63437
361.78        17.25105
362.23        17.00921
362.68        16.94513
363.13         16.9991
363.58        17.08218
364.03        17.05709
364.48        16.88484
364.93        16.61129
365.38        16.27591
365.83        15.94649
366.28        15.65913
366.73        15.39892
367.18        15.18058
367.63        15.02644
368.08        14.93426
368.53        14.90052
368.98        14.89572
369.43        14.86702
369.88        14.80125
370.33        14.71175
370.78        14.60864
371.23        14.51621
371.68         14.4428
372.13        14.37077
372.58        14.31618
373.03        14.30831
373.48        14.34259
373.93        14.40861
374.38        14.44792
374.83        14.36887
375.28        14.16009
375.72        13.84578
376.17        13.52263
376.62        13.30572
377.07        13.23139
377.52        13.26391
377.97        13.35621
378.42        13.43326
378.87        13.46467
379.32        13.46552
379.77        13.44521
380.22         13.4164
380.67        13.38385
381.11        13.34493
381.56        13.27605
382.01        13.15923
382.46        12.99459
382.91         12.7862
383.36        12.58866
383.81        12.47928
384.26        12.46914
384.71        12.54626
385.15        12.61626
385.60        12.53291
386.05        12.27811
386.50        11.89891
386.95        11.53851
387.40        11.42284
387.85        11.58522
388.29        11.93967
388.74        12.31387
389.19        12.47318
389.64        12.37185
390.09        12.08404
390.54        11.73865
390.98          11.537
391.43        11.54417
391.88         11.6811
392.33        11.84408
392.78        11.88732
393.23        11.78513
393.67        11.58589
394.12        11.38809
394.57        11.28046
395.02        11.28296
395.47        11.36477
395.91        11.46342
396.36        11.46145
396.81         11.3372
397.26        11.12416
397.71        10.91576
398.15        10.83663
398.60        10.91775
399.05         11.1075
399.50        11.29445
399.95        11.31907
400.39        11.15205
400.84        10.84006
401.29        10.50613
401.74        10.37461
402.18        10.50925
402.63        10.82973
403.08        11.18171
403.53        11.32329
403.97        11.20199
404.42        10.90524
404.87        10.56886
405.32        10.41399
405.76        10.49422
406.21        10.72882
406.66        11.00997
407.11        11.17306
407.55        11.17361
408.00        11.06995
408.45        10.91568
408.90        10.77381
409.34        10.68908
409.79        10.68476
410.24        10.73144
410.68        10.74262
411.13        10.70981
411.58        10.68919
412.03        10.67511
412.47        10.63904
412.92        10.58066
413.37        10.49991
413.81        10.44155
414.26        10.48789
414.71        10.64157
415.15        10.88309
415.60        11.10878
416.05        11.16965
416.49        11.02977
416.94        10.74391
417.39        10.41718
417.83        10.22145
418.28        10.20821
418.73        10.31801
419.17        10.47931
419.62        10.56583
420.07        10.54735
420.51        10.46624
420.96        10.35765
421.41        10.25863
421.85        10.18384
422.30        10.12872
422.74        10.09535
423.19        10.11066
423.64        10.16875
424.08        10.26821
424.53        10.37562
424.98        10.44906
425.42        10.47451
425.87        10.46478
426.31        10.42064
426.76        10.35576
427.21        10.27136
427.65        10.15754
428.10        10.05974
428.54        10.03646
428.99        10.09848
429.44         10.2717
429.88        10.45782
430.33        10.43005
430.77         10.2161
431.22        10.04399
431.66         9.97243
432.11        9.978876
432.56        10.06318
433.00        10.25949
433.45        10.44323
433.89        10.42782
434.34        10.26623
434.78        10.07302
435.23        9.863788
435.67        10.32396
436.12        10.01554
436.57        10.00518
437.01        9.887022
437.46        9.818994
437.90         9.80361
438.35        9.767447
438.79        9.716353
439.24        9.704113
439.68        9.731378
440.13        9.698151
440.57         9.63049
441.02        9.729088
441.46        9.890076
441.91        9.826047
442.35        9.334922
442.80        9.109294
443.24        9.055814
443.69        8.968621
444.13        8.836228
444.58        8.746848
445.02        8.703764
445.47        8.709954
445.91        8.743846
446.36        8.749557
446.80        8.712096
447.24        8.653574
447.69         8.59137
448.13         8.53069
448.58        8.482412
449.02        8.444341
449.47        8.406599
449.91        8.350123
450.36        8.278353
450.80        8.197148
451.25         8.13852
451.69        8.138888
452.13        8.205267
452.58        8.315257
453.02        8.434943
453.47        8.506804
453.91        8.518877
454.36        8.485145
454.80        8.424963
455.24        8.375331
455.69         8.35277
456.13        8.336135
456.58        8.329761
457.02        8.334743
457.46        8.349736
457.91        8.359172
458.35        8.360188
458.79        8.361244
459.24        8.361139
459.68        8.351636
460.13        8.371754
460.57        8.396413
461.01        8.420077
461.46        8.664111
461.90        8.765255
462.34        8.675272
462.79        8.678071
463.23        8.495601
463.68        8.317213
464.12        8.221889
464.56        8.301764
465.01        8.463161
465.45        8.637755
465.89        8.733707
466.34        8.735306
466.78        8.647284
467.22        8.523151
467.67        8.510217
468.11        8.602157
468.55        8.612482
468.99        8.549766
469.44         8.56862
469.88        8.670569
470.32        8.769064
470.77        8.826373
471.21        8.830236
471.65        8.773193
472.10        8.663896
472.54        8.544637
472.98        8.509898
473.42        8.576545
473.87        8.689661
474.31        8.810308
474.75        8.927703
475.20         9.00766
475.64        8.971373
476.08        8.867245
476.52        8.848547
476.97        8.930294
477.41        9.047166
477.85        9.156729
478.29        9.218198
478.74        9.219213
479.18        9.156941
479.62        9.086482
480.06        9.095901
480.50        9.187235
480.95        9.288338
481.39        9.358695
481.83        9.381792
482.27        9.350725
482.72        9.275721
483.16        9.192963
483.60        9.168476
484.04        9.215334
484.48        9.350173
484.93        9.582902
485.37         9.74755
485.81        9.847717
486.25        10.26541
486.69        10.28279
487.14          10.035
487.58        10.14118
488.02        10.80182
488.46        10.48873
488.90        10.45282
489.34          10.256
489.79        10.39161
490.23        10.78541
490.67        10.99232
491.11        10.96644
491.55        10.84658
491.99        10.69045
492.43        10.59445
492.88         10.5939
493.32        10.60504
493.76        10.64242
494.20        10.77353
494.64        10.99544
495.08        11.27703
495.52        11.56663
495.96        11.79554
496.41        11.94411
496.85        12.00699
497.29        12.02078
497.73        12.10703
498.17        12.26694
498.61        12.36149
499.05        12.39814
499.49        12.51431
499.93        12.71575
500.37        12.89575
500.82        13.04438
501.26        13.25553
501.70        13.49148
502.14        13.57178
502.58        13.52292
503.02        13.54599
503.46         13.6565
503.90        13.74895
504.34        13.80115
504.78        13.82339
505.22        13.81313
505.66        13.77879
506.10        13.74078
506.54        13.72727
506.98        13.75079
507.42        13.80759
507.86        13.89703
508.30        14.01642
508.74        14.15548
509.18        14.30325
509.62        14.44807
510.06        14.57227
510.50        14.66997
510.94        14.75058
511.38        14.79482
511.82        14.77434
512.26        14.69375
512.70        14.56299
513.14        14.44994
513.58        14.45875
514.02          14.598
514.46        14.83405
514.90        15.07798
515.34        15.13336
515.78        14.98075
516.22        14.76693
516.66        14.59255
517.10        14.25568
517.54        13.79042
517.98        14.40098
518.42          14.269
518.86        14.54858
519.30        14.67439
519.74        14.82677
520.18        14.95882
520.62        14.97108
521.06        14.87399
521.50         14.6783
521.93        14.44819
522.37        14.30072
522.81         14.2649
523.25         14.3108
523.69         14.3954
524.13        14.44856
524.57        14.44643
525.01         14.4078
525.45        14.34898
525.89        14.29421
526.32        14.25143
526.76        14.21377
527.20        14.16572
527.64         14.0897
528.08        13.98369
528.52        13.85292
528.96        13.73024
529.40        13.66236
529.83        13.65555
530.27        13.70004
530.71        13.74004
531.15        13.68757
531.59        13.53078
532.03        13.30046
532.46        13.07139
532.90        12.97495
533.34        13.02865
533.78          13.185
534.22        13.36637
534.66        13.45327
535.09        13.41306
535.53        13.29098
535.97        13.12935
536.41        12.99266
536.85         12.9073
537.28        12.86074
537.72        12.85662
538.16        12.86095
538.60        12.93028
539.04        13.00944
539.47        13.09724
539.91        13.19376
540.35        13.30057
540.79        13.30207
541.22        13.37322
541.66        13.42545
542.10        13.52514
542.54        13.45343
542.97        13.57409
543.41        13.64963
543.85        13.77897
544.29        13.92543
544.72        14.06332
545.16        14.19234
545.60        14.30489
546.04        14.35844
546.47        14.40445
546.91        14.61766
547.35        14.96229
547.79        15.23519
548.22        15.39918
548.66        15.50273
549.10        15.57347
549.53        15.72379
549.97        15.96121
550.41        16.00186
550.84        16.14275
551.28        16.22771
551.72        16.37082
552.15        16.55729
552.59        16.78731
553.03        17.05337
553.46        17.30585
553.90        17.48435
554.34        17.57761
554.77        17.60484
555.21         17.6106
555.65        17.65638
556.08        17.75598
556.52        17.88901
556.96         18.0341
557.39        18.18216
557.83        18.31696
558.27         18.4003
558.70        18.44028
559.14        18.48399
559.57        18.53209
560.01        18.58217
560.45        18.62623
560.88        18.62929
561.32        18.63199
561.75        18.68402
562.19        18.84725
562.63        18.94831
563.06        18.99863
563.50        19.05483
563.93        19.12021
564.37        19.23457
564.80        19.31029
565.24        19.42031
565.68        19.52173
566.11        19.61527
566.55        19.71411
566.98        19.78357
567.42        19.82189
567.85        20.07634
568.29        20.03008
568.72        20.28885
569.16        20.64385
569.60        20.90505
570.03         21.0491
570.47        21.20424
570.90        21.26117
571.34        21.58579
571.77        21.51592
572.21        21.67167
572.64        21.89967
573.08        22.08582
573.51        22.59114
573.95        22.88404
574.38        22.98485
574.82        23.04157
