SpectraSmart Spectrum 2.9.0.0
--------- Device Information -----------
Spectrum Name :  反射率_0
Saving Time :  2024/04/20 00:02:42
Spectro-Module Model Name : SE2030-DUVN
Spectro-Module Serial Number : OS361AC55029948
Wavelength Start : 200
Wavelength End : 1025
Wavelength Unit : Wavelength(nm)
Spectrum Unit : Reflectance(%)
-----------Spectrum Setting ------------
Integration Time : 30ms
Average : 10
Boxcar : 0
Background removal :  enabled
linearity correction :  enabled
SC :  disabled
Intensity correction :  disabled
DWT denoise :  enabled
savitzky-golay :  disabled
FFT :  disabled
Running average :  disabled
Kalman :  disabled
High pass :  disabled
---------------BEGIN--------------------
Wavelength(nm)             Reflectance(%)
200.29               0
200.75        56.90922
201.21        58.73656
201.67        62.95862
202.13        68.57896
202.58        74.68003
203.04        81.59637
203.50        87.00232
203.96        85.89943
204.42         79.1724
204.88         70.6243
205.34        63.26099
205.80        57.98534
206.26        53.72725
206.72        49.19696
207.18        44.03757
207.64         40.2345
208.10        40.51154
208.55        44.78859
209.01        49.72739
209.47         53.0745
209.93        54.64961
210.39        55.03272
210.85         54.5551
211.31        53.58337
211.77        52.16365
212.23        50.02525
212.69        47.36167
213.14        45.90839
213.60        46.29448
214.06        48.12383
214.52         50.2855
214.98        52.32858
215.44        54.33786
215.90        56.23587
216.36        58.34747
216.81        60.85463
217.27          63.255
217.73        65.52039
218.19        66.03849
218.65        62.54143
219.11        54.73638
219.57        42.71226
220.02        29.39406
220.48        22.72157
220.94        25.48947
221.40         36.2901
221.86        49.49101
222.32        56.25417
222.77        54.56057
223.23        47.31224
223.69        39.12498
224.15        36.61892
224.61        40.00237
225.06        45.80141
225.52        50.83652
225.98        52.55714
226.44         50.9458
226.90        47.25859
227.36        42.74156
227.81        39.53979
228.27        38.74893
228.73        39.43742
229.19        40.82221
229.65        42.01217
230.10        42.74692
230.56        43.30371
231.02        43.80955
231.48        44.39574
231.93        45.03553
232.39        45.63538
232.85        45.99757
233.31        45.87901
233.77        45.26177
234.22        44.25211
234.68        43.13513
235.14        42.30095
235.60        41.92144
236.05        41.95082
236.51        42.28204
236.97        42.71026
237.43        43.24356
237.88        44.16013
238.34        45.49099
238.80         47.3502
239.26         49.4341
239.71        51.19276
240.17        52.48835
240.63         53.9374
241.08         55.7356
241.54         57.7885
242.00        58.97673
242.46        57.06933
242.91        50.84077
243.37        38.71202
243.83        21.39391
244.28        9.505944
244.74        14.33853
245.20        34.62098
245.66        55.83316
246.11        65.03844
246.57        61.33704
247.03         45.9105
247.48        23.11461
247.94           16.17
248.40        28.73279
248.85        44.68652
249.31        56.12917
249.77        61.31822
250.22         61.9317
250.68        59.92527
251.14        56.39149
251.59        53.52497
252.05        52.97321
252.51        54.29541
252.96        56.35582
253.42        57.38917
253.88        56.95759
254.33         55.8144
254.79        55.87804
255.25        58.77283
255.70        63.92264
256.16        69.88506
256.62        74.66696
257.07        76.07925
257.53        74.42107
257.99        70.83235
258.44        66.40358
258.90        63.31314
259.35        61.53792
259.81        60.88359
260.27        60.50244
260.72         59.7167
261.18        58.69939
261.63        57.24785
262.09        56.06001
262.55        55.54272
263.00        55.59351
263.46        56.12571
263.91        56.30027
264.37        55.42705
264.83        53.54101
265.28        50.94957
265.74        48.69498
266.19        47.77643
266.65        48.31776
267.11        49.73689
267.56        51.20182
268.02        51.52845
268.47        50.50605
268.93        48.55084
269.38        46.18982
269.84        44.52034
270.30        43.83409
270.75        43.80207
271.21        44.01235
271.66        43.83879
272.12         43.1068
272.57        42.03337
273.03        40.87174
273.48        39.90532
273.94        39.27064
274.39        38.81369
274.85        38.42362
275.31        37.91096
275.76        37.21221
276.22        36.42508
276.67        35.63373
277.13        35.06788
277.58        34.70234
278.04        34.49897
278.49        34.25001
278.95        33.74324
279.40        32.92115
279.86        31.95461
280.31        30.97796
280.77        30.32409
281.22        29.97973
281.68        29.87133
282.13        29.83362
282.59        29.66691
283.04        29.31774
283.50        28.89595
283.95        28.45673
284.41        28.12034
284.86        27.89245
285.32        27.74665
285.77        27.66632
286.22        27.69929
286.68        27.82419
287.13        27.99825
287.59        28.13872
288.04        28.09395
288.50        27.86645
288.95        27.47439
289.41        27.04196
289.86        26.68509
290.32        26.49108
290.77        26.41947
291.22        26.45127
291.68        26.51804
292.13         26.6069
292.59        26.75973
293.04        27.01476
293.50        27.44534
293.95        28.04251
294.40        28.75479
294.86         29.5162
295.31        30.23959
295.77        30.89735
296.22        31.51408
296.68        32.09127
297.13        32.61169
297.58        33.09614
298.04        33.55775
298.49        34.05562
298.95        34.72531
299.40        35.56319
299.85        36.51656
300.31        37.48971
300.76        38.32399
301.21        38.98096
301.67        39.54149
302.12        40.00567
302.58         40.4449
303.03        40.86769
303.48        41.27879
303.94        41.77557
304.39        42.46147
304.84         43.3478
305.30        44.38444
305.75        45.40006
306.20         46.1577
306.66        46.62732
307.11        46.85875
307.57        46.99987
308.02        47.19539
308.47        47.51571
308.93        47.90195
309.38        48.30652
309.83         48.7206
310.29        49.11523
310.74        49.49379
311.19        49.78177
311.65        49.85042
312.10        49.68288
312.55        49.32908
313.00        48.91897
313.46        48.65474
313.91        48.57033
314.36        48.62671
314.82        48.73695
315.27        48.78151
315.72        48.70715
316.18        48.56706
316.63        48.38144
317.08        48.19743
317.53        48.02962
317.99        47.84818
318.44        47.66091
318.89        47.47279
319.35         47.2857
319.80         47.1101
320.25        46.93093
320.70        46.72259
321.16        46.47443
321.61        46.19491
322.06        45.90661
322.51        45.65467
322.97        45.43536
323.42         45.2391
323.87        45.01453
324.32         44.6865
324.78        44.23552
325.23        43.71235
325.68        43.15308
326.13        42.62799
326.59        42.17097
327.04        41.79266
327.49        41.50751
327.94        41.34128
328.39        41.28199
328.85        41.29208
329.30         41.3514
329.75        41.35463
330.20        41.26079
330.66        41.06283
331.11        40.79102
331.56        40.44005
332.01        40.02476
332.46        39.55236
332.92        39.06064
333.37        38.63674
333.82        38.30933
334.27        38.08321
334.72        37.94257
335.17        37.84797
335.63        37.76659
336.08        37.70938
336.53        37.67255
336.98        37.67176
337.43        37.69786
337.88         37.7409
338.34        37.70997
338.79        37.50988
339.24        37.11523
339.69        36.56379
340.14        36.01859
340.59         35.7527
341.05        35.81149
341.50        36.11275
341.95        36.46822
342.40        36.58217
342.85        36.38256
343.30        35.97112
343.75        35.45559
344.20        35.01656
344.66        34.71687
345.11        34.47715
345.56        34.31105
346.01        34.23725
346.46        34.23644
346.91        34.32407
347.36        34.37675
347.81        34.19059
348.26        33.74886
348.72        33.13406
349.17        32.51461
349.62        32.25058
350.07         32.4169
350.52        32.88258
350.97        33.44284
351.42        33.79211
351.87         33.8416
352.32        33.67688
352.77        33.37093
353.22        33.04425
353.67        32.75078
354.13        32.46877
354.58        32.18499
355.03        31.92558
355.48        31.70077
355.93        31.53084
356.38        31.41422
356.83        31.33355
357.28        31.27406
357.73        31.21821
358.18         31.1618
358.63        31.10465
359.08        31.03819
359.53        30.96264
359.98        30.83498
360.43        30.58969
360.88        30.23064
361.33        29.78943
361.78        29.36143
362.23        29.10305
362.68        29.04233
363.13        29.11666
363.58         29.2316
364.03        29.23955
364.48        29.09269
364.93        28.83318
365.38        28.47782
365.83        28.06363
366.28        27.62617
366.73        27.16355
367.18        26.73536
367.63        26.43293
368.08        26.27072
368.53        26.23034
368.98        26.24253
369.43        26.18851
369.88        26.04026
370.33        25.83171
370.78        25.60775
371.23        25.45153
371.68        25.38721
372.13        25.37516
372.58        25.40054
373.03         25.4434
373.48        25.48072
373.93         25.5138
374.38        25.49784
374.83        25.36282
375.28        25.10237
375.72        24.73053
376.17        24.33671
376.62        24.02698
377.07         23.8405
377.52        23.75537
377.97        23.73197
378.42          23.703
378.87        23.64423
379.32        23.56912
379.77        23.49816
380.22        23.45996
380.67        23.45629
381.11         23.4769
381.56        23.46814
382.01        23.36681
382.46        23.16253
382.91        22.87413
383.36        22.58166
383.81        22.40329
384.26        22.36168
384.71        22.43215
385.15        22.51011
385.60        22.43963
386.05        22.19399
386.50        21.82501
386.95        21.46881
387.40        21.33923
387.85         21.4689
388.29        21.76858
388.74        22.08675
389.19        22.20068
389.64        22.06375
390.09        21.73923
390.54        21.34917
390.98        21.08118
391.43        21.00686
391.88        21.06021
392.33        21.13277
392.78        21.06894
393.23        20.85257
393.67        20.53483
394.12        20.26062
394.57        20.15784
395.02        20.24838
395.47        20.48166
395.91        20.75565
396.36        20.86931
396.81        20.77639
397.26        20.53231
397.71        20.25513
398.15        20.10481
398.60        20.13777
399.05        20.28579
399.50         20.4446
399.95        20.46593
400.39        20.31955
400.84        20.04918
401.29        19.75761
401.74        19.63048
402.18        19.72058
402.63         19.9563
403.08         20.2049
403.53        20.25607
403.97        20.06743
404.42        19.72385
404.87        19.35106
405.32        19.15436
405.76        19.18416
406.21        19.36777
406.66        19.61188
407.11        19.77238
407.55        19.80666
408.00        19.76482
408.45        19.67633
408.90           19.54
409.34        19.39769
409.79        19.33668
410.24        19.33292
410.68        19.26945
411.13        19.14733
411.58        19.04359
412.03        18.97024
412.47        18.91831
412.92        18.88958
413.37        18.88055
413.81        18.90747
414.26        19.00975
414.71        19.17848
415.15        19.40468
415.60        19.60219
416.05        19.66101
416.49        19.55375
416.94        19.31641
417.39        19.03693
417.83        18.85969
418.28        18.82938
418.73        18.90024
419.17        19.00522
419.62        19.02679
420.07        18.94317
420.51        18.79869
420.96        18.64809
421.41        18.55278
421.85         18.5249
422.30        18.54992
422.74        18.60851
423.19        18.70658
423.64         18.8274
424.08        18.98084
424.53        19.11556
424.98        19.17164
425.42        19.13888
425.87        19.03551
426.31        18.90268
426.76         18.8157
427.21        18.78307
427.65        18.77603
428.10        18.79939
428.54        18.83109
428.99        18.86626
429.44        18.99962
429.88        19.13509
430.33        18.99287
430.77        18.64478
431.22        18.46215
431.66        18.49721
432.11        18.61861
432.56        18.79646
433.00        19.11582
433.45        19.38498
433.89        19.31709
434.34        19.03657
434.78        18.75445
435.23        18.44987
435.67        19.31595
436.12         18.6681
436.57        18.59833
437.01         18.3969
437.46        18.36018
437.90        18.50067
438.35        18.69424
438.79        18.86394
439.24        18.94936
439.68        18.92825
440.13        18.66868
440.57        18.32001
441.02         18.4153
441.46        18.79605
441.91         18.8633
442.35        18.16394
442.80        17.94731
443.24        18.02558
443.69        18.01029
444.13         17.8752
444.58        17.77963
445.02        17.73473
445.47        17.74431
445.91          17.786
446.36        17.78339
446.80        17.72292
447.24        17.64957
447.69        17.58885
448.13         17.5412
448.58         17.5195
449.02        17.51729
449.47        17.52341
449.91        17.51301
450.36         17.4864
450.80        17.44818
451.25        17.41874
451.69        17.41078
452.13        17.43299
452.58         17.4725
453.02        17.52096
453.47        17.56768
453.91         17.6078
454.36        17.64151
454.80         17.6595
455.24        17.64371
455.69        17.59946
456.13        17.52024
456.58        17.44043
457.02        17.38925
457.46        17.37831
457.91        17.38354
458.35        17.38712
458.79        17.38251
459.24        17.36167
459.68        17.34155
460.13        17.37166
460.57        17.35563
461.01        17.27736
461.46        17.60912
461.90        17.67019
462.34        17.48518
462.79        17.63739
463.23        17.53194
463.68        17.44014
464.12        17.34216
464.56        17.38715
465.01        17.45499
465.45        17.51687
465.89        17.54595
466.34        17.54023
466.78        17.45169
467.22        17.33365
467.67        17.39584
468.11        17.59757
468.55        17.59385
468.99         17.4105
469.44        17.37385
469.88         17.4966
470.32        17.59361
470.77        17.63011
471.21        17.64228
471.65        17.62449
472.10        17.57082
472.54        17.50606
472.98        17.50702
473.42        17.58325
473.87        17.66162
474.31        17.72551
474.75        17.85785
475.20        18.01316
475.64        18.00129
476.08        17.87407
476.52        17.87053
476.97        18.00448
477.41        18.16521
477.85         18.2963
478.29        18.36113
478.74        18.34859
479.18        18.24023
479.62        18.12397
480.06        18.14224
480.50        18.29386
480.95        18.44903
481.39        18.55114
481.83         18.6038
482.27        18.59637
482.72         18.5257
483.16        18.43942
483.60        18.42233
484.04        18.48322
484.48        18.66509
484.93        19.01197
485.37        19.17137
485.81        19.21745
486.25        19.86676
486.69        20.11346
487.14        19.45555
487.58        19.64623
488.02        20.52597
488.46        20.08715
488.90        20.11528
489.34        19.92256
489.79        20.12005
490.23        20.60671
490.67        20.88403
491.11        20.91105
491.55        20.85654
491.99         20.7818
492.43        20.76654
492.88        20.84146
493.32        20.92579
493.76        21.03019
494.20        21.22012
494.64        21.49391
495.08        21.82189
495.52        22.14892
495.96        22.40951
496.41        22.58786
496.85        22.65737
497.29        22.67454
497.73        22.84048
498.17        23.14066
498.61        23.31539
499.05        23.36347
499.49        23.51999
499.93        23.79244
500.37        23.98906
500.82        24.11114
501.26        24.35682
501.70        24.66905
502.14        24.71674
502.58        24.56042
503.02        24.57721
503.46        24.79422
503.90        25.01711
504.34        25.18388
504.78        25.27784
505.22        25.28053
505.66        25.20547
506.10          25.106
506.54        25.06482
506.98        25.10915
507.42        25.22303
507.86        25.37527
508.30        25.51209
508.74        25.61496
509.18        25.69442
509.62        25.77719
510.06        25.90431
510.50        26.08146
510.94        26.29362
511.38        26.48635
511.82         26.5753
512.26        26.54488
512.70        26.42066
513.14        26.28257
513.58        26.25252
514.02        26.35129
514.46        26.54686
514.90        26.75871
515.34         26.7914
515.78        26.66029
516.22        26.46806
516.66        26.32065
517.10        26.05396
517.54        25.69744
517.98        26.28369
518.42        26.22293
518.86        26.47492
519.30        26.54805
519.74        26.60831
520.18        26.64685
520.62        26.62872
521.06         26.5729
521.50        26.47116
521.93        26.34831
522.37        26.25542
522.81        26.20461
523.25        26.18861
523.69        26.18864
524.13        26.17209
524.57        26.12882
525.01        26.06571
525.45        25.99827
525.89        25.95036
526.32        25.92599
526.76        25.92001
527.20        25.90545
527.64        25.84484
528.08        25.73103
528.52        25.57232
528.96        25.41126
529.40        25.31149
529.83        25.28283
530.27         25.3139
530.71        25.34148
531.15        25.26744
531.59        25.07904
532.03        24.81333
532.46        24.55045
532.90        24.43425
533.34        24.48234
533.78        24.64049
534.22        24.82819
534.66        24.92191
535.09        24.88478
535.53        24.76768
535.97        24.60266
536.41        24.43706
536.85        24.29717
537.28         24.1817
537.72         24.1197
538.16        24.08432
538.60        24.19287
539.04        24.32891
539.47        24.47551
539.91        24.61477
540.35        24.74632
540.79        24.66651
541.22        24.71721
541.66        24.75992
542.10        24.92158
542.54        24.79081
542.97        25.02175
543.41        25.14895
543.85        25.34745
544.29        25.55369
544.72        25.73283
545.16        25.90518
545.60        26.05737
546.04        26.10197
546.47        26.11756
546.91        26.39556
547.35        26.87032
547.79        27.19226
548.22        27.31202
548.66         27.3448
549.10        27.34198
549.53        27.48314
549.97           27.79
550.41        27.80332
550.84        28.04036
551.28        28.21193
551.72        28.48512
552.15        28.76294
552.59         29.0331
553.03        29.34201
553.46        29.64692
553.90        29.71914
554.34        29.86622
554.77         29.8518
555.21          29.828
555.65        29.86859
556.08        29.99161
556.52        30.16772
556.96        30.35751
557.39         30.5436
557.83        30.70063
558.27         30.7664
558.70        30.76512
559.14        30.79751
559.57        30.86504
560.01        30.95368
560.45        31.04076
560.88        31.04582
561.32        31.02555
561.75         31.0929
562.19        31.34198
562.63        31.41619
563.06        31.36434
563.50        31.41189
563.93        31.54646
564.37        31.69665
564.80        31.71325
565.24        31.79987
565.68        31.90166
566.11        31.99523
566.55        32.09898
566.98        32.18402
567.42        32.24882
567.85        32.54868
568.29        32.46956
568.72        32.83416
569.16        33.36342
569.60        33.63343
570.03        33.59188
570.47        33.67681
570.90        33.77533
571.34        33.85511
571.77         33.5297
572.21        34.16206
572.64        34.34739
573.08        34.56255
573.51         34.5233
573.95        35.07796
574.38        35.17212
574.82        35.30349
