SpectraSmart Spectrum 2.9.0.0
--------- Device Information -----------
Spectrum Name :  反射率_0
Saving Time :  2024/04/20 00:51:53
Spectro-Module Model Name : SE2030-DUVN
Spectro-Module Serial Number : OS361AC55029948
Wavelength Start : 200
Wavelength End : 1025
Wavelength Unit : Wavelength(nm)
Spectrum Unit : Reflectance(%)
-----------Spectrum Setting ------------
Integration Time : 30ms
Average : 10
Boxcar : 0
Background removal :  enabled
linearity correction :  enabled
SC :  disabled
Intensity correction :  disabled
DWT denoise :  enabled
savitzky-golay :  disabled
FFT :  disabled
Running average :  disabled
Kalman :  disabled
High pass :  disabled
---------------BEGIN--------------------
Wavelength(nm)             Reflectance(%)
200.29               0
200.75        56.74221
201.21        57.34443
201.67        60.71648
202.13        67.00207
202.58         75.8761
203.04        87.76023
203.50        98.84438
203.96        100.1144
204.42        91.76019
204.88        79.88379
205.34        69.49043
205.80        62.55883
206.26         57.8381
206.72        53.59885
207.18        49.89129
207.64        49.08447
208.10         53.1158
208.55         61.1635
209.01        68.35435
209.47        71.61924
209.93        71.39106
210.39         68.6229
210.85        65.24287
211.31        63.46513
211.77        63.58073
212.23        65.36269
212.69        67.61492
213.14        66.83076
213.60        62.34585
214.06        57.48098
214.52        54.55859
214.98        54.75429
215.44         57.5829
215.90        62.30692
216.36        68.18939
216.81        72.76734
217.27        74.38091
217.73        73.90431
218.19        71.52408
218.65        67.38689
219.11        61.69835
219.57        53.98736
220.02         45.8466
220.48        42.14002
220.94         44.4032
221.40        52.15434
221.86        61.59719
222.32        66.70824
222.77        66.08163
223.23        61.43895
223.69        56.33844
224.15        55.89187
224.61        59.94507
225.06         65.7338
225.52         70.3594
225.98        71.25885
226.44        68.52987
226.90        63.36338
227.36        57.51699
227.81        54.13133
228.27        54.43245
228.73        57.01284
229.19        60.25804
229.65        62.30371
230.10        62.82965
230.56         62.5983
231.02        62.17444
231.48        62.25617
231.93        62.87114
232.39        63.72216
232.85         64.3675
233.31        64.23402
233.77        63.22083
234.22        61.57065
234.68        59.69178
235.14        58.19678
235.60        57.34241
236.05        57.00396
236.51        56.98541
236.97        56.92477
237.43        56.70241
237.88        56.56075
238.34        56.40435
238.80        56.52794
239.26         56.9938
239.71        57.55149
240.17        58.06862
240.63        58.90248
241.08        60.15155
241.54        61.75716
242.00        62.94117
242.46        62.12181
242.91        58.45975
243.37        50.83325
243.83        39.84614
244.28        32.89244
244.74        37.23105
245.20        51.53167
245.66        65.49856
246.11        70.01478
246.57        64.13435
247.03        48.29375
247.48        26.03444
247.94        18.34473
248.40        28.95748
248.85        43.22808
249.31         53.7977
249.77        59.06342
250.22        60.50735
250.68         59.9777
251.14        58.04247
251.59        55.60106
252.05        53.63915
252.51        51.85328
252.96        50.46324
253.42        50.23407
253.88        51.15023
254.33        52.89101
254.79        55.53203
255.25        58.76907
255.70        62.24127
256.16         65.6461
256.62        68.07549
257.07        68.54597
257.53        67.30876
257.99        64.71756
258.44        61.54736
258.90        59.55159
259.35          58.471
259.81         58.2376
260.27        57.82911
260.72        56.35254
261.18         54.1348
261.63        51.20019
262.09         48.6618
262.55        47.56361
263.00        47.84706
263.46        49.07275
263.91        50.08565
264.37        49.78891
264.83        48.18107
265.28        45.73106
265.74        43.54296
266.19        42.71755
266.65        43.39886
267.11        44.95803
267.56        46.60739
268.02        47.23235
268.47        46.63138
268.93        45.21329
269.38        43.40771
269.84        42.12383
270.30        41.60706
270.75        41.58146
271.21        41.76021
271.66        41.72119
272.12         41.3243
272.57        40.70528
273.03        40.01687
273.48        39.38343
273.94        38.90127
274.39        38.49411
274.85        38.08398
275.31          37.523
275.76         36.7825
276.22        35.94685
276.67        35.17015
277.13        34.78904
277.58        34.76652
278.04        35.00564
278.49        35.17607
278.95        34.88751
279.40        34.05861
279.86        32.94064
280.31        31.74633
280.77        30.92289
281.22        30.49349
281.68        30.34726
282.13        30.33031
282.59        30.26307
283.04        30.07175
283.50        29.84871
283.95        29.57631
284.41        29.26897
284.86        28.91235
285.32        28.51127
285.77        28.10674
286.22        27.84374
286.68        27.73316
287.13        27.71356
287.59        27.67726
288.04        27.42904
288.50         26.9649
288.95        26.32858
289.41        25.66733
289.86        25.13293
290.32        24.81653
290.77        24.65046
291.22        24.60093
291.68        24.58111
292.13        24.56223
292.59        24.58523
293.04        24.65621
293.50        24.79818
293.95        25.00513
294.40        25.24884
294.86        25.52118
295.31        25.82705
295.77        26.16166
296.22        26.52518
296.68        26.88763
297.13        27.17495
297.58        27.39179
298.04        27.57573
298.49        27.79244
298.95        28.17892
299.40        28.74465
299.85        29.43815
300.31        30.18122
300.76        30.85549
301.21        31.41452
301.67        31.90066
302.12        32.29945
302.58        32.64647
303.03        32.93814
303.48        33.18839
303.94        33.44392
304.39        33.74198
304.84        34.09937
305.30        34.49424
305.75        34.88496
306.20         35.2243
306.66        35.51298
307.11        35.75209
307.57        35.94312
308.02        36.01808
308.47        36.00148
308.93        35.90547
309.38        35.81471
309.83        35.90847
310.29        36.19937
310.74        36.63082
311.19        37.02963
311.65        37.11931
312.10         36.8495
312.55        36.31783
313.00        35.72636
313.46         35.3853
313.91        35.35387
314.36        35.55075
314.82        35.82646
315.27        35.95903
315.72        35.87056
316.18        35.64592
316.63        35.36436
317.08        35.15139
317.53        35.04165
317.99        34.98078
318.44        34.93525
318.89        34.84783
319.35        34.70135
319.80        34.52243
320.25        34.32962
320.70        34.14813
321.16        33.98134
321.61        33.82056
322.06        33.65329
322.51        33.46613
322.97        33.24867
323.42        33.01408
323.87        32.76022
324.32        32.48889
324.78        32.20005
325.23        31.90643
325.68        31.61162
326.13        31.32592
326.59         31.0586
327.04        30.83632
327.49        30.66092
327.94        30.53695
328.39        30.46074
328.85        30.40318
329.30        30.40429
329.75        30.48372
330.20        30.62785
330.66        30.80074
331.11        30.93349
331.56        30.86559
332.01        30.56885
332.46        30.08484
332.92        29.53782
333.37        29.15404
333.82        29.00797
334.27        29.06494
334.72        29.22173
335.17        29.29035
335.63        29.20012
336.08        29.00326
336.53        28.80046
336.98        28.77174
337.43        28.95157
337.88        29.28064
338.34        29.56814
338.79        29.55689
339.24        29.17937
339.69        28.52059
340.14        27.83403
340.59        27.54119
341.05        27.72714
341.50        28.26407
341.95         28.8799
342.40        29.15299
342.85        28.98796
343.30        28.53473
343.75        27.98041
344.20        27.62936
344.66        27.56944
345.11        27.66673
345.56        27.86098
346.01        28.05965
346.46        28.20279
346.91        28.33239
347.36         28.3563
347.81        28.11808
348.26         27.6263
348.72        26.96622
349.17        26.29639
349.62        25.96459
350.07         26.0544
350.52        26.44574
350.97         26.9918
351.42        27.46804
351.87        27.78445
352.32        27.98976
352.77        28.04826
353.22        27.90811
353.67         27.5878
354.13        27.12116
354.58        26.60032
355.03        26.21906
355.48        26.03137
355.93        26.00191
356.38        26.07211
356.83        26.13395
357.28        26.14274
357.73        26.11743
358.18        26.05958
358.63        25.97313
359.08        25.86172
359.53        25.72112
359.98        25.53979
360.43        25.30649
360.88        25.03009
361.33        24.72293
361.78         24.4425
362.23        24.27916
362.68        24.24275
363.13        24.29449
363.58        24.35555
364.03        24.30289
364.48          24.104
364.93        23.79621
365.38        23.42009
365.83         23.0511
366.28        22.72878
366.73        22.43922
367.18        22.20092
367.63        22.03953
368.08        21.94943
368.53        21.92216
368.98        21.91693
369.43        21.86307
369.88        21.74454
370.33        21.58329
370.78         21.3953
371.23        21.21563
371.68        21.06162
372.13        20.91553
372.58        20.81028
373.03          20.801
373.48        20.88338
373.93        21.03439
374.38        21.16386
374.83        21.13303
375.28        20.91708
375.72        20.54937
376.17        20.14386
376.62        19.84669
377.07        19.70789
377.52        19.68934
377.97        19.73587
378.42        19.75895
378.87        19.72848
379.32        19.66653
379.77         19.6032
380.22        19.58006
380.67        19.60179
381.11        19.65215
381.56        19.67031
382.01        19.58021
382.46        19.36801
382.91        19.05755
383.36        18.73516
383.81         18.5283
384.26        18.46256
384.71        18.51028
385.15        18.56654
385.60        18.47249
386.05        18.20131
386.50        17.80665
386.95        17.42524
387.40        17.27002
387.85        17.37774
388.29        17.66852
388.74        17.98782
389.19        18.11609
389.64        18.00913
390.09         17.7281
390.54        17.40581
390.98        17.24723
391.43        17.31317
391.88        17.52093
392.33        17.73066
392.78        17.74386
393.23        17.54015
393.67        17.19293
394.12        16.86424
394.57        16.71539
395.02        16.77778
395.47        16.99163
395.91        17.26174
396.36        17.40014
396.81        17.35853
397.26        17.19304
397.71         16.9931
398.15        16.87681
398.60        16.89392
399.05         16.9907
399.50        17.10263
399.95        17.14199
400.39        17.08731
400.84        16.96345
401.29        16.83136
401.74        16.79912
402.18        16.89562
402.63        17.07548
403.08        17.24323
403.53         17.2464
403.97        17.06127
404.42        16.75502
404.87        16.44252
405.32        16.31174
405.76        16.40385
406.21         16.6499
406.66        16.95444
407.11        17.16898
407.55        17.24916
408.00        17.24338
408.45        17.17589
408.90        17.04583
409.34        16.89505
409.79        16.80268
410.24         16.7649
410.68        16.70529
411.13        16.62983
411.58        16.60098
412.03        16.61266
412.47        16.62613
412.92        16.63118
413.37        16.62861
413.81        16.64633
414.26        16.74263
414.71        16.91447
415.15        17.14846
415.60        17.34881
416.05        17.38796
416.49        17.23885
416.94        16.94996
417.39        16.63083
417.83        16.45785
418.28        16.48156
418.73        16.64228
419.17        16.85357
419.62        16.96835
420.07        16.95129
420.51        16.84914
420.96         16.7159
421.41        16.61411
421.85        16.56182
422.30        16.55002
422.74        16.56164
423.19        16.60336
423.64        16.66283
424.08        16.74782
424.53        16.83517
424.98        16.90893
425.42        16.96344
425.87        17.00315
426.31        17.01212
426.76        16.97856
427.21        16.89642
427.65         16.7632
428.10        16.64467
428.54        16.62707
428.99        16.72985
429.44        16.99613
429.88         17.2868
430.33        17.27107
430.77         16.9941
431.22        16.82098
431.66        16.82018
432.11        16.90148
432.56         17.0504
433.00        17.33491
433.45        17.57739
433.89        17.52019
434.34        17.27461
434.78        17.01882
435.23        16.74136
435.67        17.56449
436.12        17.03363
436.57        16.97771
437.01        16.74912
437.46          16.682
437.90        16.79167
438.35        16.92515
438.79        17.03115
439.24        17.10442
439.68        17.12873
440.13        16.96886
440.57        16.72885
441.02        16.84712
441.46        17.17019
441.91         17.1692
442.35        16.46436
442.80        16.23276
443.24         16.3092
443.69        16.32815
444.13        16.25344
444.58        16.21111
445.02        16.20244
445.47        16.23719
445.91        16.29012
446.36        16.28318
446.80        16.20474
447.24        16.09818
447.69        16.00003
448.13        15.93136
448.58        15.90954
449.02        15.92475
449.47        15.95683
449.91        15.96545
450.36        15.94617
450.80        15.90744
451.25        15.87614
451.69        15.87702
452.13        15.91885
452.58        15.98122
453.02        16.04785
453.47        16.09523
453.91        16.11765
454.36        16.12436
454.80        16.11019
455.24        16.06585
455.69        16.00328
456.13        15.91125
456.58        15.83666
457.02         15.8397
457.46        15.92416
457.91        16.03205
458.35        16.12616
458.79        16.19031
459.24        16.20972
459.68        16.19395
460.13        16.20625
460.57        16.18998
461.01        16.13824
461.46        16.48365
461.90        16.57705
462.34        16.41931
462.79        16.55428
463.23        16.43017
463.68         16.3196
464.12        16.23141
464.56        16.30963
465.01        16.43037
465.45        16.54234
465.89        16.58719
466.34        16.55923
466.78        16.42535
467.22        16.25863
467.67        16.29245
468.11        16.49802
468.55        16.54019
468.99        16.42418
469.44        16.42737
469.88        16.55479
470.32        16.64319
470.77        16.66693
471.21        16.67234
471.65        16.65804
472.10         16.6102
472.54        16.55844
472.98        16.58753
473.42        16.70441
473.87         16.8362
474.31        16.94296
474.75        17.06595
475.20        17.15956
475.64        17.05957
476.08        16.85008
476.52        16.80825
476.97        16.95756
477.41        17.17589
477.85        17.38966
478.29         17.5293
478.74        17.56796
479.18        17.49537
479.62        17.39172
480.06        17.38756
480.50        17.48603
480.95        17.56803
481.39        17.59444
481.83        17.59098
482.27        17.55301
482.72        17.47419
483.16        17.39837
483.60        17.39015
484.04        17.45262
484.48        17.65388
484.93        18.00099
485.37        18.10243
485.81        18.08431
486.25         18.6482
486.69        18.96443
487.14        18.57245
487.58        18.29971
488.02        19.33143
488.46        18.87568
488.90        18.97862
489.34        18.72642
489.79         18.8742
490.23        19.33137
490.67        19.50195
491.11        19.39451
491.55        19.32636
491.99        19.33507
492.43        19.32248
492.88        19.30604
493.32        19.31132
493.76        19.36064
494.20        19.48844
494.64         19.6971
495.08        19.96485
495.52        20.24282
495.96        20.47299
496.41        20.63843
496.85        20.71257
497.29        20.73288
497.73        20.86221
498.17          21.083
498.61        21.16329
499.05        21.12199
499.49        21.20571
499.93        21.42913
500.37        21.60949
500.82        21.73111
501.26        21.94539
501.70        22.19312
502.14        22.18671
502.58        21.99029
503.02        21.95537
503.46        22.11108
503.90        22.27921
504.34        22.40712
504.78        22.48416
505.22        22.49313
505.66        22.44698
506.10        22.38737
506.54        22.36532
506.98        22.39857
507.42        22.49794
507.86        22.64957
508.30        22.70842
508.74        22.85261
509.18        22.93053
509.62        23.01236
510.06        23.11272
510.50        23.23493
510.94        23.37205
511.38         23.4836
511.82          23.512
512.26        23.45054
512.70         23.3197
513.14        23.19117
513.58        23.17359
514.02        23.28185
514.46         23.4841
514.90        23.70457
515.34        23.75871
515.78        23.65366
516.22        23.49927
516.66        23.38472
517.10        23.11299
517.54        22.71043
517.98        23.25968
518.42        23.13383
518.86        23.37506
519.30        23.47952
519.74        23.60639
520.18        23.71629
520.62         23.7245
521.06        23.64051
521.50        23.47378
521.93        23.27643
522.37        23.14331
522.81         23.1003
523.25        23.12688
523.69        23.19062
524.13        23.23817
524.57        23.25076
525.01        23.23949
525.45        23.22158
525.89         23.2232
526.32        23.24726
526.76        23.28398
527.20        23.29969
527.64        23.24885
528.08        23.12458
528.52        22.94108
528.96        22.75262
529.40        22.63911
529.83        22.61695
530.27        22.67334
530.71        22.73914
531.15        22.70545
531.59        22.55474
532.03        22.32256
532.46        22.09739
532.90        22.03511
533.34        22.15311
533.78        22.39302
534.22        22.64987
534.66        22.76386
535.09        22.69534
535.53        22.50706
535.97        22.27105
536.41        22.09846
536.85        22.02696
537.28        22.03236
537.72        22.09901
538.16        22.13396
538.60        22.22775
539.04         22.2972
539.47        22.35666
539.91        22.43448
540.35        22.54437
540.79        22.48621
541.22        22.56055
541.66        22.62525
542.10        22.78905
542.54        22.67938
542.97        22.89566
543.41        23.01305
543.85        23.18989
544.29        23.36469
544.72         23.4996
545.16        23.60464
545.60        23.66982
546.04        23.62541
546.47        23.55531
546.91        23.74062
547.35        24.12867
547.79        24.40203
548.22        24.51816
548.66        24.57607
549.10        24.61763
549.53        24.80973
549.97        25.15057
550.41        25.17799
550.84        25.35207
551.28        25.42759
551.72        25.57214
552.15        25.74421
552.59        25.94895
553.03        26.18398
553.46        26.40101
553.90        26.55302
554.34        26.62834
554.77          26.644
555.21        26.64275
555.65        26.67991
556.08        26.76684
556.52         26.8835
556.96        27.01076
557.39        27.15342
557.83        27.29296
558.27        27.36539
558.70        27.38073
559.14        27.40972
559.57        27.45141
560.01        27.50381
560.45        27.55118
560.88        27.53492
561.32        27.51262
561.75        27.55986
562.19        27.77251
562.63        27.90544
563.06        27.97481
563.50        28.05583
563.93        28.14736
564.37        28.30054
564.80        28.38516
565.24        28.51385
565.68        28.61488
566.11        28.69072
566.55        28.76209
566.98        28.73766
567.42        28.64571
567.85        28.98426
568.29         28.9707
568.72         29.2696
569.16        29.58532
569.60        29.82304
570.03        29.93739
570.47        30.00984
570.90        29.93531
571.34        30.26964
571.77        30.03727
572.21        30.52485
572.64        30.65145
573.08        30.82614
573.51         30.7197
573.95        31.30015
574.38        31.39417
574.82        31.59766
