SpectraSmart Spectrum 2.9.0.0
--------- Device Information -----------
Spectrum Name :  反射率_0
Saving Time :  2024/04/20 00:07:54
Spectro-Module Model Name : SE2030-DUVN
Spectro-Module Serial Number : OS361AC55029948
Wavelength Start : 200
Wavelength End : 1025
Wavelength Unit : Wavelength(nm)
Spectrum Unit : Reflectance(%)
-----------Spectrum Setting ------------
Integration Time : 30ms
Average : 10
Boxcar : 0
Background removal :  enabled
linearity correction :  enabled
SC :  disabled
Intensity correction :  disabled
DWT denoise :  enabled
savitzky-golay :  disabled
FFT :  disabled
Running average :  disabled
Kalman :  disabled
High pass :  disabled
---------------BEGIN--------------------
Wavelength(nm)             Reflectance(%)
200.29               0
200.75        59.31992
201.21        60.34587
201.67        63.82581
202.13        69.46986
202.58        76.81131
203.04        86.09371
203.50        94.69632
203.96        96.27579
204.42        90.83888
204.88        82.62305
205.34         75.1807
205.80        69.89631
206.26         65.8661
206.72        61.73812
207.18        57.58103
207.64        56.11715
208.10        59.57915
208.55        66.74602
209.01        73.10771
209.47        75.79029
209.93        75.17208
210.39        72.52998
210.85        68.86301
211.31        65.04102
211.77         60.9649
212.23        55.68444
212.69        49.92082
213.14        47.85014
213.60          50.536
214.06        55.85921
214.52        60.49068
214.98         62.5977
215.44        62.55629
215.90        60.72302
216.36        58.22005
216.81        57.69468
217.27        59.90009
217.73        63.91113
218.19         67.1191
218.65        65.99107
219.11        59.87226
219.57        49.33225
220.02        37.02375
220.48        30.18664
220.94        31.51382
221.40        39.72002
221.86        50.21996
222.32        55.83921
222.77        54.87307
223.23        49.68967
223.69        44.09474
224.15        43.41339
224.61          47.543
225.06        53.47725
225.52        58.39828
225.98          60.042
226.44        58.47039
226.90        54.81114
227.36         50.3284
227.81        47.23321
228.27        46.58971
228.73        47.42654
229.19        48.86605
229.65        49.88908
230.10        50.24225
230.56         50.3194
231.02         50.2816
231.48        50.30438
231.93        50.37662
232.39        50.39758
232.85        50.22626
233.31        49.72179
233.77        48.88702
234.22         47.8184
234.68        46.71658
235.14        45.81538
235.60        45.26097
236.05        45.06007
236.51        45.19518
236.97        45.61984
237.43        46.36419
237.88        47.62886
238.34        49.40067
238.80        51.61826
239.26        53.84139
239.71        55.71964
240.17        56.82511
240.63        57.32848
241.08        57.47927
241.54        57.24999
242.00        56.61976
242.46        55.37098
242.91        53.28088
243.37        49.81388
243.83        45.75486
244.28        45.36271
244.74        51.76318
245.20        63.17442
245.66        72.63129
246.11        74.97302
246.57        69.82047
247.03         57.0204
247.48        39.30585
247.94        33.39809
248.40        42.05342
248.85        53.67574
249.31        62.42941
249.77        67.03695
250.22        68.69181
250.68        68.85792
251.14        67.82455
251.59        65.89076
252.05        63.62094
252.51        60.90292
252.96        58.17587
253.42        56.63018
253.88        56.61242
254.33        57.86401
254.79        60.46529
255.25        64.04813
255.70        68.14401
256.16        72.33999
256.62        75.74756
257.07        77.41729
257.53        77.51865
257.99        76.30582
258.44        74.07927
258.90        72.11773
259.35        70.36015
259.81        69.27936
260.27        68.25568
260.72        66.73653
261.18        64.99802
261.63        62.77795
262.09        60.96825
262.55        60.24472
263.00         60.4732
263.46         61.4219
263.91        62.00906
264.37        61.29811
264.83         59.2997
265.28         56.4306
265.74        53.84428
266.19        52.65837
266.65        53.04313
267.11        54.36287
267.56        55.76978
268.02        56.07618
268.47        55.05421
268.93        53.12715
269.38        50.80202
269.84        49.13553
270.30        48.40859
270.75        48.29875
271.21        48.40735
271.66        48.12688
272.12        47.29293
272.57        46.11602
273.03        44.85913
273.48        43.81575
273.94         43.1279
274.39        42.63705
274.85        42.22035
275.31        41.66266
275.76        40.88987
276.22        40.00118
276.67        39.09581
277.13        38.43555
277.58        37.99619
278.04        37.74135
278.49        37.42233
278.95         36.7774
279.40        35.74931
279.86         34.5397
280.31        33.34727
280.77        32.60276
281.22        32.29543
281.68        32.31284
282.13        32.41414
282.59        32.29265
283.04        31.87226
283.50        31.30747
283.95        30.70082
284.41        30.24747
284.86        29.96913
285.32        29.81189
285.77        29.74535
286.22        29.80079
286.68        29.94752
287.13        30.14964
287.59        30.30801
288.04        30.23891
288.50        29.94619
288.95        29.45471
289.41         28.9232
289.86        28.52412
290.32        28.35378
290.77        28.34787
291.22        28.45406
291.68         28.5522
292.13        28.61915
292.59        28.72524
293.04        28.92305
293.50        29.30732
293.95        29.88475
294.40          30.602
294.86        31.41822
295.31        32.28609
295.77        33.17699
296.22         34.0937
296.68        34.99234
297.13        35.78186
297.58        36.45296
298.04        37.02953
298.49        37.58016
298.95         38.2637
299.40        39.09256
299.85        40.01799
300.31        40.95846
300.76        41.77359
301.21        42.43239
301.67        43.01198
302.12        43.51698
302.58        44.02855
303.03        44.54212
303.48        45.05201
303.94        45.61349
304.39        46.26575
304.84        47.00983
305.30        47.81433
305.75        48.55476
306.20        49.07077
306.66        49.35839
307.11        49.45712
307.57        49.48068
308.02        49.51493
308.47        49.62149
308.93         49.7589
309.38        49.93584
309.83          50.227
310.29         50.6143
310.74        51.07509
311.19        51.44454
311.65        51.45558
312.10        51.06676
312.55          50.368
313.00        49.60733
313.46        49.17006
313.91        49.12353
314.36        49.37127
314.82        49.69263
315.27         49.7485
315.72        49.43839
316.18        48.89581
316.63        48.27509
317.08        47.82362
317.53         47.6019
317.99        47.51095
318.44        47.46885
318.89        47.33716
319.35         47.0703
319.80        46.72397
320.25        46.32746
320.70        45.92224
321.16        45.52272
321.61         45.1162
322.06        44.70787
322.51        44.31922
322.97        43.94387
323.42        43.58815
323.87        43.22648
324.32        42.81943
324.78        42.35078
325.23         41.8495
325.68        41.31887
326.13        40.77639
326.59        40.23897
327.04        39.73371
327.49        39.28374
327.94        38.92948
328.39        38.67064
328.85        38.46722
329.30        38.33047
329.75        38.21441
330.20        38.09411
330.66        37.95594
331.11        37.77619
331.56        37.45893
332.01        36.99353
332.46        36.40224
332.92        35.77927
333.37        35.30868
333.82        35.04442
334.27         34.9615
334.72         34.9699
335.17        34.90509
335.63        34.70274
336.08        34.41114
336.53        34.11268
336.98        33.96246
337.43        33.99137
337.88        34.14972
338.34        34.27306
338.79        34.14693
339.24        33.70849
339.69         33.0239
340.14         32.3141
340.59        31.94796
341.05        31.99849
341.50        32.36015
341.95        32.77783
342.40        32.85364
342.85        32.50392
343.30        31.87159
343.75         31.1622
344.20        30.71125
344.66        30.60864
345.11        30.71127
345.56        30.92361
346.01        31.09322
346.46         31.1492
346.91        31.15608
347.36        31.04902
347.81        30.71536
348.26        30.17368
348.72        29.48623
349.17        28.81377
349.62        28.50711
350.07        28.64105
350.52        29.09706
350.97        29.68204
351.42        30.10107
351.87        30.25788
352.32        30.22055
352.77        30.03009
353.22        29.76035
353.67        29.45416
354.13        29.10682
354.58        28.72455
355.03        28.36382
355.48        28.05178
355.93        27.80578
356.38        27.64069
356.83        27.56208
357.28         27.5563
357.73         27.6001
358.18        27.66045
358.63        27.68659
359.08        27.65263
359.53         27.5653
359.98        27.40091
360.43        27.12876
360.88        26.75977
361.33        26.31304
361.78        25.86749
362.23        25.55388
362.68        25.39976
363.13        25.36231
363.58         25.3663
364.03        25.28832
364.48         25.0908
364.93        24.81112
365.38        24.47002
365.83         24.1093
366.28        23.75826
366.73        23.40661
367.18        23.09312
367.63        22.87813
368.08        22.76565
368.53        22.74127
368.98        22.74258
369.43        22.66521
369.88        22.48721
370.33        22.23914
370.78        21.97057
371.23        21.77231
371.68        21.67168
372.13        21.63218
372.58        21.63447
373.03        21.64762
373.48        21.64809
373.93        21.64265
374.38         21.5958
374.83        21.45069
375.28        21.20317
375.72        20.86203
376.17        20.50811
376.62        20.23415
377.07         20.0733
377.52         20.0041
377.97         19.9913
378.42        19.97525
378.87        19.93291
379.32        19.87553
379.77        19.81535
380.22        19.76909
380.67        19.73808
381.11        19.71671
381.56        19.66841
382.01        19.55553
382.46        19.37418
382.91        19.13682
383.36        18.90388
383.81         18.7631
384.26         18.7301
384.71        18.78709
385.15        18.84904
385.60        18.78908
386.05        18.58458
386.50        18.27352
386.95        17.96836
387.40        17.84698
387.85         17.9365
388.29        18.16776
388.74        18.40689
389.19        18.46019
389.64        18.29197
390.09        17.96283
390.54        17.59213
390.98        17.36364
391.43        17.34107
391.88        17.45299
392.33        17.59334
392.78        17.61076
393.23        17.48126
393.67        17.25011
394.12        17.03341
394.57        16.93014
395.02        16.96104
395.47        17.08873
395.91        17.24208
396.36        17.28011
396.81         17.1765
397.26        16.97315
397.71        16.76535
398.15        16.67844
398.60        16.75349
399.05        16.93269
399.50        17.11928
399.95        17.17669
400.39        17.07664
400.84         16.8574
401.29        16.61229
401.74        16.51142
402.18        16.60444
402.63        16.82812
403.08        17.06287
403.53        17.11836
403.97         16.9577
404.42        16.65833
404.87         16.3411
405.32        16.20212
405.76        16.28689
406.21        16.52432
406.66         16.8157
407.11        17.00938
407.55        17.06203
408.00        17.02374
408.45        16.93353
408.90        16.81476
409.34        16.71063
409.79        16.68837
410.24        16.71764
410.68        16.68353
411.13         16.5841
411.58        16.49257
412.03        16.42517
412.47        16.38291
412.92         16.3695
413.37        16.37676
413.81        16.41638
414.26        16.52031
414.71         16.6793
415.15        16.88868
415.60        17.06777
416.05        17.11321
416.49        17.00095
416.94        16.76598
417.39        16.49797
417.83        16.34402
418.28        16.34702
418.73        16.45891
419.17        16.60482
419.62        16.65429
420.07        16.58277
420.51        16.43773
420.96        16.27893
421.41        16.17799
421.85        16.15121
422.30        16.18061
422.74        16.24493
423.19        16.34459
423.64        16.46164
424.08        16.60475
424.53        16.72848
424.98        16.77943
425.42        16.74827
425.87        16.65339
426.31        16.52355
426.76        16.41478
427.21          16.335
427.65        16.26252
428.10        16.22557
428.54        16.24386
428.99        16.31769
429.44        16.51242
429.88        16.71193
430.33         16.6232
430.77        16.30066
431.22        16.08518
431.66        16.04351
432.11        16.09557
432.56        16.22798
433.00        16.50728
433.45         16.7556
433.89        16.70762
434.34        16.46426
434.78        16.20048
435.23        15.91622
435.67        16.69411
436.12        16.20259
436.57        16.17104
437.01         15.9751
437.46        15.91944
437.90        16.01505
438.35        16.12444
438.79        16.19697
439.24        16.22455
439.68        16.19531
440.13        15.98243
440.57        15.70748
441.02        15.81628
441.46        16.16731
441.91        16.24975
442.35        15.66075
442.80        15.46332
443.24        15.49459
443.69        15.42373
444.13         15.2472
444.58        15.13431
445.02        15.10088
445.47        15.14167
445.91        15.21536
446.36        15.22081
446.80        15.13725
447.24        15.01339
447.69        14.89287
448.13        14.80794
448.58         14.7777
449.02        14.78822
449.47        14.80869
449.91        14.78422
450.36        14.70977
450.80        14.60114
451.25        14.50455
451.69        14.47441
452.13        14.52421
452.58        14.62359
453.02        14.73441
453.47        14.79837
453.91        14.80095
454.36        14.75974
454.80        14.68665
455.24        14.60316
455.69         14.5281
456.13        14.43987
456.58         14.3681
457.02        14.34821
457.46        14.38048
457.91        14.42313
458.35        14.45026
458.79        14.45536
459.24        14.42992
459.68        14.37892
460.13        14.36497
460.57        14.34749
461.01        14.31975
461.46        14.66001
461.90        14.77874
462.34        14.65224
462.79        14.76163
463.23        14.62225
463.68        14.48719
464.12        14.38182
464.56        14.44123
465.01        14.54792
465.45        14.65809
465.89        14.72222
466.34        14.73173
466.78        14.65558
467.22         14.5439
467.67        14.58028
468.11        14.73459
468.55        14.71651
468.99        14.54948
469.44        14.50923
469.88        14.60751
470.32        14.68949
470.77        14.72784
471.21        14.75561
471.65        14.76532
472.10        14.74937
472.54        14.71804
472.98        14.72196
473.42        14.76703
473.87        14.79754
474.31        14.80949
474.75        14.88494
475.20        14.99145
475.64        14.96918
476.08        14.86207
476.52         14.8695
476.97        15.00091
477.41        15.16229
477.85        15.30263
478.29        15.38434
478.74        15.39385
479.18        15.31514
479.62        15.21753
480.06        15.21514
480.50        15.30866
480.95        15.39411
481.39        15.43501
481.83        15.44884
482.27        15.43094
482.72        15.37896
483.16        15.32865
483.60        15.33577
484.04         15.4025
484.48        15.59265
484.93         15.9244
485.37        16.07685
485.81        16.13506
486.25        16.80001
486.69        16.87561
487.14        16.61829
487.58        16.57537
488.02        17.34576
488.46        16.93572
488.90        16.90947
489.34        16.68939
489.79        16.83286
490.23        17.27082
490.67        17.58292
491.11        17.69899
491.55        17.65081
491.99        17.50318
492.43        17.45906
492.88        17.55601
493.32        17.63932
493.76        17.72028
494.20        17.89997
494.64        18.17729
495.08        18.51198
495.52        18.84612
495.96        19.10707
496.41        19.27599
496.85        19.33657
497.29        19.34183
497.73        19.47036
498.17        19.71537
498.61         19.8577
499.05        19.89944
499.49        20.04524
499.93        20.30191
500.37        20.50168
500.82        20.64792
501.26         20.9152
501.70        21.25144
502.14        21.36777
502.58        21.29218
503.02        21.31666
503.46         21.4613
503.90        21.56999
504.34        21.62256
504.78        21.65859
505.22         21.6776
505.66        21.67868
506.10        21.68201
506.54        21.71513
506.98        21.78784
507.42        21.89694
507.86        22.03236
508.30         22.1757
508.74        22.31522
509.18        22.44561
509.62        22.57016
510.06        22.69537
510.50        22.82106
510.94        22.94887
511.38        23.04778
511.82        23.06976
512.26        23.01201
512.70        22.88995
513.14        22.77525
513.58        22.77664
514.02        22.90663
514.46        23.13402
514.90        23.37155
515.34        23.41651
515.78         23.2731
516.22        23.05808
516.66          22.881
517.10        22.57599
517.54        22.17724
517.98         22.7667
518.42        22.68612
518.86        22.95053
519.30        23.04526
519.74        23.14103
520.18        23.21662
520.62        23.21597
521.06        23.15473
521.50        23.03022
521.93        22.87858
522.37        22.77022
522.81        22.72301
523.25        22.72383
523.69        22.74847
524.13         22.7559
524.57        22.73213
525.01        22.68558
525.45         22.6314
525.89        22.59265
526.32        22.57289
526.76        22.56609
527.20        22.54385
527.64        22.46738
528.08        22.33065
528.52        22.14406
528.96        21.95559
529.40        21.83636
529.83         21.7984
530.27        21.82824
530.71        21.85828
531.15        21.78262
531.59        21.58578
532.03        21.30539
532.46        21.02678
532.90        20.90044
533.34        20.94604
533.78        21.10862
534.22        21.29881
534.66        21.37961
535.09        21.31347
535.53        21.15457
535.97        20.95233
536.41         20.7816
536.85        20.67298
537.28        20.61451
537.72        20.61107
538.16        20.60768
538.60         20.6966
539.04        20.78829
539.47        20.88541
539.91        20.99827
540.35        21.13213
540.79        21.10319
541.22        21.18887
541.66        21.24812
542.10        21.38491
542.54        21.25491
542.97          21.431
543.41        21.53265
543.85        21.71473
544.29        21.91638
544.72        22.10102
545.16        22.27607
545.60        22.42771
546.04        22.48597
546.47        22.52068
546.91        22.78499
547.35        23.22488
547.79        23.54053
548.22         23.6914
548.66        23.77704
549.10        23.84433
549.53        24.05532
549.97        24.42544
550.41        24.53211
550.84        24.82299
551.28        25.04693
551.72        25.33961
552.15         25.6135
552.59        25.86156
553.03        26.09695
553.46        26.28995
553.90        26.42299
554.34        26.49703
554.77        26.52287
555.21        26.54813
555.65        26.63525
556.08        26.79284
556.52        26.99712
556.96        27.21536
557.39        27.43011
557.83        27.61678
558.27        27.71589
558.70         27.7404
559.14        27.76921
559.57        27.80535
560.01        27.84424
560.45        27.88018
560.88        27.86751
561.32        27.86611
561.75        27.95639
562.19        28.21835
562.63        28.36157
563.06        28.40499
563.50        28.46286
563.93        28.54933
564.37        28.71676
564.80        28.83419
565.24        29.02069
565.68        29.19404
566.11        29.30777
566.55        29.37371
566.98        29.38125
567.42        29.36131
567.85        29.59606
568.29        29.55123
568.72        29.93965
569.16        30.50092
569.60        30.87385
570.03        30.98751
570.47         31.1451
570.90        31.25068
571.34         31.4285
571.77        31.28756
572.21        31.81899
572.64        31.82243
573.08        32.00481
573.51        32.32813
573.95        32.87555
574.38        33.16578
574.82        33.43497
