SpectraSmart Spectrum 2.9.0.0
--------- Device Information -----------
Spectrum Name :  反射率_0
Saving Time :  2024/04/20 00:48:18
Spectro-Module Model Name : SE2030-DUVN
Spectro-Module Serial Number : OS361AC55029948
Wavelength Start : 200
Wavelength End : 1025
Wavelength Unit : Wavelength(nm)
Spectrum Unit : Reflectance(%)
-----------Spectrum Setting ------------
Integration Time : 30ms
Average : 10
Boxcar : 0
Background removal :  enabled
linearity correction :  enabled
SC :  disabled
Intensity correction :  disabled
DWT denoise :  enabled
savitzky-golay :  disabled
FFT :  disabled
Running average :  disabled
Kalman :  disabled
High pass :  disabled
---------------BEGIN--------------------
Wavelength(nm)             Reflectance(%)
200.29               0
200.75          56.967
201.21        58.68221
201.67         62.4804
202.13        67.65507
202.58        73.47906
203.04        80.08915
203.50         85.3763
203.96        84.74554
204.42        78.93162
204.88         71.4999
205.34         65.0205
205.80        60.19896
206.26        56.09191
206.72        51.39277
207.18        46.22813
207.64        44.05898
208.10         47.9193
208.55        56.43748
209.01        64.04205
209.47          66.995
209.93         65.8103
210.39        62.04677
210.85        57.65089
211.31        54.64128
211.77         53.2332
212.23        52.86309
212.69        53.14863
213.14         53.2243
213.60        52.52416
214.06        52.18782
214.52        52.55599
214.98        53.96185
215.44        56.35695
215.90        59.36089
216.36        62.90255
216.81        66.24097
217.27        68.41135
217.73        69.63294
218.19        69.04184
218.65        65.35697
219.11        58.47811
219.57        48.37202
220.02        37.05704
220.48        30.52829
220.94        30.97238
221.40        37.59267
221.86        46.71074
222.32        52.34311
222.77        52.91603
223.23        50.23365
223.69        46.91464
224.15        46.70152
224.61        49.60898
225.06        53.57077
225.52        56.82017
225.98        58.07684
226.44        57.38508
226.90        55.45785
227.36        53.01342
227.81        51.19834
228.27        50.73846
228.73        51.12313
229.19        51.85886
229.65         52.3678
230.10        52.51584
230.56        52.52746
231.02         52.6013
231.48        53.00901
231.93        53.68204
232.39        54.46821
232.85        55.04107
233.31        54.94381
233.77        54.11737
234.22         52.7746
234.68        51.19735
235.14        49.80168
235.60        48.81961
236.05        48.17576
236.51        47.97362
236.97        48.33898
237.43        49.33779
237.88        51.29183
238.34        53.84235
238.80        55.90575
239.26        56.53344
239.71        55.56635
240.17        53.78021
240.63        53.08752
241.08        54.01737
241.54        56.15745
242.00        58.28985
242.46        58.03124
242.91        54.21578
243.37        45.98661
243.83        34.11249
244.28        26.78634
244.74         32.1693
245.20        48.44966
245.66        64.73274
246.11        72.07491
246.57        69.95438
247.03        59.25317
247.48        42.65834
247.94        36.32835
248.40        43.61337
248.85        53.74868
249.31        61.04992
249.77        63.98606
250.22        63.56813
250.68        61.13359
251.14        57.45817
251.59        54.30365
252.05        53.13895
252.51         53.6852
252.96        55.20871
253.42        56.52521
253.88        57.18316
254.33        57.54978
254.79        58.85599
255.25        62.06934
255.70        66.74265
256.16         71.8354
256.62        75.88562
257.07        77.32403
257.53        76.36562
257.99        73.70168
258.44        70.05357
258.90        67.19187
259.35        65.11417
259.81        63.98361
260.27        63.00219
260.72        61.46751
261.18        59.61729
261.63        57.28091
262.09        55.35252
262.55        54.54238
263.00         54.7337
263.46        55.64511
263.91         56.2463
264.37          55.623
264.83        53.78682
265.28        51.15079
265.74        48.77143
266.19        47.66355
266.65        47.98595
267.11        49.14622
267.56        50.42253
268.02         50.7923
268.47        50.04894
268.93        48.55666
269.38        46.66935
269.84         45.1804
270.30        44.31049
270.75        43.83276
271.21          43.524
271.66        43.03894
272.12        42.27371
272.57        41.36599
273.03        40.46127
273.48        39.67093
273.94        39.08648
274.39        38.61653
274.85         38.2151
275.31        37.78455
275.76        37.26487
276.22         36.6871
276.67        36.08318
277.13        35.61617
277.58        35.24521
278.04        34.97671
278.49        34.59919
278.95        33.89056
279.40        32.82144
279.86        31.58285
280.31        30.39475
280.77        29.71017
281.22        29.51603
281.68        29.67815
282.13        29.92792
282.59        29.91017
283.04        29.53221
283.50        28.95322
283.95        28.27867
284.41        27.70328
284.86        27.26425
285.32        26.92108
285.77        26.66433
286.22        26.55448
286.68        26.57232
287.13        26.67736
287.59        26.78337
288.04        26.72918
288.50         26.5068
288.95        26.13238
289.41        25.70391
289.86         25.3022
290.32        25.00874
290.77        24.79094
291.22          24.667
291.68        24.62605
292.13        24.66477
292.59        24.80605
293.04        25.04618
293.50        25.39023
293.95        25.81859
294.40        26.30482
294.86        26.82517
295.31        27.35839
295.77        27.89218
296.22        28.42786
296.68         28.9381
297.13        29.35972
297.58        29.69913
298.04        29.98534
298.49        30.29064
298.95        30.76609
299.40        31.41913
299.85        32.19567
300.31        32.99806
300.76        33.67148
301.21        34.17416
301.67        34.57664
302.12        34.89012
302.58        35.19279
303.03        35.48813
303.48        35.76807
303.94         36.0871
304.39        36.49214
304.84        36.98771
305.30        37.54618
305.75        38.06023
306.20        38.38393
306.66        38.51425
307.11        38.49342
307.57        38.41951
308.02        38.36816
308.47         38.3935
308.93        38.45684
309.38        38.57459
309.83         38.8222
310.29        39.17927
310.74        39.62003
311.19        39.98402
311.65        40.01442
312.10        39.67236
312.55         39.0452
313.00        38.35438
313.46        37.94459
313.91        37.88012
314.36         38.0749
314.82         38.3527
315.27        38.44486
315.72        38.26176
316.18        37.90206
316.63        37.47105
317.08        37.13421
317.53        36.93562
317.99        36.81109
318.44        36.70228
318.89        36.51318
319.35        36.21885
319.80        35.85712
320.25        35.48422
320.70        35.18332
321.16        34.96911
321.61        34.81838
322.06        34.66541
322.51        34.41039
322.97        34.02417
323.42         33.5443
323.87        33.03691
324.32         32.6152
324.78        32.30605
325.23        32.09101
325.68        31.89899
326.13         31.6151
326.59        31.21439
327.04        30.75957
327.49        30.32728
327.94        30.04132
328.39        29.93107
328.85        29.93604
329.30        30.02633
329.75        30.10342
330.20        30.11882
330.66         30.0687
331.11        29.96281
331.56        29.76487
332.01        29.47399
332.46        29.09461
332.92        28.65815
333.37        28.23386
333.82        27.85735
334.27        27.54284
334.72        27.29659
335.17        27.11744
335.63        26.99325
336.08        26.92454
336.53        26.92005
336.98        27.00175
337.43        27.15471
337.88        27.36654
338.34         27.5066
338.79        27.41411
339.24        27.04753
339.69        26.44983
340.14        25.83478
340.59        25.56497
341.05        25.70584
341.50        26.15593
341.95        26.65845
342.40        26.80972
342.85        26.52413
343.30        25.94467
343.75        25.27169
344.20        24.83328
344.66        24.72137
345.11        24.79981
345.56        24.98722
346.01        25.15268
346.46        25.23157
346.91        25.28264
347.36        25.23573
347.81         24.9688
348.26        24.49726
348.72        23.88832
349.17        23.29354
349.62        23.05092
350.07        23.23056
350.52        23.71066
350.97        24.31707
351.42        24.78524
351.87        25.02512
352.32         25.1029
352.77         25.0248
353.22        24.80717
353.67        24.48701
354.13        24.07863
354.58        23.65137
355.03        23.35797
355.48        23.23839
355.93        23.27079
356.38        23.39491
356.83        23.50062
357.28        23.54459
357.73        23.53912
358.18        23.50227
358.63        23.46795
359.08        23.44298
359.53        23.41589
359.98        23.34277
360.43        23.16224
360.88         22.8776
361.33        22.51943
361.78        22.18626
362.23        22.03459
362.68        22.08678
363.13        22.27796
363.58        22.49244
364.03        22.55152
364.48        22.40807
364.93        22.11922
365.38        21.73732
365.83        21.35808
366.28        21.03081
366.73        20.73182
367.18        20.49362
367.63        20.36446
368.08        20.34035
368.53        20.41109
368.98        20.50354
369.43        20.49547
369.88        20.36262
370.33        20.13901
370.78        19.88638
371.23        19.71782
371.68        19.66805
372.13        19.69634
372.58        19.77471
373.03        19.85678
373.48        19.91269
373.93         19.9509
374.38        19.94476
374.83        19.85151
375.28        19.66997
375.72         19.4065
376.17        19.12523
376.62        18.89146
377.07        18.73554
377.52        18.64683
377.97        18.61833
378.42        18.63422
378.87        18.67609
379.32        18.73456
379.77        18.79339
380.22        18.82724
380.67        18.82766
381.11        18.80544
381.56        18.73027
382.01        18.57648
382.46        18.34779
382.91        18.04895
383.36        17.76374
383.81         17.6148
384.26        17.62173
384.71        17.76403
385.15        17.90811
385.60        17.84897
386.05        17.55445
386.50        17.08568
386.95        16.63132
387.40        16.48939
387.85        16.70411
388.29        17.16067
388.74        17.63239
389.19         17.7977
389.64        17.59857
390.09        17.13751
390.54          16.608
390.98        16.31329
391.43        16.34231
391.88        16.57722
392.33        16.85034
392.78        16.92353
393.23        16.75779
393.67        16.43733
394.12        16.11309
394.57        15.93004
395.02        15.91907
395.47          16.023
395.91        16.16293
396.36        16.18869
396.81        16.06865
397.26        15.85365
397.71        15.62862
398.15        15.50113
398.60        15.51199
399.05        15.60956
399.50        15.72058
399.95        15.74333
400.39        15.65349
400.84        15.47896
401.29        15.28675
401.74         15.1995
402.18        15.25468
402.63        15.40584
403.08        15.56005
403.53        15.56803
403.97        15.40162
404.42        15.12055
404.87        14.83172
405.32        14.70984
405.76        14.79116
406.21        15.01218
406.66        15.26904
407.11        15.40028
407.55        15.36463
408.00        15.21578
408.45        15.01372
408.90        14.82676
409.34        14.70876
409.79        14.70487
410.24        14.76953
410.68        14.77169
411.13        14.69911
411.58        14.62535
412.03        14.56254
412.47        14.50858
412.92        14.46741
413.37        14.42746
413.81        14.41146
414.26        14.46978
414.71        14.59656
415.15        14.78415
415.60        14.93932
416.05        14.93419
416.49         14.7427
416.94        14.41342
417.39        14.05536
417.83        13.84538
418.28        13.83355
418.73        13.95955
419.17         14.1388
419.62        14.22504
420.07        14.18348
420.51        14.06147
420.96        13.90667
421.41        13.77502
421.85        13.68383
422.30        13.62186
422.74         13.5832
423.19        13.58692
423.64        13.62254
424.08        13.69483
424.53        13.76343
424.98         13.7796
425.42        13.73376
425.87        13.64346
426.31        13.52802
426.76        13.42778
427.21        13.34616
427.65        13.26357
428.10        13.20828
428.54        13.20537
428.99        13.25749
429.44        13.41612
429.88        13.57925
430.33        13.49545
430.77        13.20876
431.22        12.99895
431.66        12.93078
432.11        12.95788
432.56        13.07311
433.00        13.32588
433.45        13.55455
433.89        13.51317
434.34        13.27513
434.78        12.99262
435.23        12.69002
435.67         13.2567
436.12        12.84447
436.57         12.8188
437.01        12.66326
437.46        12.58561
437.90        12.58831
438.35        12.57718
438.79        12.53886
439.24        12.50789
439.68        12.48321
440.13        12.35079
440.57        12.18441
441.02        12.29854
441.46        12.57394
441.91        12.62462
442.35        12.14043
442.80        11.95262
443.24        11.93568
443.69        11.83245
444.13        11.65271
444.58        11.55037
445.02        11.53932
445.47        11.60866
445.91        11.70628
446.36        11.72118
446.80        11.62914
447.24        11.47833
447.69        11.31965
448.13        11.20257
448.58        11.15108
449.02        11.14919
449.47        11.16615
449.91        11.14817
450.36        11.08859
450.80         11.0027
451.25        10.93548
451.69        10.94137
452.13        11.03076
452.58        11.17112
453.02        11.31676
453.47        11.39655
453.91        11.39473
454.36        11.33191
454.80        11.23346
455.24        11.14466
455.69        11.08932
456.13        11.04424
456.58        11.01964
457.02        11.02319
457.46        11.05223
457.91        11.08137
458.35        11.10349
458.79        11.12935
459.24        11.15392
459.68        11.16958
460.13        11.21424
460.57        11.23686
461.01        11.22795
461.46        11.49025
461.90        11.56517
462.34        11.43616
462.79        11.48366
463.23        11.32895
463.68        11.18539
464.12        11.09709
464.56         11.1727
465.01        11.31167
465.45        11.45771
465.89        11.53912
466.34        11.54436
466.78        11.46017
467.22        11.34148
467.67        11.35839
468.11        11.49391
468.55        11.51042
468.99        11.41761
469.44        11.41833
469.88        11.51814
470.32        11.60311
470.77        11.64375
471.21        11.65478
471.65        11.63111
472.10        11.56988
472.54        11.50441
472.98        11.51875
473.42        11.62193
473.87        11.75216
474.31        11.86726
474.75        11.97227
475.20        12.03038
475.64        11.93583
476.08          11.757
476.52        11.70129
476.97        11.79024
477.41        11.93648
477.85        12.09015
478.29        12.20469
478.74         12.2599
479.18        12.24547
479.62        12.21228
480.06        12.24566
480.50        12.34342
480.95        12.41945
481.39        12.44407
481.83        12.43285
482.27        12.38695
482.72        12.31079
483.16        12.23532
483.60        12.21581
484.04        12.25818
484.48        12.38759
484.93        12.63482
485.37        12.79569
485.81        12.91383
486.25        13.43951
486.69         13.6358
487.14        13.25795
487.58        13.15564
488.02        13.91352
488.46         13.6095
488.90        13.70497
489.34        13.54992
489.79        13.64448
490.23        13.94576
490.67        14.16647
491.11        14.26272
491.55        14.22129
491.99        14.08735
492.43        14.03006
492.88        14.08019
493.32        14.11389
493.76        14.14857
494.20        14.27728
494.64        14.50204
495.08        14.78508
495.52         15.0795
495.96        15.32638
496.41        15.50665
496.85        15.60608
497.29        15.65349
497.73        15.77299
498.17        15.95615
498.61        16.03125
499.05        16.01872
499.49        16.11493
499.93        16.33397
500.37        16.53254
500.82         16.6974
501.26        16.94607
501.70        17.22838
502.14        17.31538
502.58        17.23873
503.02        17.24905
503.46        17.36588
503.90        17.45861
504.34         17.5006
504.78        17.50787
505.22        17.47912
505.66        17.42261
506.10        17.37299
506.54        17.37807
506.98        17.45173
507.42        17.58696
507.86        17.76239
508.30        17.91766
508.74        18.07159
509.18        18.19645
509.62        18.30924
510.06        18.42098
510.50        18.53444
510.94        18.64612
511.38        18.73336
511.82        18.76352
512.26        18.73453
512.70        18.65842
513.14        18.58484
513.58        18.58747
514.02        18.67316
514.46        18.82034
514.90        18.97126
515.34        18.97648
515.78        18.83938
516.22         18.6777
516.66        18.57044
517.10        18.29003
517.54        17.85881
517.98        18.43685
518.42        18.29661
518.86        18.54623
519.30         18.6521
519.74        18.78042
520.18        18.89752
520.62        18.92808
521.06        18.88208
521.50        18.76305
521.93        18.60846
522.37        18.49007
522.81        18.42835
523.25        18.41001
523.69        18.41655
524.13        18.41677
524.57        18.39849
525.01        18.36763
525.45         18.3349
525.89        18.31513
526.32        18.30919
526.76         18.3135
527.20        18.29974
527.64        18.22909
528.08         18.0971
528.52        17.91472
528.96        17.73401
529.40        17.63304
529.83        17.62489
530.27        17.69178
530.71         17.7634
531.15        17.72811
531.59        17.56793
532.03        17.32287
532.46        17.07488
532.90        16.96769
533.34        17.02232
533.78        17.18592
534.22        17.38072
534.66        17.48815
535.09        17.47333
535.53        17.38218
535.97        17.24988
536.41        17.12889
536.85         17.0431
537.28        16.98466
537.72        16.96628
538.16        16.95667
538.60        17.03617
539.04        17.12904
539.47        17.23084
539.91        17.33879
540.35        17.45501
540.79        17.43044
541.22         17.5023
541.66        17.56636
542.10        17.70909
542.54        17.63804
542.97        17.81582
543.41        17.90805
543.85        18.04058
544.29        18.17334
544.72        18.28482
545.16        18.39361
545.60        18.49416
546.04        18.52414
546.47        18.54922
546.91        18.79167
547.35        19.20364
547.79        19.52843
548.22        19.70764
548.66        19.78704
549.10        19.80029
549.53        19.89454
549.97         20.0988
550.41        20.09464
550.84         20.2638
551.28        20.39596
551.72        20.60579
552.15         20.8272
552.59        21.05066
553.03        21.28378
553.46         21.4873
553.90        21.62163
554.34        21.68111
554.77        21.67799
555.21         21.6589
555.65         21.6886
556.08        21.78013
556.52        21.91355
556.96        22.06053
557.39        22.20432
557.83        22.32494
558.27        22.37594
558.70        22.37581
559.14        22.39754
559.57        22.44397
560.01        22.50747
560.45        22.56651
560.88        22.56025
561.32        22.53358
561.75        22.55295
562.19        22.70385
562.63        22.79506
563.06        22.84386
563.50        22.91151
563.93        22.99203
564.37        23.11808
564.80        23.18134
565.24         23.2772
565.68        23.35908
566.11        23.43573
566.55        23.52413
566.98        23.57681
567.42        23.59693
567.85        23.88681
568.29        23.83302
568.72         24.1586
569.16        24.59108
569.60        24.86844
570.03        24.95669
570.47        25.00175
570.90        24.92467
571.34        25.23934
571.77         25.1853
572.21        25.41142
572.64        25.68679
573.08        25.85762
573.51          25.883
573.95        26.55786
574.38        26.66127
574.82        26.83819
