SpectraSmart Spectrum 2.9.0.0
--------- Device Information -----------
Spectrum Name :  反射率_0
Saving Time :  2024/04/20 00:36:15
Spectro-Module Model Name : SE2030-DUVN
Spectro-Module Serial Number : OS361AC55029948
Wavelength Start : 200
Wavelength End : 1025
Wavelength Unit : Wavelength(nm)
Spectrum Unit : Reflectance(%)
-----------Spectrum Setting ------------
Integration Time : 30ms
Average : 10
Boxcar : 0
Background removal :  enabled
linearity correction :  enabled
SC :  disabled
Intensity correction :  disabled
DWT denoise :  enabled
savitzky-golay :  disabled
FFT :  disabled
Running average :  disabled
Kalman :  disabled
High pass :  disabled
---------------BEGIN--------------------
Wavelength(nm)             Reflectance(%)
200.29               0
200.75        74.69556
201.21        74.87823
201.67        77.66351
202.13        83.65597
202.58        92.86546
203.04        105.6785
203.50        117.6101
203.96        118.2549
204.42        108.0646
204.88        94.15495
205.34        82.58855
205.80        76.06119
206.26        73.40393
206.72        73.28432
207.18        75.89794
207.64        80.34517
208.10        84.47407
208.55        88.11698
209.01        89.84521
209.47        89.88414
209.93        88.80157
210.39         86.5438
210.85        84.03838
211.31        82.43426
211.77         81.7542
212.23        81.82118
212.69        82.28094
213.14         82.0633
213.60        80.72595
214.06        79.76272
214.52        79.47605
214.98        80.02869
215.44         81.3502
215.90        83.04696
216.36        85.68192
216.81        89.92738
217.27        95.10513
217.73        100.8606
218.19        105.1085
218.65        105.1866
219.11        101.0013
219.57        93.01543
220.02        84.10229
220.48        81.64243
220.94        88.07252
221.40        101.4495
221.86        117.2324
222.32        128.5198
222.77        133.2256
223.23        133.6172
223.69        131.0826
224.15        127.8552
224.61        125.2763
225.06         122.876
225.52        121.5478
225.98        121.9469
226.44           123.9
226.90        127.1717
227.36        130.9605
227.81        133.3135
228.27        133.8702
228.73        133.1838
229.19        131.7657
229.65        130.2625
230.10        128.8524
230.56        127.6961
231.02        126.9587
231.48        127.1109
231.93        127.9381
232.39        129.2695
232.85        130.5661
233.31        131.0713
233.77        130.6066
234.22        129.5334
234.68        127.8092
235.14         125.397
235.60        122.5694
236.05        119.4021
236.51        116.7649
236.97        115.9508
237.43         117.234
237.88        120.9519
238.34        125.6945
238.80        128.0789
239.26        125.7698
239.71        119.5136
240.17        111.1755
240.63        104.2363
241.08        99.74932
241.54        96.90717
242.00         95.2112
242.46        93.43253
242.91        90.96648
243.37        87.62616
243.83         83.9575
244.28        83.05631
244.74        86.97461
245.20        93.96132
245.66        99.73996
246.11        101.5593
246.57        98.94534
247.03        91.85477
247.48        80.26813
247.94        71.75316
248.40        70.84356
248.85        73.32435
249.31        76.12343
249.77        78.05693
250.22        79.27422
250.68        80.37149
251.14        81.57442
251.59        82.87367
252.05        84.37648
252.51        86.29771
252.96         87.9702
253.42        88.61607
253.88        88.41807
254.33        87.66949
254.79        88.66882
255.25        93.47727
255.70        101.3175
256.16        110.5414
256.62        118.7584
257.07        123.3013
257.53        124.5114
257.99        123.6116
258.44        121.0486
258.90          118.54
259.35        116.1699
259.81        114.7691
260.27        114.0356
260.72        113.8406
261.18         114.478
261.63        115.0998
262.09        116.0576
262.55        116.9293
263.00         117.357
263.46        117.7594
263.91        117.3668
264.37        116.0004
264.83        113.6687
265.28        110.5417
265.74         107.766
266.19        106.1665
266.65         106.024
267.11        106.7726
267.56        107.6181
268.02        107.5472
268.47        106.2925
268.93        104.2356
269.38        101.8481
269.84        100.1406
270.30        99.36922
270.75        99.20827
271.21        99.22414
271.66        98.70094
272.12        97.49243
272.57        95.80125
273.03        94.00764
273.48        92.53937
273.94        91.60869
274.39         90.9698
274.85        90.43813
275.31        89.60164
275.76        88.33069
276.22        86.82404
276.67        85.24881
277.13        84.08546
277.58        83.28336
278.04        82.78965
278.49         82.1737
278.95        81.05357
279.40        79.29599
279.86        77.24491
280.31        75.16076
280.77        73.68729
281.22        72.79304
281.68        72.35538
282.13        72.01311
282.59        71.38737
283.04        70.33799
283.50        69.08326
283.95        67.75419
284.41        66.66959
284.86        65.82541
285.32        65.16834
285.77        64.55215
286.22        63.88941
286.68        63.17566
287.13        62.41748
287.59        61.68157
288.04        60.93058
288.50         60.2113
288.95        59.45901
289.41        58.74195
289.86        58.06466
290.32        57.48909
290.77        56.97915
291.22        56.53063
291.68        56.09742
292.13        55.65289
292.59        55.24928
293.04        54.90741
293.50         54.7111
293.95        54.65386
294.40         54.7061
294.86        54.83818
295.31        55.00445
295.77        55.18836
296.22        55.40146
296.68        55.61053
297.13        55.74986
297.58        55.81332
298.04         55.8107
298.49        55.81814
298.95           56.01
299.40        56.38258
299.85        56.88859
300.31        57.38096
300.76         57.6048
301.21         57.5362
301.67         57.3084
302.12        57.04108
302.58        57.01011
303.03        57.23101
303.48        57.64304
303.94        58.18866
304.39        58.72097
304.84        59.20238
305.30          59.659
305.75         60.0443
306.20        60.33247
306.66        60.54662
307.11        60.65895
307.57        60.72435
308.02        60.72851
308.47        60.71473
308.93        60.68941
309.38        60.67863
309.83        60.79116
310.29        61.03136
310.74        61.36225
311.19        61.65604
311.65        61.70308
312.10        61.45898
312.55         60.9935
313.00        60.48698
313.46        60.21767
313.91        60.22628
314.36        60.44323
314.82        60.69692
315.27        60.73946
315.72        60.49155
316.18        60.05584
316.63        59.54893
317.08        59.17095
317.53        58.96904
317.99        58.86392
318.44        58.78465
318.89        58.60434
319.35        58.28582
319.80        57.88214
320.25        57.43371
320.70        57.00209
321.16        56.60482
321.61        56.23072
322.06        55.86888
322.51        55.51214
322.97        55.14643
323.42        54.78889
323.87        54.43073
324.32        54.06329
324.78        53.67484
325.23        53.28886
325.68        52.88868
326.13        52.46087
326.59        52.01114
327.04        51.57998
327.49        51.19872
327.94        50.92859
328.39        50.77316
328.85        50.67295
329.30        50.64722
329.75        50.64087
330.20        50.62263
330.66        50.58491
331.11         50.4818
331.56        50.17271
332.01        49.64811
332.46        48.94415
332.92        48.21717
333.37        47.77448
333.82        47.69222
334.27        47.91401
334.72        48.26625
335.17         48.4361
335.63        48.30849
336.08        47.97817
336.53        47.58449
336.98        47.39137
337.43        47.46606
337.88        47.72429
338.34        47.97608
338.79        47.97132
339.24        47.63409
339.69         47.0564
340.14        46.45574
340.59        46.18679
341.05        46.32496
341.50        46.75877
341.95        47.26219
342.40        47.49181
342.85        47.36524
343.30        46.99764
343.75        46.54152
344.20        46.24564
344.66        46.17846
345.11        46.23137
345.56        46.33795
346.01        46.39316
346.46        46.35524
346.91        46.28369
347.36        46.14423
347.81         45.8683
348.26         45.4739
348.72        45.00435
349.17        44.57007
349.62        44.42816
350.07        44.61944
350.52        45.04201
350.97        45.53292
351.42        45.84784
351.87        45.91178
352.32        45.78925
352.77         45.5149
353.22        45.15232
353.67        44.74973
354.13          44.315
354.58        43.88383
355.03        43.56081
355.48        43.37154
355.93        43.30711
356.38        43.32151
356.83        43.32877
357.28        43.29115
357.73        43.20778
358.18        43.08866
358.63        42.96006
359.08        42.82421
359.53        42.67146
359.98        42.45905
360.43        42.12275
360.88        41.66718
361.33        41.13081
361.78         40.6105
362.23        40.26075
362.68         40.1151
363.13         40.1179
363.58        40.17746
364.03        40.15031
364.48        39.98487
364.93        39.70969
365.38        39.34802
365.83        38.94937
366.28        38.54336
366.73        38.12383
367.18        37.70163
367.63        37.29325
368.08        36.91204
368.53        36.57346
368.98        36.29022
369.43        36.06791
369.88        35.90191
370.33        35.78437
370.78        35.69398
371.23        35.59937
371.68        35.48678
372.13         35.3525
372.58        35.20669
373.03        35.07455
373.48        34.95797
373.93        34.84335
374.38        34.70664
374.83        34.51068
375.28        34.24749
375.72        33.92313
376.17        33.58478
376.62        33.26564
377.07        32.99007
377.52        32.75985
377.97        32.57359
378.42        32.42617
378.87        32.31021
379.32        32.21786
379.77        32.15464
380.22        32.12585
380.67        32.12444
381.11         32.1523
381.56        32.14496
382.01        32.02408
382.46         31.7778
382.91        31.42335
383.36        31.06614
383.81        30.86628
384.26        30.85022
384.71        30.97989
385.15        31.10769
385.60        31.01658
386.05        30.66802
386.50        30.13708
386.95        29.60713
387.40         29.3672
387.85        29.46795
388.29        29.79132
388.74        30.15619
389.19        30.27976
389.64        30.10314
390.09         29.7091
390.54        29.24245
390.98        28.92488
391.43        28.84043
391.88        28.90215
392.33        28.98814
392.78        28.92582
393.23        28.69348
393.67         28.3457
394.12        28.03507
394.57        27.87457
395.02        27.88752
395.47        28.02517
395.91        28.20806
396.36        28.26928
396.81        28.17757
397.26        27.98046
397.71        27.77073
398.15         27.6648
398.60        27.71787
399.05        27.86713
399.50        28.02818
399.95        28.08406
400.39        28.00852
400.84         27.8291
401.29        27.62403
401.74         27.5356
402.18         27.6047
402.63        27.77801
403.08        27.94134
403.53        27.90988
403.97        27.65334
404.42        27.25191
404.87         26.8453
405.32        26.66145
405.76        26.74809
406.21        27.02526
406.66        27.36574
407.11        27.57028
407.55         27.5857
408.00        27.48017
408.45        27.31038
408.90        27.10707
409.34        26.93706
409.79        26.91274
410.24        26.98721
410.68        26.97558
411.13        26.87097
411.58        26.78319
412.03        26.72621
412.47         26.6832
412.92        26.65417
413.37        26.63323
413.81        26.64565
414.26         26.7498
414.71        26.93809
415.15        27.20033
415.60        27.42591
416.05        27.46855
416.49        27.29624
416.94        26.95675
417.39        26.57469
417.83        26.35109
418.28        26.34305
418.73        26.48557
419.17        26.67511
419.62        26.74123
420.07         26.6463
420.51        26.45009
420.96        26.23292
421.41        26.08991
421.85          26.042
422.30        26.06928
422.74         26.1352
423.19        26.23041
423.64        26.33142
424.08        26.45579
424.53        26.56287
424.98        26.61967
425.42        26.62252
425.87        26.57998
426.31        26.50556
426.76        26.43217
427.21        26.35876
427.65        26.26904
428.10        26.20391
428.54        26.19844
428.99        26.26184
429.44        26.49375
429.88        26.74422
430.33        26.60553
430.77        26.16592
431.22        25.95678
431.66        26.02377
432.11        26.14531
432.56        26.27598
433.00        26.49658
433.45         26.6088
433.89        26.44982
434.34        26.16738
434.78         25.8151
435.23        25.35893
435.67        26.44853
436.12        25.59828
436.57        25.60439
437.01        25.49321
437.46        25.48458
437.90         25.5817
438.35        25.71881
438.79        25.84403
439.24        25.91306
439.68        25.91343
440.13          25.654
440.57        25.29953
441.02        25.52138
441.46        26.08558
441.91        26.18954
442.35           25.22
442.80        24.91209
443.24        25.02464
443.69        25.04557
444.13        24.93442
444.58        24.86733
445.02        24.85377
445.47         24.9233
445.91        25.03054
446.36        25.03253
446.80        24.90752
447.24        24.72983
447.69         24.5565
448.13         24.4248
448.58        24.36131
449.02        24.34965
449.47        24.35903
449.91        24.32962
450.36        24.25564
450.80        24.15314
451.25        24.06418
451.69        24.02839
452.13        24.06119
452.58        24.13898
453.02        24.23312
453.47        24.30898
453.91        24.35399
454.36        24.37468
454.80        24.37469
455.24        24.35655
455.69        24.33318
456.13        24.27905
456.58        24.22149
457.02        24.19062
457.46        24.18756
457.91        24.14929
458.35        24.08048
458.79        24.05324
459.24        24.06294
459.68        24.10043
460.13        24.19941
460.57        24.18521
461.01        24.02531
461.46        24.39591
461.90        24.38701
462.34        24.09753
462.79        24.34385
463.23        24.28864
463.68        24.27079
464.12        24.20567
464.56        24.28157
465.01        24.35099
465.45        24.39775
465.89        24.42179
466.34        24.42685
466.78        24.32891
467.22        24.18855
467.67        24.27732
468.11        24.53223
468.55        24.48328
468.99         24.1709
469.44        24.05237
469.88        24.15077
470.32        24.21334
470.77        24.20893
471.21        24.20939
471.65        24.21032
472.10        24.19082
472.54        24.17051
472.98        24.22662
473.42        24.35927
473.87        24.47216
474.31        24.53814
474.75         24.6709
475.20        24.81265
475.64        24.70838
476.08        24.44365
476.52        24.36471
476.97        24.49551
477.41        24.67773
477.85        24.84101
478.29        24.94302
478.74         24.9636
479.18         24.8745
479.62        24.76378
480.06         24.7765
480.50        24.90626
480.95        24.99496
481.39         25.0077
481.83        25.01114
482.27         25.0036
482.72        24.96264
483.16        24.91864
483.60        24.91613
484.04        24.95281
484.48        25.10708
484.93        25.42484
485.37        25.47047
485.81        25.53416
486.25        26.13505
486.69        26.94472
487.14        26.32665
487.58        25.87194
488.02        26.49373
488.46        26.01932
488.90        26.17516
489.34        26.11765
489.79        26.24572
490.23        26.48422
490.67          26.671
491.11        26.77962
491.55         26.7391
491.99        26.59812
492.43        26.54097
492.88        26.59988
493.32         26.6656
493.76        26.74719
494.20        26.89802
494.64        27.11501
495.08        27.40815
495.52        27.71772
495.96        27.90331
496.41        27.98155
496.85        28.06268
497.29        28.18208
497.73        28.40475
498.17         28.6927
498.61        28.81827
499.05        28.79626
499.49        28.89959
499.93        29.14319
500.37        29.30375
500.82        29.38596
501.26        29.60753
501.70        29.91002
502.14        29.95259
502.58        29.78152
503.02        29.75738
503.46         29.9056
503.90        30.03718
504.34        30.11564
504.78        30.16655
505.22        30.18155
505.66        30.16209
506.10        30.13767
506.54        30.15177
506.98        30.21857
507.42        30.33019
507.86        30.46924
508.30        30.60563
508.74        30.72622
509.18        30.83217
509.62        30.93557
510.06         31.0558
510.50        31.19518
510.94        31.34913
511.38        31.48119
511.82        31.53432
512.26        31.50193
512.70        31.40311
513.14        31.30476
513.58        31.30753
514.02        31.42367
514.46        31.62363
514.90        31.83649
515.34         31.8763
515.78        31.77473
516.22        31.61402
516.66        31.48013
517.10        31.19284
517.54        30.77925
517.98        31.21259
518.42        31.05264
518.86        31.26054
519.30        31.38769
519.74        31.56715
520.18        31.74002
520.62        31.79276
521.06        31.72346
521.50        31.54988
521.93        31.33348
522.37        31.18544
522.81        31.13636
523.25        31.15811
523.69        31.21322
524.13         31.2421
524.57        31.22363
525.01        31.17268
525.45        31.10796
525.89        31.05602
526.32        31.02344
526.76        31.00587
527.20        30.97307
527.64        30.88417
528.08        30.73566
528.52        30.54048
528.96        30.35934
529.40        30.28218
529.83         30.3202
530.27        30.45182
530.71        30.58717
531.15        30.58693
531.59        30.42635
532.03        30.15249
532.46        29.86149
532.90        29.72632
533.34        29.77322
533.78        29.94075
534.22         30.1405
534.66        30.23701
535.09        30.19042
535.53         30.0587
535.97        29.88222
536.41        29.71928
536.85        29.59722
537.28        29.51177
537.72        29.48149
538.16        29.44744
538.60        29.54967
539.04        29.65578
539.47        29.76419
539.91        29.88365
540.35        30.02154
540.79        29.92085
541.22        29.98941
541.66        30.04852
542.10        30.24542
542.54        30.08344
542.97        30.34826
543.41        30.46177
543.85        30.63531
544.29        30.79515
544.72        30.91397
545.16        31.03819
545.60        31.15849
546.04         31.1702
546.47        31.15733
546.91         31.4478
547.35         31.9612
547.79        32.29076
548.22        32.39746
548.66        32.44127
549.10        32.48483
549.53        32.73893
549.97        33.19746
550.41        33.24822
550.84        33.49523
551.28        33.61504
551.72        33.82117
552.15        34.04287
552.59        34.28676
553.03        34.55615
553.46         34.7974
553.90        34.96758
554.34        35.05452
554.77        35.07419
555.21        35.08113
555.65        35.14685
556.08        35.28255
556.52        35.46073
556.96        35.64391
557.39        35.81792
557.83        35.95723
558.27         35.9863
558.70        35.93642
559.14        35.93063
559.57        35.97346
560.01        36.05281
560.45        36.13847
560.88        36.12888
561.32        36.08892
561.75        36.15122
562.19        36.43693
562.63        36.54964
563.06        36.54562
563.50        36.67928
563.93        36.91006
564.37        37.11416
564.80        37.10998
565.24        37.14726
565.68        37.18067
566.11        37.23942
566.55        37.35962
566.98        37.43615
567.42        37.45082
567.85        37.90742
568.29        37.79474
568.72        38.14825
569.16        38.59714
569.60        38.89053
570.03        38.97901
570.47        39.10983
570.90        39.14188
571.34        39.51998
571.77        39.24182
572.21        39.89993
572.64        40.11913
573.08        40.20902
573.51        40.24018
573.95        40.77314
574.38         41.3105
574.82        41.59174
