SpectraSmart Spectrum 2.9.0.0
--------- Device Information -----------
Spectrum Name :  反射率_0
Saving Time :  2024/04/20 00:59:32
Spectro-Module Model Name : SE2030-DUVN
Spectro-Module Serial Number : OS361AC55029948
Wavelength Start : 200
Wavelength End : 1025
Wavelength Unit : Wavelength(nm)
Spectrum Unit : Reflectance(%)
-----------Spectrum Setting ------------
Integration Time : 30ms
Average : 10
Boxcar : 0
Background removal :  enabled
linearity correction :  enabled
SC :  disabled
Intensity correction :  disabled
DWT denoise :  enabled
savitzky-golay :  disabled
FFT :  disabled
Running average :  disabled
Kalman :  disabled
High pass :  disabled
---------------BEGIN--------------------
Wavelength(nm)             Reflectance(%)
200.29               0
200.75         54.6714
201.21        57.58752
201.67        63.69127
202.13        70.46037
202.58        76.10617
203.04        81.09602
203.50        84.19354
203.96        82.95592
204.42        78.42878
204.88        72.73988
205.34        67.57774
205.80        63.27533
206.26        58.94072
206.72        53.34859
207.18        46.42814
207.64        41.99369
208.10        44.09695
208.55        51.67857
209.01        59.11324
209.47        62.18837
209.93         61.2895
210.39        58.26442
210.85        54.70479
211.31        52.26743
211.77        51.14246
212.23        50.50345
212.69         50.7233
213.14        52.72027
213.60        55.35189
214.06         58.1862
214.52        59.92155
214.98        59.84225
215.44        58.19786
215.90        54.90473
216.36        51.08311
216.81        49.70851
217.27        51.77266
217.73        56.30124
218.19        60.51355
218.65        60.63044
219.11        55.88054
219.57        46.81611
220.02        35.74722
220.48        29.21553
220.94        29.67107
221.40        36.09908
221.86        44.38361
222.32        48.09797
222.77        45.83445
223.23        39.73931
223.69        34.00989
224.15        34.38234
224.61        40.34668
225.06        48.47852
225.52        55.04586
225.98        56.94981
226.44        54.34719
226.90        48.65654
227.36        41.97898
227.81        38.11618
228.27        38.43496
228.73        41.24302
229.19        44.65139
229.65        46.45705
230.10        46.40589
230.56        45.50182
231.02        44.41834
231.48        43.90842
231.93        44.07358
232.39        44.54776
232.85        45.13272
233.31        45.62707
233.77        45.94453
234.22        46.19995
234.68        46.37621
235.14        46.29057
235.60        45.96159
236.05        45.44887
236.51        45.02037
236.97        45.09848
237.43        45.88256
237.88        47.60265
238.34        50.07634
238.80        52.60429
239.26        54.38671
239.71        55.17039
240.17        55.28472
240.63         56.0465
241.08        57.85176
241.54        60.32085
242.00         62.4088
242.46        62.10171
242.91        58.39673
243.37        50.41442
243.83         38.7133
244.28        30.72389
244.74         34.1947
245.20        47.98331
245.66        62.37186
246.11        68.89965
246.57        66.94499
247.03        57.57472
247.48        43.17976
247.94        37.98178
248.40        44.77064
248.85        53.92564
249.31        60.73299
249.77        64.26358
250.22        65.44258
250.68        65.42763
251.14        64.72055
251.59        64.00046
252.05        63.93436
252.51        64.49121
252.96        65.05392
253.42        64.89429
253.88        64.07081
254.33        62.98842
254.79        63.42371
255.25        66.85708
255.70        72.61933
256.16        79.30712
256.62        84.88861
257.07        87.11787
257.53        86.25089
257.99        83.33427
258.44        79.23135
258.90        75.97118
259.35        73.61646
259.81         72.3085
260.27        71.34663
260.72        70.14531
261.18        68.91084
261.63        67.35003
262.09        66.12205
262.55         65.5431
263.00        65.47974
263.46        65.87571
263.91        65.93507
264.37         65.0931
264.83         63.3329
265.28        60.89051
265.74        58.68528
266.19        57.49561
266.65        57.48623
267.11        58.19062
267.56        58.93044
268.02        58.74255
268.47        57.44837
268.93        55.39042
269.38        53.05802
269.84         51.4814
270.30        50.90924
270.75        51.02959
271.21        51.36047
271.66        51.16318
272.12        50.25497
272.57        48.86796
273.03        47.37133
273.48        46.23278
273.94        45.63306
274.39        45.36146
274.85        45.18921
275.31        44.74037
275.76        43.91793
276.22        42.88338
276.67        41.83778
277.13         41.1999
277.58        40.95358
278.04        40.98398
278.49         40.9371
278.95        40.41504
279.40        39.33345
279.86        37.96918
280.31        36.56149
280.77        35.60329
281.22        35.11201
281.68         34.9636
282.13        34.95591
282.59        34.85063
283.04        34.56013
283.50        34.20484
283.95        33.80799
284.41        33.45072
284.86        33.13364
285.32        32.85545
285.77        32.61809
286.22        32.51216
286.68        32.53662
287.13        32.63004
287.59        32.74187
288.04        32.75319
288.50        32.66458
288.95        32.48164
289.41        32.25378
289.86        31.97161
290.32        31.70653
290.77        31.45525
291.22        31.30397
291.68        31.34477
292.13        31.59146
292.59        32.03782
293.04        32.62372
293.50        33.27389
293.95         33.9445
294.40        34.63738
294.86        35.36488
295.31        36.16063
295.77        37.02413
296.22        37.92801
296.68        38.81284
297.13        39.56992
297.58        40.18262
298.04        40.68888
298.49        41.16501
298.95        41.77461
299.40        42.53368
299.85        43.39721
300.31        44.27375
300.76        45.00773
301.21        45.56607
301.67        46.02282
302.12        46.41148
302.58        46.86206
303.03        47.36792
303.48        47.91159
303.94        48.48221
304.39        49.01325
304.84         49.5013
305.30        49.96147
305.75        50.36435
306.20         50.7006
306.66         50.9893
307.11        51.20083
307.57        51.37583
308.02        51.48577
308.47        51.55853
308.93        51.60125
309.38        51.61271
309.83        51.65323
310.29        51.72723
310.74          51.819
311.19        51.86736
311.65        51.77002
312.10        51.50784
312.55        51.11988
313.00        50.71565
313.46         50.4591
313.91        50.36616
314.36        50.40317
314.82        50.45938
315.27        50.38511
315.72        50.12899
316.18        49.75331
316.63        49.33471
317.08        49.00692
317.53        48.79879
317.99        48.65855
318.44        48.52751
318.89        48.29929
319.35        47.94845
319.80         47.5163
320.25        47.05864
320.70        46.66337
321.16        46.34911
321.61        46.09496
322.06        45.85508
322.51        45.56152
322.97        45.18748
323.42        44.76461
323.87        44.32009
324.32        43.90508
324.78        43.52797
325.23        43.18966
325.68        42.85674
326.13        42.48315
326.59        42.06359
327.04        41.64823
327.49        41.27213
327.94        40.99607
328.39         40.8292
328.85        40.71677
329.30        40.68122
329.75        40.69495
330.20        40.72799
330.66        40.75727
331.11        40.72406
331.56        40.47437
332.01        39.98749
332.46        39.30487
332.92        38.55645
333.37        37.99335
333.82        37.69397
334.27        37.62115
334.72        37.67583
335.17        37.67205
335.63        37.53495
336.08        37.32482
336.53        37.11521
336.98        37.04563
337.43        37.14312
337.88        37.35526
338.34        37.53259
338.79        37.49038
339.24         37.1732
339.69        36.64337
340.14        36.09629
340.59        35.85665
341.05        35.98436
341.50        36.37797
341.95        36.81922
342.40        36.97127
342.85        36.75655
343.30        36.29496
343.75        35.73263
344.20         35.3078
344.66        35.09658
345.11        35.00137
345.56        34.99248
346.01        35.02123
346.46         35.0481
346.91        35.10157
347.36        35.09878
347.81        34.89845
348.26        34.49789
348.72        33.96564
349.17        33.41799
349.62         33.1304
350.07        33.16636
350.52        33.42731
350.97        33.79218
351.42        34.07776
351.87        34.21352
352.32        34.24267
352.77        34.14893
353.22        33.90933
353.67        33.54746
354.13        33.09489
354.58        32.61354
355.03        32.24777
355.48          32.039
355.93        31.96261
356.38        31.98367
356.83        32.03417
357.28        32.07782
357.73        32.11804
358.18        32.13201
358.63        32.08596
359.08        31.97128
359.53        31.79239
359.98        31.55741
360.43        31.28519
360.88        30.98965
361.33         30.6725
361.78        30.37003
362.23        30.13922
362.68        29.98837
363.13        29.89936
363.58        29.81793
364.03        29.65537
364.48        29.38758
364.93        29.03692
365.38         28.6407
365.83         28.2699
366.28         27.9538
366.73        27.67612
367.18        27.42882
367.63        27.19587
368.08        26.97066
368.53        26.76619
368.98        26.57695
369.43        26.38526
369.88        26.19198
370.33        26.00641
370.78        25.83905
371.23        25.71345
371.68          25.635
372.13        25.58271
372.58        25.56887
373.03        25.61611
373.48        25.70626
373.93        25.81582
374.38        25.86398
374.83        25.73028
375.28        25.40057
375.72        24.91395
376.17        24.38567
376.62        23.96319
377.07        23.70412
377.52        23.57422
377.97        23.54403
378.42        23.56062
378.87        23.59116
379.32        23.63972
379.77        23.68543
380.22        23.69376
380.67        23.65627
381.11        23.58163
381.56        23.45352
382.01        23.27618
382.46        23.05936
382.91        22.79914
383.36        22.55782
383.81        22.42478
384.26         22.4106
384.71         22.5022
385.15        22.58341
385.60        22.47927
386.05        22.16361
386.50        21.69142
386.95        21.23065
387.40        21.04763
387.85        21.18495
388.29        21.53999
388.74        21.92192
389.19        22.04989
389.64        21.86878
390.09        21.46148
390.54        20.98991
390.98        20.70572
391.43        20.69025
391.88        20.84801
392.33         21.0301
392.78        21.02474
393.23        20.80419
393.67        20.44126
394.12        20.10109
394.57        19.93799
395.02        19.98068
395.47        20.16809
395.91        20.39728
396.36        20.46902
396.81        20.33857
397.26        20.06723
397.71        19.76778
398.15         19.5888
398.60        19.58602
399.05        19.69571
399.50        19.82438
399.95         19.8398
400.39         19.7138
400.84        19.48483
401.29        19.24529
401.74        19.16063
402.18        19.27741
402.63         19.5308
403.08         19.7944
403.53        19.86999
403.97        19.71671
404.42        19.40845
404.87        19.07268
405.32        18.91877
405.76        18.99286
406.21        19.22178
406.66        19.48918
407.11        19.61381
407.55        19.55064
408.00        19.36391
408.45        19.12433
408.90         18.9066
409.34        18.77361
409.79        18.78602
410.24        18.88443
410.68        18.89958
411.13        18.81577
411.58        18.72465
412.03        18.64501
412.47        18.58072
412.92        18.53899
413.37        18.50653
413.81        18.50696
414.26        18.59396
414.71        18.76031
415.15        18.99794
415.60        19.20441
416.05        19.23902
416.49        19.07157
416.94        18.75122
417.39        18.39435
417.83        18.19035
418.28        18.19278
418.73        18.33796
419.17         18.5347
419.62        18.62807
420.07        18.58278
420.51        18.45276
420.96        18.29444
421.41        18.17318
421.85        18.10672
422.30        18.07974
422.74         18.0842
423.19        18.14296
423.64        18.24228
424.08        18.38876
424.53        18.52361
424.98        18.57039
425.42         18.5153
425.87        18.38497
426.31        18.22501
426.76        18.11653
427.21        18.07146
427.65        18.05816
428.10        18.08857
428.54        18.15306
428.99        18.24347
429.44        18.44316
429.88        18.63943
430.33        18.53197
430.77        18.18621
431.22        17.97267
431.66        17.95699
432.11        18.03503
432.56        18.18547
433.00        18.48661
433.45        18.74183
433.89        18.65314
434.34         18.3379
434.78        18.01179
435.23        17.67279
435.67         18.4775
436.12        17.86187
436.57        17.83429
437.01        17.68867
437.46        17.65243
437.90        17.72931
438.35         17.8252
438.79        17.89731
439.24        17.93141
439.68        17.91858
440.13        17.71875
440.57        17.45506
441.02        17.60825
441.46        18.01662
441.91        18.11044
442.35        17.45165
442.80         17.2404
443.24        17.29784
443.69         17.2505
444.13        17.07614
444.58        16.93409
445.02        16.84021
445.47        16.80154
445.91         16.8028
446.36        16.77927
446.80        16.71928
447.24        16.66202
447.69        16.62688
448.13        16.60639
448.58        16.60765
449.02        16.62316
449.47        16.63697
449.91        16.61828
450.36        16.56739
450.80        16.49242
451.25        16.41922
451.69        16.37014
452.13        16.35803
452.58        16.36873
453.02        16.39732
453.47        16.43645
453.91        16.48041
454.36        16.52772
454.80        16.56031
455.24        16.54753
455.69        16.49133
456.13        16.38491
456.58        16.27044
457.02        16.20162
457.46        16.18777
457.91        16.17783
458.35        16.15861
458.79        16.14946
459.24        16.14256
459.68        16.13723
460.13        16.17944
460.57        16.18383
461.01        16.13394
461.46         16.4695
461.90        16.54649
462.34        16.37464
462.79        16.49879
463.23        16.36347
463.68        16.24069
464.12        16.14183
464.56         16.2109
465.01        16.32609
465.45        16.43362
465.89        16.46985
466.34        16.42877
466.78        16.27949
467.22        16.09905
467.67        16.12645
468.11        16.33388
468.55        16.38463
468.99         16.2785
469.44        16.28274
469.88        16.39898
470.32        16.46772
470.77        16.46185
471.21        16.42414
471.65        16.35596
472.10        16.24847
472.54        16.14123
472.98        16.13349
473.42        16.23678
473.87        16.37524
474.31        16.50411
474.75        16.65423
475.20        16.77494
475.64        16.70347
476.08         16.5171
476.52        16.48135
476.97        16.61826
477.41        16.81109
477.85        16.98749
478.29        17.08002
478.74         17.0682
479.18         16.9471
479.62        16.80957
480.06        16.80245
480.50        16.93001
480.95        17.06862
481.39        17.16321
481.83        17.20901
482.27        17.19423
482.72        17.12736
483.16        17.05286
483.60        17.01851
484.04        17.01025
484.48        17.16502
484.93        17.53583
485.37        17.54528
485.81        17.34192
486.25        18.38608
486.69        18.91207
487.14        18.36262
487.58        17.86609
488.02        18.86467
488.46        18.42096
488.90        18.62609
489.34        18.41334
489.79        18.53811
490.23        18.92127
490.67         19.1128
491.11        19.10953
491.55        19.05402
491.99        18.99311
492.43        18.97139
492.88        19.01581
493.32        19.07907
493.76        19.17735
494.20        19.36382
494.64        19.63638
495.08         19.9676
495.52        20.30122
495.96        20.56704
496.41        20.74691
496.85        20.81993
497.29        20.83336
497.73        20.96482
498.17        21.20239
498.61        21.31247
499.05         21.3114
499.49        21.43701
499.93        21.69966
500.37        21.92898
500.82        22.10928
501.26         22.3595
501.70        22.63605
502.14        22.72621
502.58        22.65911
503.02        22.66961
503.46        22.77896
503.90        22.86496
504.34        22.91526
504.78        22.96421
505.22        23.01005
505.66        23.05169
506.10        23.09252
506.54        23.13261
506.98        23.17686
507.42        23.23114
507.86        23.30198
508.30        23.39939
508.74        23.52083
509.18        23.65293
509.62        23.79432
510.06          23.943
510.50         24.0942
510.94         24.2529
511.38        24.38076
511.82        24.41751
512.26        24.35735
512.70        24.21512
513.14        24.07484
513.58        24.06655
514.02        24.20685
514.46        24.46043
514.90        24.72205
515.34         24.7575
515.78        24.57054
516.22        24.28507
516.66        24.03642
517.10        23.70276
517.54        23.32613
517.98        23.95578
518.42         23.9361
518.86        24.23139
519.30        24.32403
519.74        24.39448
520.18         24.4264
520.62        24.37151
521.06        24.25231
521.50        24.06507
521.93        23.86043
522.37        23.73302
522.81        23.70387
523.25         23.7522
523.69        23.83439
524.13        23.87758
524.57        23.85926
525.01        23.79679
525.45        23.71442
525.89        23.65142
526.32        23.61714
526.76        23.59928
527.20        23.57166
527.64        23.49925
528.08        23.37587
528.52        23.21403
528.96        23.05138
529.40        22.94181
529.83        22.89491
530.27        22.90093
530.71        22.90966
531.15        22.84378
531.59        22.69192
532.03        22.48166
532.46        22.27328
532.90         22.1788
533.34        22.20958
533.78        22.32303
534.22        22.45426
534.66        22.50412
535.09        22.44402
535.53        22.31679
535.97        22.15228
536.41        21.99456
536.85        21.86645
537.28        21.76687
537.72        21.71804
538.16        21.68793
538.60        21.78127
539.04        21.89699
539.47        22.02318
539.91        22.14875
540.35        22.27583
540.79        22.21883
541.22        22.28832
541.66        22.36419
542.10        22.55858
542.54        22.49337
542.97        22.75169
543.41        22.89648
543.85        23.08313
544.29        23.26023
544.72        23.39993
545.16        23.52643
545.60        23.63384
546.04        23.64536
546.47        23.64488
546.91        23.91436
547.35        24.39743
547.79        24.77279
548.22        24.97881
548.66        25.09183
549.10         25.1539
549.53        25.34296
549.97        25.68256
550.41         25.7435
550.84        26.00443
551.28        26.20042
551.72        26.47521
552.15        26.73913
552.59        26.98568
553.03        27.22847
553.46         27.4378
553.90        27.59689
554.34        27.70251
554.77        27.76053
555.21        27.80963
555.65        27.89852
556.08         28.0345
556.52        28.20208
556.96        28.37472
557.39        28.54579
557.83        28.69638
558.27        28.76237
558.70        28.77011
559.14        28.82014
559.57        28.91436
560.01        29.04013
560.45        29.16261
560.88        29.18875
561.32        29.17101
561.75        29.20749
562.19        29.40903
562.63        29.51028
563.06        29.54594
563.50         29.6391
563.93         29.7751
564.37        29.94926
564.80        30.01784
565.24        30.12934
565.68        30.22995
566.11        30.33064
566.55        30.45393
566.98        30.53731
567.42        30.57078
567.85        30.93105
568.29        30.82149
568.72        31.17425
569.16        31.66265
569.60        31.99776
570.03        32.13182
570.47        32.23967
570.90        32.21704
571.34        32.64732
571.77        32.48974
572.21        32.94452
572.64        33.41363
573.08        33.37789
573.51        33.41455
573.95        34.05152
574.38        34.40478
574.82        34.66288
