SpectraSmart Spectrum 2.9.0.0
--------- Device Information -----------
Spectrum Name :  反射率_0
Saving Time :  2024/04/20 00:26:11
Spectro-Module Model Name : SE2030-DUVN
Spectro-Module Serial Number : OS361AC55029948
Wavelength Start : 200
Wavelength End : 1025
Wavelength Unit : Wavelength(nm)
Spectrum Unit : Reflectance(%)
-----------Spectrum Setting ------------
Integration Time : 30ms
Average : 10
Boxcar : 0
Background removal :  enabled
linearity correction :  enabled
SC :  disabled
Intensity correction :  disabled
DWT denoise :  enabled
savitzky-golay :  disabled
FFT :  disabled
Running average :  disabled
Kalman :  disabled
High pass :  disabled
---------------BEGIN--------------------
Wavelength(nm)             Reflectance(%)
200.29               0
200.75        48.52938
201.21        51.72375
201.67        58.01998
202.13        65.46619
202.58        72.54197
203.04        79.58449
203.50        84.64995
203.96         83.8223
204.42        78.05544
204.88        70.47553
205.34        63.64219
205.80        58.21213
206.26        53.06099
206.72         46.6995
207.18        38.69936
207.64        32.39371
208.10        32.32939
208.55         38.3981
209.01        45.45467
209.47        49.38153
209.93        50.08317
210.39        48.79782
210.85        46.93151
211.31        46.09366
211.77        46.55833
212.23        48.03795
212.69        49.75382
213.14        49.50301
213.60        46.72126
214.06        43.76804
214.52        42.07371
214.98        42.38285
215.44        44.38998
215.90        47.47639
216.36         51.4731
216.81        55.33462
217.27        57.94834
217.73        59.65254
218.19        59.42119
218.65        55.79466
219.11        48.63544
219.57        37.71935
220.02        25.49071
220.48        18.96746
220.94        20.59047
221.40        29.38861
221.86        40.32508
222.32        45.35384
222.77        42.78963
223.23         35.3433
223.69        27.68252
224.15        26.42517
224.61        31.38494
225.06        38.77177
225.52        45.10628
225.98        47.67807
226.44        46.53897
226.90        43.10507
227.36        38.54599
227.81        34.89798
228.27        33.37947
228.73        33.19425
229.19        34.00297
229.65        35.42572
230.10        37.09853
230.56        38.95656
231.02        40.68554
231.48        41.86259
231.93        42.42917
232.39        42.53897
232.85        42.22865
233.31        41.60096
233.77        40.76467
234.22        39.71558
234.68        38.74223
235.14        38.24612
235.60        38.33649
236.05        38.92556
236.51         39.7953
236.97        40.57978
237.43        41.23173
237.88        42.02939
238.34        42.88356
238.80        43.74403
239.26        44.42746
239.71        44.64183
240.17        44.75077
240.63        45.91164
241.08        48.37276
241.54        51.86168
242.00        55.09413
242.46        55.59811
242.91        52.19114
243.37        43.94421
243.83        31.30979
244.28          22.134
244.74        24.84261
245.20        38.40641
245.66        52.92241
246.11        59.46747
246.57        57.34888
247.03        47.91808
247.48        33.75259
247.94        29.27342
248.40        36.82284
248.85        46.37964
249.31        53.44675
249.77         57.4584
250.22        59.36091
250.68        60.33744
251.14        60.45662
251.59        59.29826
252.05        57.06954
252.51        53.94684
252.96        50.49841
253.42        48.18773
253.88        47.61989
254.33        48.47266
254.79        51.11088
255.25        55.56012
255.70        61.13914
256.16         67.0268
256.62        71.80539
257.07        73.91593
257.53        73.55641
257.99        71.38123
258.44          67.989
258.90        65.04398
259.35        62.66632
259.81        61.13388
260.27        59.86747
260.72        58.33268
261.18        56.70572
261.63        54.75895
262.09        53.18912
262.55        52.44661
263.00        52.43311
263.46        52.99896
263.91        53.33668
264.37        52.77312
264.83        51.30305
265.28        49.19592
265.74        47.33069
266.19        46.49843
266.65        46.82322
267.11        47.81662
267.56        48.84299
268.02        48.98588
268.47        48.07552
268.93        46.44094
269.38        44.44921
269.84        42.91999
270.30        42.07845
270.75        41.70718
271.21        41.53875
271.66        41.15562
272.12        40.43657
272.57        39.52621
273.03        38.61713
273.48        37.90355
273.94        37.47812
274.39         37.2114
274.85        36.98196
275.31        36.58794
275.76         35.9665
276.22        35.20674
276.67        34.41095
277.13        33.84062
277.58           33.48
278.04        33.28721
278.49        33.04362
278.95        32.51277
279.40        31.64248
279.86        30.62034
280.31        29.60185
280.77        28.94339
281.22        28.63541
281.68        28.58548
282.13        28.62055
282.59          28.529
283.04        28.24467
283.50         27.8706
283.95        27.44414
284.41        27.05774
284.86        26.72038
285.32        26.42459
285.77        26.17769
286.22        26.06245
286.68        26.07572
287.13         26.1743
287.59        26.28537
288.04        26.27267
288.50        26.13175
288.95        25.87153
289.41        25.58634
289.86        25.34542
290.32        25.21946
290.77        25.17568
291.22        25.20674
291.68        25.26724
292.13        25.35172
292.59        25.49256
293.04        25.72892
293.50        26.13378
293.95        26.70129
294.40        27.38932
294.86        28.12594
295.31        28.81231
295.77        29.42012
296.22        29.97264
296.68        30.49694
297.13        31.01774
297.58         31.5577
298.04        32.11343
298.49        32.69059
298.95        33.34058
299.40        34.04871
299.85        34.79524
300.31         35.5427
300.76        36.22538
301.21        36.82237
301.67        37.37344
302.12        37.84564
302.58        38.25797
303.03        38.59921
303.48        38.88896
303.94        39.20879
304.39         39.6402
304.84        40.20008
305.30        40.84795
305.75        41.46298
306.20        41.88522
306.66        42.10209
307.11        42.15006
307.57        42.13384
308.02        42.13248
308.47        42.20272
308.93        42.31231
309.38         42.4506
309.83        42.65708
310.29        42.91451
310.74        43.20892
311.19        43.44772
311.65        43.47812
312.10        43.27325
312.55        42.88519
313.00        42.44203
313.46        42.14253
313.91        42.02003
314.36        42.03384
314.82        42.09231
315.27        42.07061
315.72        41.91748
316.18        41.68352
316.63         41.4092
317.08        41.16654
317.53         40.9705
317.99        40.78445
318.44        40.58013
318.89        40.30581
319.35        39.95494
319.80        39.55782
320.25        39.14878
320.70        38.77899
321.16        38.46069
321.61        38.18441
322.06        37.93517
322.51         37.6921
322.97         37.4353
323.42        37.17287
323.87        36.88909
324.32        36.56628
324.78        36.19585
325.23         35.7953
325.68        35.36486
326.13        34.91563
326.59        34.46397
327.04        34.04181
327.49        33.67543
327.94        33.40672
328.39        33.23838
328.85        33.13139
329.30        33.09874
329.75        33.10616
330.20         33.1248
330.66        33.13288
331.11        33.08594
331.56         32.8613
332.01        32.44184
332.46        31.85741
332.92        31.21824
333.37        30.73068
333.82        30.46196
334.27        30.38512
334.72         30.4096
335.17         30.3665
335.63         30.1922
336.08        29.93695
336.53        29.68606
336.98        29.59513
337.43        29.69172
337.88        29.91888
338.34        30.10827
338.79        30.04021
339.24        29.65013
339.69        29.00793
340.14        28.32636
340.59         27.9604
341.05        27.98588
341.50          28.306
341.95        28.69424
342.40        28.79617
342.85        28.53309
343.30        28.02976
343.75        27.46071
344.20        27.10951
344.66        27.04889
345.11        27.15119
345.56        27.32873
346.01        27.44428
346.46        27.43785
346.91        27.37029
347.36        27.19752
347.81        26.83775
348.26        26.31586
348.72        25.69383
349.17          25.102
349.62        24.83795
350.07        24.96538
350.52        25.37949
350.97        25.93008
351.42        26.38801
351.87        26.66752
352.32        26.81429
352.77        26.81561
353.22         26.6614
353.67        26.37362
354.13        25.96907
354.58        25.50988
355.03        25.13927
355.48        24.90212
355.93         24.7882
356.38        24.75284
356.83        24.70875
357.28        24.62523
357.73        24.51399
358.18        24.40703
358.63        24.35851
359.08         24.3701
359.53         24.4136
359.98        24.41335
360.43        24.25962
360.88        23.94371
361.33        23.51392
361.78        23.07421
362.23        22.79356
362.68        22.71111
363.13        22.76373
363.58        22.87247
364.03        22.91487
364.48        22.84596
364.93        22.69985
365.38        22.47702
365.83        22.18161
366.28        21.83777
366.73        21.45482
367.18        21.08696
367.63        20.82156
368.08        20.67529
368.53        20.62175
368.98        20.62698
369.43        20.62893
369.88        20.60503
370.33        20.57806
370.78        20.52192
371.23         20.3969
371.68        20.20455
372.13        19.94509
372.58        19.70553
373.03        19.63859
373.48        19.76152
373.93        20.01331
374.38        20.25934
374.83         20.2924
375.28        20.06889
375.72        19.65255
376.17        19.15966
376.62        18.73948
377.07        18.45695
377.52        18.27325
377.97        18.18447
378.42        18.18195
378.87         18.2419
379.32        18.36009
379.77        18.49001
380.22         18.5547
380.67        18.53684
381.11        18.45724
381.56        18.32143
382.01        18.16758
382.46        18.01228
382.91        17.83625
383.36        17.68132
383.81        17.60813
384.26        17.62016
384.71        17.71487
385.15        17.78979
385.60        17.68651
386.05        17.38742
386.50        16.94462
386.95        16.52114
387.40        16.37561
387.85         16.5469
388.29        16.93381
388.74        17.34888
389.19        17.52608
389.64        17.41017
390.09        17.07982
390.54        16.67257
390.98        16.40365
391.43        16.34757
391.88        16.42392
392.33        16.52122
392.78        16.48167
393.23        16.28442
393.67        15.98646
394.12        15.71134
394.57        15.56757
395.02        15.57654
395.47        15.69627
395.91        15.85174
396.36        15.89695
396.81         15.8012
397.26        15.60664
397.71        15.40433
398.15        15.31487
398.60        15.37788
399.05        15.53758
399.50        15.70265
399.95        15.74537
400.39        15.63786
400.84        15.41431
401.29        15.16448
401.74        15.05193
402.18        15.12506
402.63        15.32623
403.08        15.53282
403.53        15.54968
403.97        15.34042
404.42        14.98106
404.87        14.60923
405.32        14.44806
405.76        14.54616
406.21        14.82486
406.66        15.15421
407.11        15.33267
407.55        15.30867
408.00        15.14785
408.45         14.9295
408.90         14.7551
409.34        14.68476
409.79        14.74695
410.24        14.87727
410.68        14.91903
411.13         14.8536
411.58        14.76439
412.03        14.67134
412.47        14.58486
412.92         14.5162
413.37        14.45231
413.81        14.41889
414.26           14.47
414.71        14.60086
415.15        14.80526
415.60        14.98698
416.05        15.01164
416.49        14.84922
416.94        14.54563
417.39        14.21142
417.83        14.02732
418.28        14.04307
418.73         14.1975
419.17        14.39644
419.62        14.47938
420.07        14.41252
420.51        14.25096
420.96        14.06254
421.41        13.93356
421.85        13.88589
422.30        13.89621
422.74         13.9388
423.19        14.00476
423.64        14.07541
424.08        14.16189
424.53        14.23025
424.98        14.24434
425.42        14.19918
425.87        14.10835
426.31        13.98733
426.76        13.87083
427.21        13.76306
427.65        13.65086
428.10        13.57259
428.54        13.56742
428.99         13.6415
429.44         13.8419
429.88         14.0576
430.33        14.02107
430.77        13.77206
431.22        13.60076
431.66        13.57304
432.11        13.63619
432.56        13.78121
433.00        14.06125
433.45        14.30527
433.89        14.25346
434.34        13.98724
434.78        13.67106
435.23        13.33878
435.67        13.93593
436.12        13.52172
436.57        13.52877
437.01         13.4079
437.46        13.36792
437.90        13.40668
438.35        13.42428
438.79         13.4046
439.24        13.38293
439.68        13.35823
440.13         13.2083
440.57        13.01415
441.02        13.11602
441.46        13.38817
441.91         13.4203
442.35        12.88697
442.80         12.6725
443.24        12.64421
443.69        12.53132
444.13        12.34264
444.58        12.23717
445.02        12.22916
445.47        12.30613
445.91           12.42
446.36        12.46448
446.80        12.41336
447.24        12.31208
447.69        12.19703
448.13        12.09531
448.58        12.02723
449.02        11.98224
449.47        11.94714
449.91        11.89694
450.36        11.83192
450.80        11.75934
451.25        11.70687
451.69        11.70073
452.13        11.74673
452.58        11.82424
453.02        11.90561
453.47        11.94608
453.91        11.93746
454.36        11.89376
454.80        11.82818
455.24        11.76554
455.69        11.72242
456.13        11.67805
456.58        11.65425
457.02        11.67631
457.46        11.74189
457.91        11.81555
458.35        11.87056
458.79        11.89197
459.24        11.87213
459.68        11.81602
460.13        11.78509
460.57        11.75977
461.01        11.73933
461.46        12.03034
461.90         12.1398
462.34        12.02879
462.79        12.08991
463.23        11.93057
463.68        11.77641
464.12         11.6765
464.56        11.74649
465.01        11.87838
465.45        12.01491
465.89        12.08465
466.34        12.07608
466.78        11.97569
467.22        11.83976
467.67        11.84289
468.11        11.96746
468.55          11.968
468.99        11.85749
469.44        11.85096
469.88        11.95362
470.32         12.0432
470.77        12.08899
471.21         12.1055
471.65        12.08696
472.10        12.03367
472.54        11.97034
472.98        11.96813
473.42        12.03671
473.87        12.11709
474.31         12.1924
474.75        12.30794
475.20        12.42977
475.64        12.43295
476.08        12.34838
476.52        12.33468
476.97        12.40196
477.41        12.47389
477.85         12.5312
478.29        12.58124
478.74        12.62028
479.18         12.6243
479.62        12.61957
480.06        12.65359
480.50        12.71703
480.95        12.73753
481.39        12.71275
481.83        12.69927
482.27        12.70539
482.72        12.71861
483.16        12.74203
483.60        12.79079
484.04        12.86026
484.48        12.97995
484.93        13.20793
485.37        13.35508
485.81        13.46257
486.25        13.96929
486.69        14.32578
487.14        13.74088
487.58        13.66977
488.02        14.58942
488.46        14.05749
488.90        14.14424
489.34        14.00049
489.79        14.11871
490.23        14.43256
490.67        14.66122
491.11        14.76154
491.55        14.71139
491.99        14.56033
492.43        14.48867
492.88        14.53047
493.32        14.55496
493.76         14.5883
494.20        14.74047
494.64        15.01365
495.08         15.3639
495.52        15.72436
495.96        16.00444
496.41        16.17928
496.85        16.24432
497.29        16.24818
497.73        16.34922
498.17        16.54679
498.61        16.65304
499.05        16.67997
499.49         16.8165
499.93        17.06977
500.37        17.29377
500.82        17.47112
501.26        17.71859
501.70        17.98544
502.14        18.03701
502.58        17.91576
503.02        17.89694
503.46        18.00566
503.90         18.1029
504.34        18.16339
504.78         18.2064
505.22         18.2264
505.66        18.22738
506.10         18.2289
506.54        18.25746
506.98        18.32219
507.42         18.4179
507.86        18.53404
508.30        18.65287
508.74        18.76463
509.18        18.86707
509.62        18.96635
510.06        19.07257
510.50        19.18752
510.94        19.31222
511.38        19.41868
511.82        19.46296
512.26        19.44038
512.70        19.36208
513.14        19.28871
513.58        19.31346
514.02        19.44385
514.46        19.64991
514.90        19.85247
515.34          19.867
515.78        19.69358
516.22        19.46107
516.66        19.27063
517.10        18.93197
517.54        18.47805
517.98        19.04867
518.42        18.92409
518.86        19.19478
519.30        19.32426
519.74        19.48081
520.18        19.61709
520.62        19.63544
521.06          19.544
521.50        19.35316
521.93        19.12331
522.37        18.96535
522.81        18.90867
523.25        18.92709
523.69        18.98312
524.13        19.01492
524.57        19.00094
525.01         18.9568
525.45        18.89792
525.89        18.84718
526.32        18.80944
526.76        18.77649
527.20        18.72668
527.64        18.63285
528.08        18.49268
528.52        18.31727
528.96        18.14577
529.40        18.03412
529.83          17.993
530.27        18.01232
530.71        18.04092
531.15         17.9983
531.59          17.871
532.03        17.68481
532.46        17.50092
532.90        17.43165
533.34        17.48785
533.78          17.626
534.22        17.77577
534.66           17.83
535.09        17.76114
535.53        17.61523
535.97        17.43244
536.41        17.27332
536.85        17.16418
537.28        17.09568
537.72        17.08138
538.16        17.08898
538.60        17.19545
539.04        17.32202
539.47        17.45177
539.91        17.56372
540.35        17.65846
540.79        17.59274
541.22        17.62134
541.66        17.66325
542.10        17.81214
542.54        17.76588
542.97        17.98361
543.41        18.11756
543.85        18.28826
544.29        18.45662
544.72        18.59568
545.16        18.71702
545.60        18.81472
546.04        18.82779
546.47        18.82984
546.91        19.05816
547.35        19.46935
547.79        19.80284
548.22         19.9989
548.66        20.10196
549.10        20.14497
549.53        20.27772
549.97        20.53041
550.41        20.57647
550.84        20.80386
551.28        20.99596
551.72        21.26336
552.15        21.52809
552.59        21.77827
553.03        22.02277
553.46        22.23326
553.90        22.38837
554.34        22.48586
554.77        22.53449
555.21        22.56561
555.65        22.61891
556.08        22.70307
556.52        22.80588
556.96        22.92154
557.39        23.06861
557.83        23.23344
558.27        23.35699
558.70        23.43155
559.14        23.49167
559.57        23.53222
560.01        23.55963
560.45        23.57915
560.88        23.57001
561.32        23.58713
561.75        23.68386
562.19        23.92622
562.63        24.07683
563.06        24.14395
563.50        24.20429
563.93        24.26729
564.37        24.39207
564.80        24.47185
565.24        24.59854
565.68        24.71394
566.11         24.8189
566.55        24.92952
566.98         24.9879
567.42        25.00372
567.85        25.33825
568.29        25.32681
568.72        25.66295
569.16        26.07858
569.60        26.37572
570.03        26.51406
570.47        26.62888
570.90        26.63249
571.34        26.93292
571.77        26.91111
572.21        27.22535
572.64        27.63739
573.08        27.76333
573.51        27.81037
573.95        28.12006
574.38        28.45731
574.82        28.58908
