SpectraSmart Spectrum 2.9.0.0
--------- Device Information -----------
Spectrum Name :  反射率_0
Saving Time :  2024/04/20 00:23:55
Spectro-Module Model Name : SE2030-DUVN
Spectro-Module Serial Number : OS361AC55029948
Wavelength Start : 200
Wavelength End : 1025
Wavelength Unit : Wavelength(nm)
Spectrum Unit : Reflectance(%)
-----------Spectrum Setting ------------
Integration Time : 30ms
Average : 10
Boxcar : 0
Background removal :  enabled
linearity correction :  enabled
SC :  disabled
Intensity correction :  disabled
DWT denoise :  enabled
savitzky-golay :  disabled
FFT :  disabled
Running average :  disabled
Kalman :  disabled
High pass :  disabled
---------------BEGIN--------------------
Wavelength(nm)             Reflectance(%)
200.29               0
200.75        53.44971
201.21        55.66462
201.67        60.63383
202.13         67.6693
202.58        75.98431
203.04         85.8397
203.50        94.31612
203.96        94.87897
204.42        88.04758
204.88        78.48043
205.34         70.1032
205.80        64.42793
206.26        60.39116
206.72        56.56014
207.18        52.87603
207.64        51.32307
208.10        53.72486
208.55        59.56012
209.01        64.66981
209.47        66.28866
209.93        64.84072
210.39         61.5303
210.85        57.77764
211.31        55.07855
211.77        53.51009
212.23        52.39106
212.69        51.78286
213.14        52.18738
213.60        53.09371
214.06         54.6652
214.52        55.98692
214.98        56.54849
215.44        56.47321
215.90        55.58652
216.36        54.74044
216.81        55.81623
217.27        59.04554
217.73        63.71447
218.19        67.34651
218.65        66.61481
219.11        60.98631
219.57        50.91698
220.02        38.97219
220.48         32.3197
220.94        33.56924
221.40        41.37195
221.86        51.41445
222.32        56.89579
222.77        56.14534
223.23        51.51014
223.69        46.17797
224.15         44.6369
224.61         47.0712
225.06        51.08566
225.52        54.61301
225.98        56.12931
226.44        55.61732
226.90        53.84983
227.36        51.55207
227.81         49.8554
228.27        49.47117
228.73        49.87659
229.19        50.54858
229.65        50.89761
230.10        50.81439
230.56        50.53455
231.02        50.36135
231.48        50.68286
231.93        51.43472
232.39        52.44082
232.85        53.22935
233.31        53.11545
233.77        52.00785
234.22        50.17269
234.68        48.13358
235.14        46.72243
235.60        46.25428
236.05        46.52354
236.51        47.29372
236.97        48.19457
237.43        49.15028
237.88        50.50101
238.34        52.12935
238.80        53.78934
239.26        55.04946
239.71        55.59521
240.17        55.50983
240.63        55.68378
241.08        56.43273
241.54        57.56865
242.00        58.50489
242.46        57.97569
242.91        55.32296
243.37        49.92437
243.83         42.3648
244.28        38.14056
244.74        42.48081
245.20        54.05954
245.66        65.24744
246.11        69.85696
246.57        67.49666
247.03        58.79618
247.48        45.94881
247.94        41.81792
248.40        48.48402
248.85        57.14353
249.31         63.5714
249.77        66.97568
250.22         68.2076
250.68        68.29012
251.14        67.47099
251.59        65.97457
252.05        64.26149
252.51        62.38589
252.96        60.24903
253.42        58.08869
253.88        56.31232
254.33         55.1873
254.79        55.87405
255.25        59.10943
255.70        64.21866
256.16        70.08195
256.62        74.97253
257.07        77.00424
257.53        76.34867
257.99        73.77267
258.44        70.04819
258.90        67.04844
259.35        64.81821
259.81         63.5002
260.27        62.35241
260.72        60.71219
261.18        58.79473
261.63        56.42804
262.09        54.43367
262.55        53.42902
263.00        53.33084
263.46        53.92141
263.91        54.27805
264.37        53.59832
264.83        51.87866
265.28        49.45584
265.74         47.3046
266.19        46.33879
266.65        46.69577
267.11        47.83476
267.56        49.04284
268.02        49.30334
268.47        48.42508
268.93        46.76168
269.38        44.73571
269.84        43.25795
270.30        42.56622
270.75        42.40101
271.21        42.40952
271.66        42.05669
272.12        41.20017
272.57         40.0213
273.03        38.80455
273.48        37.88467
273.94        37.39316
274.39        37.17156
274.85        37.00896
275.31        36.57159
275.76        35.78215
276.22        34.77758
276.67        33.77563
277.13        33.20329
277.58        33.05721
278.04        33.21814
278.49        33.32614
278.95        32.94781
279.40        32.00208
279.86         30.7536
280.31        29.47421
280.77        28.68313
281.22        28.40291
281.68        28.48375
282.13        28.67911
282.59        28.66973
283.04         28.3658
283.50        27.91223
283.95        27.39717
284.41        26.98216
284.86        26.68967
285.32        26.48352
285.77        26.33131
286.22        26.25972
286.68        26.25313
287.13        26.28804
287.59        26.32442
288.04        26.27143
288.50        26.13181
288.95        25.89693
289.41        25.63214
289.86        25.36278
290.32        25.15291
290.77        24.99089
291.22        24.89792
291.68        24.86828
292.13        24.90786
292.59        25.03712
293.04        25.28331
293.50        25.70042
293.95        26.27611
294.40        26.97413
294.86        27.72556
295.31        28.43556
295.77        29.07707
296.22        29.67112
296.68        30.24321
297.13        30.81569
297.58        31.41311
298.04        32.03688
298.49        32.69577
298.95         33.4459
299.40        34.27172
299.85        35.14499
300.31        36.03077
300.76        36.86798
301.21        37.62932
301.67        38.34983
302.12        38.97178
302.58        39.47937
303.03        39.86237
303.48        40.16127
303.94        40.49176
304.39        40.98638
304.84        41.67292
305.30        42.48878
305.75        43.29642
306.20        43.91121
306.66        44.30417
307.11         44.5124
307.57        44.61887
308.02        44.66843
308.47        44.71842
308.93         44.7498
309.38        44.78955
309.83        44.93797
310.29        45.19591
310.74        45.53921
311.19        45.84835
311.65        45.92456
312.10        45.72829
312.55        45.32247
313.00        44.86586
313.46        44.60449
313.91        44.57704
314.36        44.72507
314.82        44.90643
315.27        44.91697
315.72        44.69086
316.18        44.31002
316.63        43.87763
317.08        43.56068
317.53        43.39857
317.99         43.3303
318.44        43.28054
318.89         43.1187
319.35        42.81195
319.80        42.40707
320.25        41.97922
320.70        41.64506
321.16        41.43003
321.61         41.3058
322.06        41.19649
322.51        40.98537
322.97        40.63633
323.42         40.1917
323.87        39.72496
324.32        39.36282
324.78        39.12938
325.23        38.99939
325.68        38.87931
326.13        38.62086
326.59        38.19144
327.04        37.66967
327.49        37.15123
327.94         36.7939
328.39        36.63847
328.85        36.61137
329.30        36.69077
329.75        36.77675
330.20        36.81785
330.66        36.81552
331.11        36.75579
331.56        36.55713
332.01        36.21349
332.46        35.73882
332.92         35.2108
333.37        34.78989
333.82        34.52852
334.27        34.41399
334.72        34.39145
335.17        34.35217
335.63        34.24926
336.08        34.11961
336.53         34.0107
336.98        34.01762
337.43        34.15051
337.88        34.36884
338.34        34.53985
338.79         34.5016
339.24        34.20576
339.69        33.70939
340.14        33.18443
340.59        32.91892
341.05        32.97068
341.50        33.25584
341.95        33.60327
342.40        33.74537
342.85        33.61533
343.30        33.30834
343.75        32.91907
344.20        32.60201
344.66        32.40768
345.11        32.26009
345.56        32.16507
346.01        32.13218
346.46        32.14167
346.91        32.20871
347.36        32.22866
347.81        32.02745
348.26        31.59722
348.72        31.02051
349.17         30.4441
349.62        30.19038
350.07        30.32803
350.52        30.73616
350.97        31.24764
351.42        31.61419
351.87        31.75118
352.32        31.72005
352.77         31.5405
353.22        31.24841
353.67        30.88277
354.13        30.45709
354.58        30.00677
355.03         29.6328
355.48        29.36843
355.93        29.20827
356.38         29.1398
356.83        29.12842
357.28         29.1447
357.73        29.17501
358.18         29.1866
358.63         29.1309
359.08        28.99249
359.53        28.78593
359.98         28.5073
360.43        28.15402
360.88        27.74507
361.33        27.29403
361.78        26.87718
362.23        26.61681
362.68        26.53131
363.13        26.57493
363.58        26.65345
364.03         26.6171
364.48        26.42159
364.93        26.10577
365.38        25.70858
365.83        25.30608
366.28        24.93742
366.73        24.58551
367.18        24.26786
367.63        24.01119
368.08        23.81353
368.53        23.67163
368.98        23.55296
369.43        23.39565
369.88        23.18714
370.33        22.95093
370.78        22.69951
371.23        22.46089
371.68        22.25204
372.13        22.05651
372.58        21.91586
373.03        21.90084
373.48         22.0035
373.93        22.18529
374.38          22.337
374.83         22.2927
375.28        22.02094
375.72        21.56836
376.17        21.04896
376.62        20.61082
377.07        20.31672
377.52        20.13429
377.97        20.04719
378.42        20.02428
378.87        20.04002
379.32        20.09518
379.77        20.16628
380.22        20.21301
380.67        20.22135
381.11         20.1976
381.56        20.11796
382.01        19.97182
382.46        19.76567
382.91        19.50211
383.36        19.24554
383.81        19.09016
384.26        19.05221
384.71        19.11772
385.15        19.18926
385.60        19.11825
386.05        18.87887
386.50        18.51397
386.95        18.15807
387.40        18.02374
387.85        18.14393
388.29        18.43895
388.74        18.74425
389.19        18.82254
389.64        18.63129
390.09        18.24212
390.54         17.8099
390.98        17.57569
391.43        17.61005
391.88        17.81713
392.33        18.04483
392.78        18.07585
393.23        17.88089
393.67        17.53736
394.12        17.20053
394.57        17.02014
395.02        17.02791
395.47        17.16728
395.91        17.35798
396.36          17.442
396.81        17.38175
397.26        17.22578
397.71        17.05415
398.15        16.96853
398.60        17.01241
399.05        17.13684
399.50        17.27325
399.95        17.32824
400.39        17.28083
400.84        17.15534
401.29        17.02242
401.74        17.00844
402.18         17.1445
402.63        17.37717
403.08        17.59471
403.53        17.62099
403.97        17.42629
404.42        17.08415
404.87        16.72123
405.32        16.54423
405.76        16.60269
406.21        16.82791
406.66        17.11666
407.11        17.30706
407.55        17.35344
408.00        17.30786
408.45        17.21583
408.90        17.11132
409.34        17.03771
409.79        17.05684
410.24        17.12595
410.68        17.11131
411.13        17.00796
411.58        16.89592
412.03        16.80006
412.47        16.73651
412.92         16.7137
413.37        16.71748
413.81        16.75719
414.26        16.86079
414.71        17.01678
415.15        17.22428
415.60        17.39546
416.05        17.41459
416.49         17.2579
416.94        16.96496
417.39         16.6444
417.83        16.47355
418.28        16.50078
418.73        16.66815
419.17          16.879
419.62        16.96856
420.07        16.90348
420.51        16.74114
420.96        16.55613
421.41        16.44349
421.85        16.42558
422.30        16.47623
422.74        16.56533
423.19        16.68135
423.64        16.80356
424.08        16.94591
424.53        17.06737
424.98        17.12211
425.42        17.10176
425.87        17.01862
426.31        16.89874
426.76        16.79482
427.21         16.7135
427.65         16.6372
428.10        16.58871
428.54        16.57823
428.99        16.61002
429.44        16.75716
429.88        16.92267
430.33        16.83993
430.77        16.56442
431.22        16.42859
431.66        16.47999
432.11        16.60194
432.56        16.77064
433.00        17.06576
433.45        17.31295
433.89        17.25789
434.34        17.01261
434.78        16.74706
435.23        16.46533
435.67        17.29753
436.12        16.82718
436.57        16.84456
437.01        16.68057
437.46        16.61579
437.90        16.65625
438.35        16.67189
438.79        16.64014
439.24        16.59953
439.68        16.55051
440.13        16.35057
440.57        16.10732
441.02        16.25076
441.46        16.62809
441.91        16.72398
442.35        16.12491
442.80        15.92744
443.24        15.96614
443.69        15.89469
444.13        15.71792
444.58         15.6256
445.02        15.63443
445.47        15.73497
445.91         15.8646
446.36        15.88518
446.80        15.77133
447.24        15.58735
447.69          15.404
448.13        15.29472
448.58        15.28732
449.02        15.35144
449.47         15.4395
449.91        15.46893
450.36        15.42416
450.80        15.33077
451.25        15.23156
451.69        15.17473
452.13        15.17856
452.58        15.21589
453.02        15.27035
453.47         15.3186
453.91        15.35214
454.36         15.3789
454.80        15.38803
455.24        15.35979
455.69        15.30112
456.13        15.20268
456.58        15.10876
457.02        15.07726
457.46        15.11477
457.91        15.16828
458.35        15.21107
458.79         15.2393
459.24        15.24137
459.68        15.22261
460.13        15.23707
460.57         15.2218
461.01        15.16677
461.46        15.47925
461.90        15.55066
462.34        15.38306
462.79        15.48787
463.23        15.35044
463.68        15.22591
464.12        15.12263
464.56        15.17762
465.01        15.27477
465.45        15.37598
465.89        15.44001
466.34        15.45961
466.78        15.39683
467.22        15.29881
467.67        15.35122
468.11        15.51891
468.55        15.49679
468.99         15.3114
469.44        15.25613
469.88        15.34452
470.32        15.41461
470.77        15.43513
471.21         15.4358
471.65        15.41023
472.10        15.35383
472.54        15.28901
472.98        15.28555
473.42        15.35178
473.87        15.42277
474.31        15.47937
474.75        15.58579
475.20        15.70224
475.64         15.6665
476.08        15.53318
476.52        15.52425
476.97        15.65346
477.41        15.81909
477.85         15.9634
478.29        16.04011
478.74        16.03415
479.18        15.93313
479.62        15.81586
480.06        15.80947
480.50        15.91583
480.95        16.02328
481.39        16.08556
481.83        16.10895
482.27        16.08517
482.72        16.01055
483.16        15.92345
483.60        15.90193
484.04        15.95923
484.48        16.10129
484.93        16.34837
485.37        16.49692
485.81        16.50356
486.25        16.87459
486.69        17.43646
487.14         16.7738
487.58        16.75238
488.02        17.49787
488.46         17.0611
488.90        17.20461
489.34        17.16683
489.79        17.31671
490.23        17.57033
490.67        17.67714
491.11         17.6412
491.55        17.56468
491.99        17.49193
492.43        17.45754
492.88        17.48613
493.32        17.55268
493.76        17.65982
494.20         17.8202
494.64        18.02729
495.08        18.26898
495.52        18.50878
495.96        18.70559
496.41        18.84934
496.85         18.9131
497.29        18.93185
497.73        19.05539
498.17        19.26828
498.61        19.36127
499.05        19.34805
499.49        19.44683
499.93        19.66933
500.37        19.84806
500.82        19.97392
501.26        20.19644
501.70        20.46212
502.14        20.50079
502.58        20.35983
503.02        20.34806
503.46        20.48869
503.90        20.62078
504.34        20.70547
504.78        20.74917
505.22        20.74212
505.66        20.69384
506.10        20.63281
506.54        20.60052
506.98        20.61393
507.42        20.66623
507.86        20.75347
508.30         20.8672
508.74        20.99687
509.18        21.13629
509.62         21.2776
510.06         21.4078
510.50        21.52162
510.94        21.62437
511.38        21.69537
511.82        21.70484
512.26        21.65412
512.70        21.55199
513.14        21.45862
513.58        21.46551
514.02        21.58052
514.46        21.77709
514.90        21.97839
515.34        21.99953
515.78         21.8458
516.22        21.63594
516.66        21.46826
517.10        21.15486
517.54        20.72686
517.98        21.29276
518.42        21.17997
518.86        21.44898
519.30        21.57904
519.74        21.73404
520.18        21.87127
520.62        21.90071
521.06        21.83126
521.50         21.6721
521.93        21.47732
522.37        21.34696
522.81         21.3073
523.25        21.33411
523.69        21.39554
524.13        21.43935
524.57        21.44562
525.01         21.4264
525.45        21.39075
525.89        21.35128
526.32        21.31157
526.76        21.26923
527.20        21.20861
527.64        21.11194
528.08        20.97957
528.52        20.81792
528.96        20.66644
529.40        20.58203
529.83        20.57233
530.27         20.6264
530.71        20.68247
531.15        20.64346
531.59        20.49465
532.03        20.26972
532.46         20.0436
532.90        19.95095
533.34         20.0098
533.78        20.17143
534.22        20.36039
534.66         20.4615
535.09        20.44068
535.53        20.34201
535.97         20.2028
536.41        20.07898
536.85        19.99416
537.28        19.94165
537.72        19.92665
538.16        19.89706
538.60          19.946
539.04         19.9892
539.47        20.03893
539.91        20.11911
540.35        20.23813
540.79        20.21713
541.22        20.31461
541.66        20.38301
542.10        20.51703
542.54        20.38684
542.97        20.54431
543.41         20.6297
543.85        20.79144
544.29        20.96835
544.72         21.1199
545.16        21.24492
545.60        21.33183
546.04        21.32059
546.47        21.28695
546.91        21.49083
547.35         21.8852
547.79        22.16136
548.22         22.2815
548.66        22.37819
549.10        22.47119
549.53        22.62591
549.97        22.86055
550.41        22.86641
550.84        23.07203
551.28        23.19502
551.72        23.37633
552.15        23.58353
552.59        23.81453
553.03        24.06582
553.46        24.29135
553.90         24.4454
554.34        24.51863
554.77        24.52685
555.21        24.51851
555.65        24.55847
556.08        24.66031
556.52        24.80399
556.96        24.95957
557.39        25.11203
557.83        25.24037
558.27        25.28959
558.70        25.28538
559.14        25.31835
559.57        25.39144
560.01        25.49425
560.45        25.58929
560.88        25.58703
561.32        25.53596
561.75        25.51937
562.19        25.65194
562.63        25.74653
563.06         25.8278
563.50        25.95348
563.93        26.10022
564.37        26.27966
564.80        26.36127
565.24        26.46119
565.68        26.53235
566.11        26.59986
566.55        26.68797
566.98         26.7219
567.42        26.70842
567.85         27.0354
568.29        26.99017
568.72        27.30537
569.16        27.69294
569.60        27.95928
570.03        28.06501
570.47        28.13369
570.90        28.06161
571.34        28.41698
571.77        28.30161
572.21        28.69477
572.64        28.75966
573.08        29.16646
573.51         29.1492
573.95        29.59666
574.38        29.90889
574.82        29.93323
