SpectraSmart Spectrum 2.9.0.0
--------- Device Information -----------
Spectrum Name :  反射率_0
Saving Time :  2024/04/20 00:29:49
Spectro-Module Model Name : SE2030-DUVN
Spectro-Module Serial Number : OS361AC55029948
Wavelength Start : 200
Wavelength End : 1025
Wavelength Unit : Wavelength(nm)
Spectrum Unit : Reflectance(%)
-----------Spectrum Setting ------------
Integration Time : 30ms
Average : 10
Boxcar : 0
Background removal :  enabled
linearity correction :  enabled
SC :  disabled
Intensity correction :  disabled
DWT denoise :  enabled
savitzky-golay :  disabled
FFT :  disabled
Running average :  disabled
Kalman :  disabled
High pass :  disabled
---------------BEGIN--------------------
Wavelength(nm)             Reflectance(%)
200.29               0
200.75        65.15487
201.21        67.23254
201.67        71.79957
202.13        78.55096
202.58         86.8955
203.04        97.08727
203.50        105.4555
203.96        104.1738
204.42        94.37261
204.88        81.90775
205.34        71.60054
205.80        65.27189
206.26        61.65737
206.72        59.43071
207.18        58.28534
207.64        57.99504
208.10        58.57135
208.55        60.48222
209.01        62.34901
209.47         63.8276
209.93        64.84637
210.39        65.29797
210.85        65.16202
211.31        64.49802
211.77        63.28185
212.23        61.42648
212.69        59.18629
213.14        58.17508
213.60        58.77138
214.06        60.49252
214.52        62.38718
214.98        64.11472
215.44        65.75758
215.90         67.2878
216.36        68.88924
216.81        70.56291
217.27        71.93512
217.73        73.15708
218.19        73.15925
218.65        70.39959
219.11        64.70553
219.57        56.07364
220.02        46.79598
220.48        43.15385
220.94        47.07336
221.40        57.28849
221.86        68.90967
222.32        74.41556
222.77        72.22826
223.23        65.04915
223.69        57.01156
224.15          54.078
224.61        56.58061
225.06        61.42709
225.52        66.07217
225.98        68.48051
226.44        68.58753
226.90        67.38737
227.36        65.46591
227.81        63.68194
228.27        62.74567
228.73        62.19266
229.19        61.95498
229.65        61.99723
230.10        62.15995
230.56        62.51266
231.02        62.86811
231.48        63.00509
231.93        62.86518
232.39        62.57102
232.85        62.13186
233.31        61.62209
233.77        61.10533
234.22        60.57857
234.68        60.17551
235.14        60.03288
235.60        60.19636
236.05        60.63377
236.51        61.30208
236.97        62.15751
237.43        63.25327
237.88        64.87162
238.34        66.77791
238.80          68.617
239.26        69.85014
239.71        70.25343
240.17        69.99673
240.63         70.0955
241.08        70.91557
241.54          72.255
242.00        73.44262
242.46        73.06216
242.91        70.45174
243.37        64.88161
243.83        57.10871
244.28        53.27494
244.74        58.67882
245.20        71.40446
245.66        83.09566
246.11        87.06862
246.57        82.68506
247.03        70.30637
247.48        51.78638
247.94        42.51782
248.40        47.36555
248.85        56.25047
249.31        63.58537
249.77        67.94379
250.22        70.24094
250.68        71.86011
251.14        73.20863
251.59        74.45091
252.05        75.73941
252.51        76.79056
252.96        77.31879
253.42        77.42739
253.88        77.26508
254.33        76.90938
254.79        77.32864
255.25        79.05645
255.70        81.76812
256.16        84.90412
256.62        87.59357
257.07        88.86922
257.53        88.85932
257.99        87.78008
258.44        85.65124
258.90        83.49488
259.35        81.28249
259.81        79.75068
260.27        78.42419
260.72        76.87843
261.18        75.39321
261.63        73.56143
262.09        72.16235
262.55        71.66706
263.00        71.88554
263.46        72.67883
263.91        73.04732
264.37        72.22942
264.83        70.21317
265.28        67.35342
265.74        64.70474
266.19          63.194
266.65        63.03281
267.11        63.67641
267.56        64.43391
268.02        64.34247
268.47        63.19857
268.93        61.35975
269.38        59.21957
269.84        57.64491
270.30         56.8514
270.75        56.55443
271.21        56.43808
271.66        56.01025
272.12        55.12831
272.57        53.95454
273.03        52.65859
273.48        51.38763
273.94        50.29095
274.39        49.29178
274.85        48.41105
275.31        47.61361
275.76        46.84861
276.22        46.13813
276.67        45.48727
277.13        45.03845
277.58        44.70664
278.04        44.48702
278.49        44.11337
278.95        43.31999
279.40        42.05981
279.86        40.56496
280.31        39.06458
280.77        38.05366
281.22        37.53377
281.68         37.3858
282.13        37.37774
282.59        37.22522
283.04        36.83256
283.50         36.3401
283.95        35.78989
284.41        35.29833
284.86        34.87434
285.32        34.50613
285.77        34.20137
286.22        34.06113
286.68        34.08179
287.13        34.19781
287.59        34.32919
288.04        34.30983
288.50        34.13349
288.95        33.81281
289.41        33.43653
289.86        33.05941
290.32        32.76474
290.77        32.52867
291.22        32.38779
291.68         32.3587
292.13        32.44487
292.59         32.6726
293.04        33.03756
293.50        33.54921
293.95        34.18497
294.40        34.92154
294.86         35.7313
295.31        36.58507
295.77        37.46487
296.22        38.36329
296.68        39.24952
297.13        40.05827
297.58        40.78601
298.04         41.4579
298.49        42.12175
298.95        42.90192
299.40        43.80322
299.85        44.78674
300.31        45.80035
300.76        46.74403
301.21        47.59309
301.67        48.41096
302.12        49.16415
302.58        49.88842
303.03        50.56995
303.48        51.22768
303.94        51.95191
304.39        52.82837
304.84        53.86894
305.30         55.0203
305.75        56.12944
306.20        57.00145
306.66        57.61441
307.11        58.00274
307.57        58.28173
308.02        58.52933
308.47        58.81409
308.93        59.10515
309.38        59.40558
309.83        59.79329
310.29        60.26123
310.74        60.78815
311.19        61.24822
311.65        61.42868
312.10        61.28866
312.55        60.89988
313.00        60.45059
313.46        60.23417
313.91        60.29643
314.36        60.56425
314.82        60.86846
315.27        60.96238
315.72        60.76355
316.18         60.3751
316.63         59.8995
317.08         59.5148
317.53        59.26838
317.99        59.09182
318.44        58.93892
318.89        58.72292
319.35        58.41893
319.80         58.0701
320.25        57.70096
320.70        57.34616
321.16        57.01197
321.61          56.691
322.06        56.37546
322.51        56.06396
322.97        55.74282
323.42        55.42499
323.87        55.09206
324.32        54.72312
324.78        54.30471
325.23        53.86316
325.68        53.39943
326.13        52.93094
326.59        52.46742
327.04        52.03813
327.49        51.65061
327.94        51.32332
328.39        51.05466
328.85        50.81199
329.30        50.62951
329.75        50.48021
330.20         50.3491
330.66        50.20997
331.11        50.05833
331.56        49.82005
332.01        49.48079
332.46        49.05542
332.92        48.57408
333.37        48.12924
333.82         47.7484
334.27        47.43358
334.72        47.17599
335.17        46.95418
335.63        46.74794
336.08        46.58258
336.53        46.47062
336.98        46.45205
337.43        46.51831
337.88        46.64479
338.34        46.71648
338.79        46.60299
339.24        46.25977
339.69        45.72892
340.14        45.15913
340.59        44.80508
341.05         44.7233
341.50         44.8497
341.95        45.03914
342.40         45.0599
342.85        44.85581
343.30        44.51025
343.75         44.1137
344.20        43.81306
344.66        43.65081
345.11        43.55078
345.56        43.49844
346.01        43.47212
346.46        43.44492
346.91        43.43541
347.36        43.36317
347.81        43.09459
348.26        42.62736
348.72         42.0288
349.17          41.423
349.62        41.09003
350.07        41.09536
350.52        41.34611
350.97        41.69881
351.42        41.93534
351.87        41.98275
352.32        41.89148
352.77        41.69379
353.22        41.44584
353.67        41.17897
354.13        40.89339
354.58        40.57471
355.03        40.25283
355.48        39.94497
355.93        39.66493
356.38        39.44124
356.83        39.30685
357.28        39.25383
357.73        39.25392
358.18        39.25416
358.63         39.1711
359.08        38.98059
359.53        38.71136
359.98         38.3782
360.43        38.00344
360.88         37.6078
361.33        37.19143
361.78        36.80652
362.23        36.53901
362.68        36.40139
363.13        36.36396
363.58        36.35194
364.03        36.24599
364.48        36.00708
364.93        35.65547
365.38        35.23059
365.83        34.81004
366.28        34.42784
366.73        34.07372
367.18        33.72766
367.63        33.35526
368.08        32.95702
368.53        32.55816
368.98        32.20328
369.43        31.94798
369.88        31.79965
370.33        31.74035
370.78        31.70993
371.23        31.61319
371.68        31.42193
372.13        31.14746
372.58         30.8632
373.03        30.69827
373.48        30.67383
373.93        30.74291
374.38        30.79095
374.83        30.64352
375.28        30.26944
375.72        29.72188
376.17        29.14163
376.62        28.71491
377.07        28.50108
377.52        28.44424
377.97        28.46803
378.42        28.45125
378.87        28.35567
379.32        28.21983
379.77        28.07529
380.22        27.96351
380.67        27.89521
381.11        27.85357
381.56        27.80301
382.01        27.71544
382.46        27.57982
382.91         27.3971
383.36        27.20716
383.81        27.06695
384.26        26.98389
384.71        26.95181
385.15         26.8883
385.60        26.67611
386.05        26.30531
386.50        25.82386
386.95        25.37369
387.40         25.1773
387.85        25.26863
388.29        25.55525
388.74        25.88461
389.19        26.02119
389.64        25.91259
390.09        25.62206
390.54        25.25858
390.98        24.99097
391.43        24.88956
391.88        24.88826
392.33        24.90089
392.78         24.8057
393.23         24.5894
393.67        24.29028
394.12         24.0281
394.57        23.88234
395.02        23.86932
395.47        23.95377
395.91        24.07243
396.36        24.09185
396.81        23.98876
397.26          23.797
397.71        23.59862
398.15        23.49714
398.60        23.53825
399.05        23.66937
399.50        23.80233
399.95        23.81185
400.39        23.67382
400.84        23.42078
401.29        23.14935
401.74        23.03619
402.18         23.1309
402.63        23.36765
403.08        23.61373
403.53        23.65714
403.97        23.45562
404.42        23.09175
404.87        22.69988
405.32        22.50063
405.76        22.54432
406.21        22.75435
406.66         23.0168
407.11        23.15385
407.55        23.11924
408.00        22.97773
408.45         22.7867
408.90        22.58653
409.34        22.43819
409.79         22.4298
410.24        22.51284
410.68        22.52098
411.13        22.44157
411.58        22.36413
412.03        22.30321
412.47        22.25018
412.92        22.20719
413.37         22.1721
413.81        22.15225
414.26        22.17557
414.71        22.23588
415.15        22.33277
415.60        22.41175
416.05        22.41533
416.49         22.3282
416.94        22.17165
417.39         21.9931
417.83        21.86968
418.28        21.82831
418.73        21.84034
419.17         21.8707
419.62        21.85561
420.07        21.78403
420.51        21.67861
420.96        21.56895
421.41        21.47727
421.85        21.40593
422.30        21.35883
422.74        21.33184
423.19        21.35351
423.64        21.41274
424.08        21.51344
424.53        21.60013
424.98        21.61067
425.42        21.53705
425.87        21.40407
426.31        21.25234
426.76        21.15323
427.21         21.1122
427.65        21.09535
428.10        21.11521
428.54        21.16277
428.99         21.2311
429.44        21.41679
429.88        21.59243
430.33         21.4181
430.77        20.97561
431.22        20.69549
431.66        20.65246
432.11        20.73747
432.56        20.93043
433.00        21.28207
433.45        21.57958
433.89        21.58252
434.34        21.36925
434.78        20.98748
435.23        20.48815
435.67        21.29052
436.12        20.76538
436.57        20.72564
437.01        20.46101
437.46        20.38453
437.90        20.50725
438.35        20.63754
438.79        20.71939
439.24        20.76349
439.68        20.75581
440.13        20.53171
440.57        20.21898
441.02        20.34964
441.46        20.73824
441.91        20.74581
442.35        19.91251
442.80        19.65612
443.24        19.77732
443.69        19.83142
444.13        19.76935
444.58        19.73488
445.02        19.72758
445.47        19.75866
445.91        19.80412
446.36        19.78055
446.80        19.67634
447.24        19.54155
447.69        19.41016
448.13        19.29306
448.58        19.20919
449.02        19.15351
449.47        19.11572
449.91        19.06986
450.36        19.01558
450.80        18.95598
451.25        18.91194
451.69        18.89509
452.13        18.91227
452.58        18.95008
453.02        18.99072
453.47        19.01116
453.91        19.00523
454.36        18.97607
454.80        18.93127
455.24        18.88306
455.69        18.84409
456.13        18.79272
456.58        18.74384
457.02        18.70918
457.46        18.68815
457.91        18.63645
458.35        18.56239
458.79        18.52616
459.24        18.52571
459.68        18.54747
460.13        18.62221
460.57        18.62064
461.01        18.51731
461.46        18.83057
461.90        18.84288
462.34        18.60058
462.79        18.73112
463.23        18.59635
463.68        18.48808
464.12        18.39189
464.56        18.46301
465.01        18.56995
465.45        18.66921
465.89        18.71452
466.34        18.70065
466.78        18.58148
467.22        18.42028
467.67         18.4511
468.11        18.63517
468.55        18.60455
468.99        18.38964
469.44         18.3385
469.88        18.46393
470.32        18.57065
470.77        18.61594
471.21        18.62726
471.65         18.5955
472.10        18.51486
472.54        18.41737
472.98        18.39369
473.42        18.45646
473.87        18.52761
474.31        18.58235
474.75        18.69607
475.20         18.8207
475.64        18.76353
476.08        18.59175
476.52        18.57249
476.97        18.72201
477.41        18.91623
477.85        19.08512
478.29        19.17209
478.74         19.1583
479.18        19.03072
479.62        18.88183
480.06        18.85881
480.50        18.96612
480.95        19.07633
481.39        19.13973
481.83        19.17012
482.27        19.15539
482.72        19.08754
483.16        19.01769
483.60        19.01214
484.04        19.08047
484.48        19.31149
484.93         19.6919
485.37        19.73812
485.81        19.69122
486.25        20.12637
486.69        20.90533
487.14        20.41132
487.58        20.13095
488.02         20.9211
488.46        20.34148
488.90        20.43728
489.34        20.33702
489.79        20.44514
490.23        20.68803
490.67        20.83772
491.11        20.88705
491.55        20.87707
491.99        20.84231
492.43        20.84565
492.88        20.90644
493.32        20.97446
493.76        21.06003
494.20        21.20444
494.64        21.40909
495.08        21.66153
495.52        21.92551
495.96        22.14964
496.41        22.32858
496.85        22.45468
497.29        22.55546
497.73        22.76121
498.17         23.0457
498.61        23.17877
499.05        23.17677
499.49         23.2964
499.93        23.55357
500.37        23.74633
500.82        23.87451
501.26        24.13313
501.70        24.46128
502.14        24.53361
502.58        24.39013
503.02        24.37287
503.46        24.50694
503.90        24.61192
504.34        24.66284
504.78        24.70183
505.22        24.72539
505.66        24.73039
506.10        24.73857
506.54        24.78003
506.98        24.86405
507.42        24.98626
507.86        25.13003
508.30        25.26677
508.74        25.38456
509.18        25.48316
509.62        25.57722
510.06        25.69126
510.50        25.82837
510.94        25.98241
511.38        26.11363
511.82         26.1595
512.26        26.11103
512.70        25.98803
513.14        25.85936
513.58        25.82873
514.02        25.91197
514.46        26.08305
514.90        26.26907
515.34        26.28694
515.78        26.15441
516.22         25.9719
516.66        25.84026
517.10        25.58664
517.54        25.23792
517.98        25.83422
518.42        25.77932
518.86        26.04455
519.30        26.13467
519.74        26.21218
520.18         26.2614
520.62        26.23701
521.06        26.15724
521.50        26.02074
521.93        25.85742
522.37        25.72627
522.81         25.6445
523.25        25.60308
523.69         25.5913
524.13        25.58837
524.57        25.58256
525.01        25.57467
525.45        25.56065
525.89        25.53343
526.32        25.48953
526.76        25.43204
527.20        25.35122
527.64        25.23847
528.08         25.0966
528.52        24.92855
528.96        24.76764
529.40        24.66223
529.83         24.6188
530.27        24.63128
530.71         24.6469
531.15        24.58296
531.59        24.42765
532.03        24.20989
532.46        23.99406
532.90        23.89964
533.34        23.94047
533.78        24.07296
534.22        24.22894
534.66         24.3049
535.09        24.26853
535.53        24.15924
535.97        24.01051
536.41         23.8721
536.85        23.76612
537.28        23.69267
537.72        23.65561
538.16        23.58875
538.60        23.60567
539.04         23.6087
539.47        23.62663
539.91        23.71098
540.35        23.87346
540.79        23.89266
541.22        24.05756
541.66        24.16866
542.10        24.33048
542.54        24.16147
542.97        24.31872
543.41        24.37999
543.85        24.52788
544.29        24.69082
544.72         24.8352
545.16        24.98117
545.60        25.11556
546.04        25.15941
546.47         25.1847
546.91        25.46223
547.35        25.92724
547.79        26.24597
548.22        26.37776
548.66        26.44104
549.10          26.488
549.53        26.69642
549.97        27.07491
550.41        27.14354
550.84         27.3996
551.28        27.57305
551.72        27.82832
552.15        28.09122
552.59        28.35892
553.03        28.63586
553.46        28.87983
553.90         29.0582
554.34        29.16406
554.77        29.21103
555.21        29.24239
555.65        29.31414
556.08        29.43615
556.52        29.58718
556.96        29.74815
557.39        29.92604
557.83        30.10118
558.27         30.2037
558.70        30.23766
559.14        30.27272
559.57        30.30794
560.01        30.34046
560.45        30.36908
560.88        30.36215
561.32        30.38046
561.75        30.48075
562.19         30.7526
562.63        30.91163
563.06         30.9728
563.50         31.0265
563.93        31.08222
564.37         31.2176
564.80        31.29362
565.24         31.4234
565.68        31.54318
566.11        31.66485
566.55        31.80582
566.98        31.90554
567.42         31.9425
567.85        32.28516
568.29        32.10624
568.72        32.40036
569.16        32.84246
569.60         33.1506
570.03        33.28725
570.47        33.40965
570.90        33.38677
571.34        33.87115
571.77        33.78045
572.21        34.09879
572.64        34.49913
573.08        34.52386
573.51        34.57078
573.95        35.17083
574.38         35.4541
574.82        35.72522
