SpectraSmart Spectrum 2.9.0.0
--------- Device Information -----------
Spectrum Name :  反射率_0
Saving Time :  2024/04/20 00:43:21
Spectro-Module Model Name : SE2030-DUVN
Spectro-Module Serial Number : OS361AC55029948
Wavelength Start : 200
Wavelength End : 1025
Wavelength Unit : Wavelength(nm)
Spectrum Unit : Reflectance(%)
-----------Spectrum Setting ------------
Integration Time : 30ms
Average : 10
Boxcar : 0
Background removal :  enabled
linearity correction :  enabled
SC :  disabled
Intensity correction :  disabled
DWT denoise :  enabled
savitzky-golay :  disabled
FFT :  disabled
Running average :  disabled
Kalman :  disabled
High pass :  disabled
---------------BEGIN--------------------
Wavelength(nm)             Reflectance(%)
200.29               0
200.75        58.77065
201.21        60.06454
201.67        63.55178
202.13        68.82696
202.58        75.35498
203.04        83.44919
203.50        90.61113
203.96        90.99993
204.42        84.98746
204.88        76.64052
205.34        69.35446
205.80        64.41737
206.26        60.91522
206.72        57.66125
207.18        54.51971
207.64        52.96976
208.10        54.53117
208.55        58.85657
209.01        62.93525
209.47         65.0399
209.93        65.23366
210.39        64.10253
210.85         62.1416
211.31        59.77497
211.77        56.91286
212.23         53.0663
212.69        48.50666
213.14        45.91057
213.60        46.44807
214.06        49.19626
214.52         52.2691
214.98        54.72673
215.44         56.7254
215.90        58.37753
216.36        60.16512
216.81        62.63015
217.27        65.43703
217.73         68.4083
218.19         69.8778
218.65        67.60159
219.11        61.34407
219.57        51.26993
220.02        40.21362
220.48        35.71266
220.94        40.22787
221.40        52.17689
221.86         66.0353
222.32        73.28271
222.77        72.01632
223.23        65.22108
223.69        57.13435
224.15        53.87844
224.61        55.97501
225.06        60.36728
225.52        64.65017
225.98         66.9483
226.44        67.17566
226.90        66.25894
227.36        64.73958
227.81        63.34166
228.27        62.69577
228.73        62.39949
229.19        62.30143
229.65        62.25602
230.10        62.19594
230.56        62.29859
231.02        62.56284
231.48        63.03135
231.93        63.60693
232.39        64.19668
232.85          64.694
233.31        64.99436
233.77        65.04468
234.22        64.91367
234.68        64.44049
235.14        63.28457
235.60        61.52832
236.05        59.38543
236.51        57.45248
236.97        56.56137
237.43         56.9723
237.88        58.87069
238.34        61.84027
238.80        64.57196
239.26        65.85368
239.71        65.59459
240.17        64.28118
240.63        63.46476
241.08        63.66063
241.54        64.47403
242.00        65.01155
242.46        63.50918
242.91        59.00015
243.37        50.44203
243.83        38.63256
244.28        31.62353
244.74        37.26342
245.20         53.8471
245.66        69.98574
246.11        76.08324
246.57        71.37514
247.03        56.33496
247.48        34.47929
247.94        26.63175
248.40        36.77248
248.85        50.63176
249.31        60.79616
249.77        65.38531
250.22        65.82065
250.68        63.85847
251.14        60.42287
251.59        57.44001
252.05        56.42508
252.51        57.02496
252.96        58.40488
253.42        59.29319
253.88        59.37157
254.33        59.22013
254.79        60.39592
255.25        64.13798
255.70        69.90199
256.16        76.41483
256.62        81.87146
257.07        84.33875
257.53        84.00407
257.99        81.65954
258.44        78.08118
258.90        75.16423
259.35        72.93121
259.81        71.63346
260.27        70.47211
260.72        68.73567
261.18        66.70963
261.63        64.21309
262.09        62.17917
262.55        61.33403
263.00        61.54751
263.46        62.52866
263.91         63.2155
264.37        62.71616
264.83        61.00618
265.28         58.4688
265.74        56.14268
266.19        54.97486
266.65        55.15056
267.11        56.11975
267.56         57.1749
268.02        57.32606
268.47         56.3754
268.93        54.67518
269.38        52.65471
269.84        51.23094
270.30        50.63063
270.75        50.57768
271.21        50.67678
271.66        50.32514
272.12        49.37606
272.57        48.02851
273.03         46.6152
273.48        45.54078
273.94        44.96571
274.39        44.70552
274.85        44.53577
275.31        44.08549
275.76        43.26024
276.22        42.21074
276.67        41.15238
277.13        40.52566
277.58        40.32001
278.04        40.42293
278.49        40.45167
278.95        39.96348
279.40          38.873
279.86        37.46714
280.31        36.03846
280.77        35.15676
281.22        34.83619
281.68        34.90997
282.13        35.09615
282.59        35.03835
283.04        34.63112
283.50        34.04523
283.95        33.36474
284.41        32.75965
284.86        32.25468
285.32        31.81563
285.77        31.44369
286.22        31.22519
286.68        31.15417
287.13        31.18798
287.59         31.2291
288.04        31.08796
288.50        30.75737
288.95        30.25457
289.41        29.72072
289.86        29.29858
290.32        29.07643
290.77        28.99749
291.22        29.00407
291.68        28.97323
292.13        28.88278
292.59        28.79414
293.04        28.79288
293.50        29.02844
293.95        29.50726
294.40        30.15687
294.86        30.86688
295.31        31.47624
295.77        31.94592
296.22        32.33453
296.68        32.68447
297.13         33.0454
297.58        33.45438
298.04        33.88953
298.49        34.40001
298.95         35.1068
299.40         35.9883
299.85        36.99836
300.31        37.98419
300.76         38.6997
301.21        39.10732
301.67        39.32178
302.12        39.44773
302.58        39.71401
303.03         40.1496
303.48         40.6984
303.94        41.35413
304.39        42.06042
304.84           42.79
305.30        43.54779
305.75        44.22374
306.20        44.67577
306.66        44.90641
307.11        44.93665
307.57        44.90471
308.02        44.94444
308.47        45.11824
308.93        45.37905
309.38        45.66812
309.83        45.94927
310.29        46.19217
310.74         46.4095
311.19        46.54659
311.65        46.51128
312.10        46.29212
312.55        45.91809
313.00        45.50568
313.46        45.23608
313.91        45.13338
314.36        45.16851
314.82        45.23276
315.27        45.17145
315.72        44.93546
316.18        44.58999
316.63        44.21747
317.08        43.95652
317.53        43.83422
317.99        43.79169
318.44        43.76205
318.89        43.62784
319.35        43.35678
319.80        42.99067
320.25        42.57859
320.70        42.19912
321.16        41.87362
321.61        41.58582
322.06        41.30967
322.51        41.00849
322.97        40.66492
323.42        40.30296
323.87        39.93518
324.32        39.58546
324.78        39.25388
325.23        38.94498
325.68        38.63197
326.13        38.28073
326.59        37.88717
327.04        37.48998
327.49        37.12132
327.94        36.83649
328.39        36.64636
328.85        36.51136
329.30        36.44458
329.75        36.40818
330.20        36.37753
330.66        36.33252
331.11        36.25904
331.56        36.07724
332.01        35.77279
332.46        35.36152
332.92        34.89161
333.37        34.46835
333.82        34.13157
334.27         33.8812
334.72        33.69501
335.17        33.52757
335.63        33.35204
336.08        33.18505
336.53        33.06347
336.98        33.05881
337.43        33.17338
337.88        33.38748
338.34        33.54526
338.79        33.44485
339.24        33.03578
339.69        32.37541
340.14        31.71246
340.59         31.4656
341.05        31.70952
341.50        32.31696
341.95        32.98283
342.40        33.23481
342.85        32.96894
343.30        32.34372
343.75        31.59255
344.20        31.09945
344.66        30.97205
345.11        31.05885
345.56          31.248
346.01        31.36079
346.46        31.32581
346.91        31.22373
347.36        31.02277
347.81        30.65541
348.26        30.14662
348.72        29.54313
349.17        28.96674
349.62        28.70311
350.07        28.81293
350.52        29.20221
350.97        29.71438
351.42        30.10958
351.87        30.30589
352.32        30.35094
352.77        30.26959
353.22        30.11157
353.67        29.90405
354.13         29.6427
354.58        29.32689
355.03        29.00215
355.48        28.69554
355.93        28.43124
356.38        28.22348
356.83         28.0791
357.28        27.99174
357.73        27.94023
358.18        27.92541
358.63        27.94924
359.08        27.99183
359.53        28.04275
359.98        28.02123
360.43         27.8087
360.88        27.39942
361.33        26.83884
361.78         26.2595
362.23        25.88147
362.68        25.75438
363.13        25.80475
363.58        25.91579
364.03          25.901
364.48        25.70536
364.93        25.38771
365.38         24.9894
365.83        24.58529
366.28        24.21642
366.73        23.85918
367.18        23.54469
367.63        23.32424
368.08        23.19724
368.53        23.15369
368.98        23.13161
369.43        23.02418
369.88         22.8113
370.33        22.52796
370.78        22.22462
371.23        21.99383
371.68        21.86768
372.13        21.81166
372.58        21.82225
373.03        21.89211
373.48         21.9976
373.93        22.13247
374.38        22.23125
374.83        22.19502
375.28        22.00795
375.72        21.68557
376.17        21.32657
376.62        21.05521
377.07        20.91302
377.52        20.87061
377.97        20.87601
378.42        20.84344
378.87        20.74943
379.32        20.62131
379.77        20.49607
380.22        20.42447
380.67        20.41506
381.11        20.45012
381.56        20.47498
382.01        20.42222
382.46        20.27414
382.91        20.04659
383.36        19.80501
383.81        19.64638
384.26        19.59024
384.71        19.61845
385.15         19.6407
385.60        19.52309
386.05        19.24686
386.50         18.8581
386.95        18.49186
387.40        18.35866
387.85        18.48942
388.29        18.80076
388.74        19.13168
389.19        19.24983
389.64        19.11001
390.09        18.78077
390.54        18.39636
390.98        18.16581
391.43        18.15831
391.88        18.29266
392.33        18.44911
392.78         18.4567
393.23        18.29273
393.67        18.01637
394.12         17.7585
394.57        17.63484
395.02        17.66896
395.47        17.81329
395.91         17.9972
396.36        18.07869
396.81        18.02457
397.26        17.87559
397.71        17.70291
398.15        17.59687
398.60        17.60116
399.05        17.67384
399.50        17.75658
399.95        17.76785
400.39        17.69025
400.84        17.54689
401.29        17.40294
401.74        17.37532
402.18        17.49401
402.63        17.70862
403.08        17.91825
403.53        17.96318
403.97        17.81304
404.42        17.53135
404.87        17.22584
405.32        17.07428
405.76        17.11864
406.21        17.29988
406.66        17.52749
407.11        17.65891
407.55        17.65689
408.00        17.57089
408.45         17.4477
408.90        17.32315
409.34        17.24069
409.79        17.26201
410.24        17.34287
410.68          17.345
411.13        17.26018
411.58        17.16916
412.03        17.08617
412.47        17.00995
412.92        16.94896
413.37        16.89762
413.81        16.88579
414.26        16.97349
414.71        17.15497
415.15        17.41662
415.60        17.65615
416.05        17.73267
416.49        17.61041
416.94        17.33476
417.39        17.00715
417.83        16.79481
418.28        16.74946
418.73        16.81808
419.17        16.92804
419.62        16.95264
420.07        16.86639
420.51         16.7163
420.96        16.55721
421.41        16.45079
421.85        16.41126
422.30        16.42463
422.74         16.4694
423.19        16.54662
423.64        16.63903
424.08        16.75273
424.53        16.85142
424.98         16.8989
425.42        16.88816
425.87        16.83302
426.31        16.74146
426.76         16.6367
427.21        16.52154
427.65        16.38535
428.10        16.28128
428.54        16.27227
428.99        16.36857
429.44        16.61816
429.88        16.88562
430.33         16.8478
430.77        16.55144
431.22        16.35304
431.66        16.31985
432.11        16.36759
432.56        16.48272
433.00        16.72823
433.45        16.93995
433.89        16.87733
434.34        16.64735
434.78        16.43501
435.23        16.20578
435.67        16.97687
436.12        16.38782
436.57        16.29704
437.01        16.08807
437.46        16.02241
437.90        16.11635
438.35        16.26553
438.79        16.40675
439.24        16.48985
439.68        16.49368
440.13        16.30113
440.57        16.03072
441.02        16.12975
441.46        16.45591
441.91        16.49109
442.35        15.84869
442.80        15.63433
443.24        15.68503
443.69        15.65794
444.13        15.53102
444.58        15.44585
445.02        15.40954
445.47        15.42417
445.91        15.46008
446.36        15.43465
446.80        15.33378
447.24        15.20296
447.69        15.07663
448.13        14.97272
448.58          14.909
449.02        14.87721
449.47        14.86322
449.91        14.83768
450.36        14.79834
450.80        14.74995
451.25        14.71544
451.69        14.71328
452.13        14.74992
452.58        14.80827
453.02        14.86858
453.47         14.9013
453.91        14.90038
454.36        14.87376
454.80        14.82847
455.24        14.77734
455.69        14.73333
456.13        14.67737
456.58        14.63197
457.02        14.62159
457.46        14.64654
457.91        14.66782
458.35         14.6712
458.79        14.66964
459.24        14.65813
459.68        14.63554
460.13        14.65606
460.57         14.6627
461.01        14.64368
461.46        14.99114
461.90        15.10681
462.34        14.97401
462.79        15.08716
463.23        14.94861
463.68        14.81556
464.12        14.71266
464.56        14.77647
465.01        14.88649
465.45        14.99987
465.89        15.06794
466.34        15.08299
466.78        15.01548
467.22        14.90972
467.67        14.94305
468.11        15.08288
468.55        15.03203
468.99         14.8349
469.44        14.80457
469.88        14.95621
470.32        15.12174
470.77         15.2366
471.21        15.27773
471.65        15.22837
472.10          15.101
472.54        14.94877
472.98        14.89143
473.42        14.95195
473.87        15.05096
474.31        15.15278
474.75        15.29407
475.20        15.42739
475.64        15.40248
476.08        15.27548
476.52        15.26732
476.97         15.3936
477.41        15.55151
477.85        15.68656
478.29        15.75944
478.74        15.75611
479.18        15.66226
479.62        15.55335
480.06        15.55061
480.50        15.65481
480.95        15.75884
481.39        15.81566
481.83         15.8279
482.27        15.79046
482.72        15.70404
483.16        15.61353
483.60         15.6107
484.04         15.7147
484.48         15.8978
484.93        16.17102
485.37        16.37812
485.81        16.50348
486.25         16.7475
486.69        17.27961
487.14         16.5656
487.58        16.45075
488.02        17.21916
488.46        16.94287
488.90        17.10364
489.34        16.94521
489.79        17.11065
490.23        17.50937
490.67        17.67423
491.11        17.60421
491.55        17.51748
491.99        17.46169
492.43        17.42611
492.88        17.43662
493.32         17.4817
493.76        17.57337
494.20         17.7375
494.64        17.97079
495.08        18.25758
495.52        18.54627
495.96        18.77313
496.41        18.92253
496.85        18.97074
497.29        18.97354
497.73        19.11443
498.17        19.38504
498.61        19.56723
499.05        19.64223
499.49        19.77873
499.93        19.97849
500.37        20.08727
500.82        20.13882
501.26        20.35068
501.70        20.68187
502.14        20.83626
502.58        20.81629
503.02        20.86778
503.46        20.99959
503.90        21.07212
504.34        21.07549
504.78        21.06425
505.22        21.04513
505.66        21.01112
506.10        20.98654
506.54        21.00681
506.98        21.08146
507.42        21.20646
507.86         21.3598
508.30        21.50203
508.74        21.61718
509.18        21.70607
509.62        21.78471
510.06        21.88088
510.50        21.99991
510.94        22.13637
511.38        22.25137
511.82        22.28378
512.26        22.22617
512.70        22.09853
513.14        21.97393
513.58        21.96295
514.02        22.07999
514.46        22.29296
514.90        22.51809
515.34        22.55984
515.78        22.42142
516.22        22.22151
516.66        22.06552
517.10        21.77784
517.54        21.39077
517.98        21.99904
518.42        21.92892
518.86        22.20866
519.30        22.31758
519.74        22.42282
520.18        22.50373
520.62        22.50546
521.06        22.44373
521.50        22.31917
521.93        22.15766
522.37        22.01265
522.81        21.90377
523.25        21.82608
523.69        21.78417
524.13        21.78072
524.57          21.808
525.01        21.85895
525.45        21.91434
525.89        21.94215
526.32        21.93059
526.76        21.88836
527.20        21.81174
527.64        21.70241
528.08        21.56747
528.52        21.40718
528.96         21.2541
529.40        21.15605
529.83        21.12049
530.27        21.14244
530.71        21.17234
531.15        21.13095
531.59        21.00507
532.03        20.81922
532.46        20.63268
532.90        20.55636
533.34         20.6019
533.78        20.72907
534.22        20.86973
534.66        20.91994
535.09        20.85221
535.53        20.70975
535.97        20.53565
536.41        20.39515
536.85        20.31228
537.28        20.27675
537.72        20.28728
538.16        20.27872
538.60        20.34174
539.04        20.39443
539.47        20.44583
539.91        20.51618
540.35        20.61612
540.79        20.56476
541.22          20.641
541.66        20.71967
542.10         20.9002
542.54         20.8381
542.97        21.07444
543.41        21.20518
543.85        21.37441
544.29        21.53143
544.72        21.65341
545.16        21.76843
545.60        21.87121
546.04        21.88939
546.47        21.89188
546.91         22.1263
547.35        22.53773
547.79        22.83274
548.22        22.96918
548.66        23.03718
549.10        23.07942
549.53        23.25558
549.97        23.57203
550.41        23.60855
550.84        23.80017
551.28        23.91311
551.72        24.10339
552.15        24.32865
552.59         24.5884
553.03        24.87848
553.46        25.14223
553.90        25.31977
554.34        25.39864
554.77        25.39946
555.21        25.37686
555.65        25.40559
556.08        25.50349
556.52        25.64848
556.96        25.81129
557.39        25.97886
557.83        26.12925
558.27        26.20448
558.70        26.22795
559.14        26.28863
559.57        26.38674
560.01        26.51079
560.45        26.62072
560.88        26.62282
561.32        26.56731
561.75        26.54119
562.19        26.66477
562.63        26.74486
563.06         26.8094
563.50        26.92108
563.93         27.0564
564.37        27.22763
564.80        27.29929
565.24         27.3912
565.68         27.4593
566.11        27.53062
566.55        27.62862
566.98        27.69168
567.42         27.7125
567.85        28.03091
568.29        27.92416
568.72        28.24849
569.16        28.70435
569.60         28.9844
570.03        29.04022
570.47        29.10937
570.90        29.10498
571.34        29.31878
571.77         29.2172
572.21        29.60748
572.64        29.75397
573.08        29.93001
573.51        30.02044
573.95        30.72589
574.38        30.79349
574.82        31.03102
