SpectraSmart Spectrum 2.9.0.0
--------- Device Information -----------
Spectrum Name :  反射率_0
Saving Time :  2024/04/20 00:03:15
Spectro-Module Model Name : SE2030-DUVN
Spectro-Module Serial Number : OS361AC55029948
Wavelength Start : 200
Wavelength End : 1025
Wavelength Unit : Wavelength(nm)
Spectrum Unit : Reflectance(%)
-----------Spectrum Setting ------------
Integration Time : 30ms
Average : 10
Boxcar : 0
Background removal :  enabled
linearity correction :  enabled
SC :  disabled
Intensity correction :  disabled
DWT denoise :  enabled
savitzky-golay :  disabled
FFT :  disabled
Running average :  disabled
Kalman :  disabled
High pass :  disabled
---------------BEGIN--------------------
Wavelength(nm)             Reflectance(%)
200.29               0
200.75        63.53261
201.21        63.04092
201.67        64.24786
202.13        67.68729
202.58        73.45998
203.04        81.83635
203.50        89.94441
203.96        90.81783
204.42        84.55115
204.88        75.77903
205.34        68.36048
205.80        64.01385
206.26        61.94998
206.72        61.09744
207.18        61.63979
207.64        63.85195
208.10        67.11481
208.55        71.22556
209.01        73.59001
209.47        73.14053
209.93        70.54888
210.39        66.45389
210.85        62.54932
211.31        60.76247
211.77        61.26303
212.23        63.81345
212.69        67.59228
213.14        69.17896
213.60        66.93988
214.06        63.66666
214.52        61.20593
214.98        60.54126
215.44        61.39896
215.90        63.03753
216.36        65.57036
216.81        68.86308
217.27        72.14867
217.73        75.44784
218.19        77.31137
218.65        75.77114
219.11        70.65341
219.57        62.02984
220.02        52.13155
220.48        47.30997
220.94        49.70951
221.40         58.1342
221.86        68.48535
222.32        74.32359
222.77        74.04631
223.23        69.84449
223.69        64.62566
224.15        62.56201
224.61        64.05881
225.06        67.09259
225.52        69.99115
225.98        71.44003
226.44        71.43619
226.90        70.63734
227.36        69.69444
227.81        69.51156
228.27        70.48939
228.73        71.92534
229.19        73.19584
229.65        73.64909
230.10        73.23246
230.56         72.4415
231.02        71.51218
231.48         70.7642
231.93          70.219
232.39        69.79711
232.85        69.45149
233.31        69.18864
233.77        68.99057
234.22        68.88784
234.68        68.77942
235.14        68.38818
235.60        67.70045
236.05        66.81498
236.51        66.01272
236.97          65.708
237.43        66.04616
237.88        67.21914
238.34        68.87888
238.80        70.38949
239.26        71.12321
239.71        71.05621
240.17        70.50669
240.63        70.63664
241.08         71.7958
241.54        73.61266
242.00        75.34403
242.46        75.52042
242.91        73.47131
243.37        68.61945
243.83        61.41924
244.28         56.8495
244.74        59.58898
245.20        68.50229
245.66        77.24123
246.11        80.34217
246.57        77.08786
247.03        67.98061
247.48        54.21005
247.94        47.05475
248.40         50.1893
248.85        56.28141
249.31        61.33855
249.77        64.42278
250.22        66.12241
250.68        67.45029
251.14         68.5176
251.59        68.97694
252.05         68.9324
252.51        68.47193
252.96        68.02023
253.42        68.69704
253.88         70.7224
254.33        73.47474
254.79        77.12811
255.25        81.64114
255.70        86.52029
256.16        91.21545
256.62        94.99343
257.07         97.0415
257.53        97.57436
257.99        96.91175
258.44        94.71011
258.90         91.6746
259.35        88.15347
259.81         85.3713
260.27        83.33688
260.72        82.03529
261.18        81.58028
261.63        81.20751
262.09        81.25177
262.55        81.52216
263.00        81.73208
263.46        82.07581
263.91        81.83527
264.37        80.62386
264.83        78.47621
265.28        75.63186
265.74        73.05647
266.19        71.52681
266.65        71.25529
267.11        71.73547
267.56        72.38168
268.02        72.39154
268.47        71.55154
268.93        70.15413
269.38        68.41129
269.84        66.88454
270.30        65.74197
270.75        64.83928
271.21        64.07285
271.66        63.24781
272.12        62.30772
272.57        61.31002
273.03        60.37344
273.48        59.55215
273.94        58.91922
274.39        58.37904
274.85        57.86016
275.31        57.17902
275.76        56.27099
276.22        55.22335
276.67        54.12942
277.13        53.29453
277.58        52.68437
278.04         52.2806
278.49        51.80687
278.95        50.99849
279.40        49.77768
279.86         48.3758
280.31        46.97888
280.77         46.0436
281.22        45.54234
281.68        45.36856
282.13        45.27153
282.59        44.96413
283.04        44.35921
283.50        43.62624
283.95        42.84084
284.41        42.18349
284.86        41.66953
285.32        41.27333
285.77        40.98978
286.22        40.90514
286.68        41.00256
287.13        41.20844
287.59        41.41104
288.04        41.38363
288.50        41.12017
288.95        40.64282
289.41        40.09568
289.86         39.6183
290.32        39.31494
290.77        39.13172
291.22         39.0547
291.68        39.02295
292.13        39.02021
292.59        39.10598
293.04        39.31453
293.50        39.72061
293.95        40.31615
294.40        41.05874
294.86        41.89706
295.31        42.76314
295.77        43.63181
296.22        44.51551
296.68        45.39904
297.13        46.23957
297.58        47.04062
298.04        47.81615
298.49        48.61119
298.95        49.55213
299.40        50.63119
299.85        51.79827
300.31        52.97924
300.76         54.0371
301.21        54.93867
301.67        55.75763
302.12        56.46841
302.58        57.13355
303.03        57.74743
303.48        58.33859
303.94        59.00066
304.39        59.81548
304.84        60.80196
305.30        61.91125
305.75        63.00906
306.20        63.93262
306.66        64.65885
307.11        65.20113
307.57        65.63293
308.02        65.95924
308.47        66.23996
308.93        66.47076
309.38        66.69121
309.83        67.04543
310.29        67.54343
310.74        68.13678
311.19        68.68237
311.65        68.93983
312.10        68.85054
312.55        68.49235
313.00        68.04459
313.46        67.78551
313.91        67.76069
314.36        67.90469
314.82        68.06301
315.27         68.0184
315.72        67.70452
316.18        67.23006
316.63        66.70115
317.08        66.30035
317.53        66.07278
317.99        65.94437
318.44        65.86152
318.89        65.72381
319.35        65.49196
319.80        65.19935
320.25        64.85594
320.70         64.4791
321.16        64.07171
321.61        63.63749
322.06        63.17231
322.51        62.68385
322.97         62.1698
323.42        61.64816
323.87        61.13392
324.32         60.6572
324.78        60.21082
325.23        59.81214
325.68        59.40874
326.13        58.92587
326.59        58.35054
327.04        57.74138
327.49        57.15565
327.94        56.69857
328.39        56.39049
328.85        56.16344
329.30        56.02946
329.75        55.91254
330.20        55.77733
330.66        55.61892
331.11        55.41965
331.56        55.07734
332.01        54.58238
332.46        53.95508
332.92        53.28584
333.37        52.77922
333.82        52.48733
334.27        52.38646
334.72        52.38673
335.17         52.3225
335.63         52.1236
336.08        51.84662
336.53        51.56971
336.98        51.45133
337.43        51.51789
337.88        51.71292
338.34        51.85529
338.79        51.71192
339.24        51.21534
339.69        50.44311
340.14        49.62957
340.59        49.16705
341.05        49.14539
341.50        49.45736
341.95        49.85561
342.40        49.95329
342.85         49.6619
343.30        49.11239
343.75        48.49162
344.20        48.10439
344.66        48.02903
345.11        48.13117
345.56        48.30616
346.01        48.39122
346.46        48.32336
346.91        48.17397
347.36        47.92204
347.81        47.52009
348.26        46.99452
348.72        46.38455
349.17        45.80068
349.62        45.50275
350.07         45.5414
350.52        45.82692
350.97        46.21148
351.42        46.46594
351.87        46.51588
352.32        46.41793
352.77        46.19182
353.22        45.87838
353.67        45.51363
354.13        45.10299
354.58        44.68173
355.03        44.35766
355.48         44.1568
355.93        44.06943
356.38        44.04277
356.83        43.98164
357.28        43.84996
357.73         43.6517
358.18        43.42001
358.63        43.21841
359.08        43.05641
359.53        42.91338
359.98        42.71555
360.43        42.34953
360.88        41.80937
361.33        41.14911
361.78        40.49274
362.23        40.03981
362.68        39.83815
363.13        39.81993
363.58        39.87609
364.03        39.83543
364.48        39.63959
364.93        39.32821
365.38        38.93764
365.83        38.53755
366.28        38.16154
366.73        37.79124
367.18        37.42446
367.63        37.06121
368.08        36.70486
368.53        36.36949
368.98        36.06915
369.43        35.81113
369.88         35.5943
370.33        35.41808
370.78        35.25409
371.23        35.05965
371.68        34.82675
372.13        34.55797
372.58        34.30776
373.03        34.17187
373.48        34.15847
373.93        34.22456
374.38        34.27491
374.83        34.16413
375.28        33.86301
375.72        33.41492
376.17        32.91684
376.62        32.48711
377.07        32.17735
377.52        31.95702
377.97        31.81771
378.42        31.74364
378.87        31.71242
379.32        31.72093
379.77        31.73424
380.22        31.69374
380.67        31.58639
381.11         31.4322
381.56        31.22869
382.01        31.00489
382.46          30.779
382.91        30.54086
383.36        30.33746
383.81        30.23626
384.26        30.23911
384.71        30.33175
385.15        30.41052
385.60        30.32659
386.05         30.0524
386.50        29.63434
386.95        29.20616
387.40        28.98196
387.85        29.00398
388.29        29.19386
388.74        29.42029
389.19        29.46831
389.64        29.29493
390.09        28.95807
390.54        28.58595
390.98        28.37296
391.43        28.38433
391.88        28.53684
392.33        28.69076
392.78        28.64804
393.23         28.3889
393.67        27.97924
394.12        27.59722
394.57        27.39376
395.02         27.4005
395.47        27.55968
395.91        27.78153
396.36        27.87771
396.81        27.80858
397.26        27.62938
397.71        27.43277
398.15        27.33608
398.60         27.3936
399.05        27.53597
399.50        27.68715
399.95        27.74375
400.39        27.68133
400.84         27.5297
401.29        27.34512
401.74        27.23027
402.18        27.22326
402.63        27.28682
403.08        27.35615
403.53        27.32063
403.97        27.15978
404.42         26.9256
404.87        26.70335
405.32         26.6324
405.76        26.73693
406.21        26.96553
406.66        27.22506
407.11        27.37097
407.55        27.36751
408.00        27.26275
408.45        27.11009
408.90        26.93527
409.34        26.79823
409.79        26.81783
410.24        26.92787
410.68         26.9114
411.13         26.7589
411.58        26.58676
412.03        26.44389
412.47        26.37567
412.92        26.39597
413.37        26.47981
413.81        26.60849
414.26        26.77223
414.71        26.94731
415.15        27.14228
415.60        27.28396
416.05        27.28917
416.49        27.14347
416.94        26.87524
417.39         26.5742
417.83        26.38663
418.28        26.35679
418.73        26.43938
419.17         26.5641
419.62         26.6096
420.07        26.55003
420.51        26.42898
420.96        26.29786
421.41        26.20817
421.85         26.1702
422.30        26.17738
422.74        26.21965
423.19        26.32696
423.64         26.4836
424.08        26.69513
424.53        26.89171
424.98         26.9889
425.42        26.96938
425.87        26.85877
426.31        26.70507
426.76        26.59405
427.21        26.53601
427.65        26.49627
428.10        26.49128
428.54        26.51247
428.99        26.55947
429.44        26.75685
429.88          26.962
430.33        26.77546
430.77        26.29161
431.22        26.03546
431.66        26.07745
432.11        26.22311
432.56        26.43024
433.00        26.83012
433.45        27.17715
433.89        27.03364
434.34        26.57077
434.78        26.21131
435.23        25.96579
435.67        26.89607
436.12        26.40347
436.57        26.33917
437.01        26.04603
437.46        25.98906
437.90        26.19322
438.35        26.41795
438.79         26.5635
439.24        26.62204
439.68        26.57399
440.13        26.21735
440.57        25.76153
441.02        25.95515
441.46        26.57212
441.91        26.76671
442.35        25.87097
442.80        25.62777
443.24        25.77438
443.69        25.75871
444.13         25.5677
444.58        25.46592
445.02        25.47639
445.47        25.58933
445.91        25.74515
446.36        25.78851
446.80        25.69027
447.24        25.53241
447.69        25.37357
448.13         25.2507
448.58        25.19245
449.02        25.18035
449.47        25.19021
449.91        25.17417
450.36        25.12635
450.80        25.05696
451.25        24.99627
451.69        24.96416
452.13        24.97344
452.58        25.01035
453.02        25.05357
453.47        25.08013
453.91        25.08254
454.36        25.06298
454.80        25.03476
455.24        25.01564
455.69        25.01863
456.13         25.0127
456.58        25.00136
457.02        24.97867
457.46        24.94145
457.91        24.83755
458.35        24.69852
458.79        24.64046
459.24        24.66548
459.68         24.7471
460.13        24.90045
460.57        24.91522
461.01        24.74896
461.46         25.1116
461.90        25.06863
462.34        24.72733
462.79        24.92994
463.23        24.81338
463.68        24.74393
464.12        24.66814
464.56         24.7808
465.01        24.92067
465.45        25.03619
465.89        25.07754
466.34        25.04244
466.78        24.86166
467.22        24.63065
467.67        24.67981
468.11         24.9602
468.55        24.97833
468.99        24.74677
469.44        24.68902
469.88         24.8157
470.32         24.8774
470.77        24.85903
471.21        24.86144
471.65        24.88558
472.10        24.89993
472.54        24.90548
472.98        24.94937
473.42        25.02921
473.87        25.07206
474.31        25.07556
474.75        25.17236
475.20        25.32065
475.64        25.28869
476.08        25.13633
476.52        25.14194
476.97        25.31804
477.41        25.53518
477.85        25.72156
478.29        25.82401
478.74        25.82584
479.18        25.70132
479.62        25.55514
480.06        25.55705
480.50        25.70697
480.95        25.84128
481.39        25.91108
481.83        25.96376
482.27        25.98832
482.72        25.96043
483.16        25.92278
483.60         25.9456
484.04        26.03704
484.48        26.28483
484.93        26.65771
485.37        26.80835
485.81        26.69316
486.25        27.35048
486.69        28.17197
487.14        27.95864
487.58        27.58374
488.02        27.94872
488.46        27.79089
488.90        27.88878
489.34         27.7781
489.79        27.91147
490.23        28.22377
490.67        28.44327
491.11        28.53054
491.55        28.48414
491.99        28.36566
492.43        28.36017
492.88        28.50055
493.32        28.67041
493.76        28.86772
494.20         29.1185
494.64         29.4091
495.08        29.79343
495.52          30.203
495.96        30.38596
496.41         30.4099
496.85        30.61247
497.29        30.98479
497.73        31.33587
498.17        31.60572
498.61          31.685
499.05        31.62952
499.49        31.74475
499.93        32.06237
500.37         32.3214
500.82        32.50248
501.26         32.8378
501.70        33.23956
502.14        33.27379
502.58        33.02108
503.02        32.98567
503.46        33.20773
503.90        33.42667
504.34        33.57975
504.78        33.67959
505.22        33.70792
505.66        33.67176
506.10        33.62038
506.54         33.6278
506.98        33.71651
507.42        33.87078
507.86        34.05587
508.30        34.21331
508.74        34.32423
509.18        34.40043
509.62        34.47326
510.06        34.59189
510.50        34.76439
510.94        34.97379
511.38        35.16565
511.82        35.25417
512.26        35.22425
512.70        35.10596
513.14        34.97471
513.58        34.94347
514.02        35.03221
514.46         35.2106
514.90         35.4147
515.34        35.46554
515.78        35.40479
516.22        35.29733
516.66        35.22039
517.10        34.98962
517.54        34.62543
517.98        35.04792
518.42        34.89593
518.86        35.07806
519.30        35.17256
519.74        35.30508
520.18        35.42744
520.62        35.44395
521.06        35.35627
521.50        35.18113
521.93        34.96948
522.37        34.81332
522.81        34.74001
523.25         34.7281
523.69        34.75285
524.13        34.77404
524.57        34.77394
525.01        34.75924
525.45        34.73583
525.89        34.71085
526.32        34.68422
526.76        34.65575
527.20        34.60168
527.64         34.4927
528.08          34.328
528.52        34.11594
528.96        33.91209
529.40        33.79854
529.83        33.78602
530.27        33.86017
530.71        33.93622
531.15        33.88231
531.59        33.67779
532.03        33.36837
532.46        33.05323
532.90        32.91092
533.34        32.96588
533.78        33.15361
534.22        33.37585
534.66        33.48187
535.09        33.42807
535.53        33.27742
535.97        33.07716
536.41        32.89733
536.85        32.76886
537.28          32.685
537.72        32.66329
538.16        32.63358
538.60        32.74966
539.04        32.86687
539.47         32.9836
539.91        33.11008
540.35        33.25552
540.79        33.13555
541.22        33.20649
541.66        33.27727
542.10        33.51341
542.54        33.36525
542.97        33.69703
543.41        33.85677
543.85        34.07573
544.29        34.26983
544.72        34.42297
545.16        34.61105
545.60        34.82696
546.04        34.94527
546.47         35.0263
546.91        35.40032
547.35        35.97287
547.79        36.25827
548.22        36.26238
548.66         36.3442
549.10        36.53501
549.53        36.81655
549.97        37.20447
550.41        37.25753
550.84        37.66047
551.28        37.91419
551.72        38.22372
552.15        38.50117
552.59        38.74286
553.03        39.01295
553.46        39.18553
553.90        39.35295
554.34        39.48337
554.77         39.5816
555.21        39.68007
555.65        39.81352
556.08        39.98294
556.52        40.17102
556.96        40.35541
557.39        40.55006
557.83        40.73483
558.27        40.81332
558.70         40.8062
559.14        40.83859
559.57        40.91251
560.01         41.0039
560.45        41.09242
560.88        41.12911
561.32        41.17445
561.75         41.2617
562.19        41.53553
562.63        41.69653
563.06        41.77478
563.50        41.84871
563.93        41.92102
564.37        42.09615
564.80         42.1813
565.24        42.33374
565.68        42.46433
566.11        42.58152
566.55        42.71226
566.98        42.78243
567.42        42.77605
567.85        43.20908
568.29        42.97423
568.72        43.38787
569.16        44.01429
569.60        44.44904
570.03        44.61283
570.47        44.81355
570.90        44.84938
571.34        45.35393
571.77        44.89641
572.21         45.6524
572.64        45.58156
573.08         46.0322
573.51        46.08413
573.95         46.5025
574.38        47.04467
574.82        47.40683
