SpectraSmart Spectrum 2.9.0.0
--------- Device Information -----------
Spectrum Name :  反射率_0
Saving Time :  2024/04/19 23:49:23
Spectro-Module Model Name : SE2030-DUVN
Spectro-Module Serial Number : OS361AC55029948
Wavelength Start : 200
Wavelength End : 1025
Wavelength Unit : Wavelength(nm)
Spectrum Unit : Reflectance(%)
-----------Spectrum Setting ------------
Integration Time : 30ms
Average : 10
Boxcar : 0
Background removal :  enabled
linearity correction :  enabled
SC :  disabled
Intensity correction :  disabled
DWT denoise :  enabled
savitzky-golay :  disabled
FFT :  disabled
Running average :  disabled
Kalman :  disabled
High pass :  disabled
---------------BEGIN--------------------
Wavelength(nm)             Reflectance(%)
200.29               0
200.75        56.20805
201.21        58.27142
201.67        62.40262
202.13        67.77689
202.58        73.62608
203.04        80.19864
203.50        85.59377
203.96        85.51192
204.42        80.48624
204.88        73.67136
205.34        67.67577
205.80        63.38229
206.26        59.97628
206.72        56.41713
207.18        52.52369
207.64         50.0712
208.10        51.07005
208.55        55.11511
209.01        59.18597
209.47        61.45584
209.93        61.89674
210.39        61.19772
210.85         59.5861
211.31        57.11492
211.77         53.6875
212.23         48.8229
212.69        43.27408
213.14         41.2374
213.60        43.90414
214.06        48.95589
214.52        53.74403
214.98        57.16215
215.44        59.55646
215.90        61.27206
216.36        62.55299
216.81        63.51437
217.27        63.99263
217.73        64.19052
218.19        63.20413
218.65        59.65675
219.11        53.37682
219.57        44.34201
220.02         34.9595
220.48        31.70281
220.94        36.46481
221.40        47.89021
221.86        60.52825
222.32         66.0728
222.77        62.87307
223.23        53.90935
223.69        44.04531
224.15        40.31601
224.61        43.08772
225.06        48.76029
225.52        54.16679
225.98        56.77558
226.44        56.50287
226.90        54.56567
227.36        51.78259
227.81        49.44949
228.27        48.44114
228.73        48.13432
229.19        48.31341
229.65        48.78197
230.10        49.33208
230.56        50.00286
231.02        50.63935
231.48        51.03486
231.93        51.12568
232.39        50.98856
232.85        50.56646
233.31        49.82983
233.77        48.81947
234.22        47.54696
234.68        46.26306
235.14         45.3118
235.60        44.84191
236.05        44.86102
236.51        45.16937
236.97        45.39447
237.43        45.48092
237.88        45.63375
238.34        46.06474
238.80        47.58035
239.26        50.29607
239.71        53.59042
240.17        56.60829
240.63        58.89745
241.08        60.43331
241.54        61.29709
242.00        61.07763
242.46        58.83178
242.91        53.91689
243.37        45.04654
243.83        32.68232
244.28        24.19904
244.74        27.44091
245.20        41.77176
245.66        56.70367
246.11        62.64735
246.57        58.78407
247.03        45.93608
247.48        27.56164
247.94        22.41399
248.40        33.05518
248.85        46.28364
249.31         55.9376
249.77        60.97668
250.22        62.76635
250.68        62.85815
251.14        61.74665
251.59        60.04037
252.05        58.46487
252.51        56.96126
252.96         55.3054
253.42        53.54286
253.88        51.98453
254.33        50.92239
254.79        51.68197
255.25        55.21922
255.70        60.77796
256.16         67.0603
256.62        72.08891
257.07        73.67379
257.53        72.09283
257.99        68.44404
258.44        63.79382
258.90        60.33765
259.35        58.14831
259.81        57.06599
260.27         56.3084
260.72        55.21931
261.18         53.9287
261.63        52.25147
262.09        50.83362
262.55        50.05274
263.00        49.84173
263.46        50.12284
263.91        50.15203
264.37        49.30211
264.83        47.60254
265.28        45.32064
265.74        43.38521
266.19        42.67487
266.65        43.28691
267.11        44.68698
267.56        46.13997
268.02         46.5871
268.47         45.8425
268.93        44.27931
269.38         42.3239
269.84        40.89883
270.30        40.25068
270.75        40.10803
271.21        40.17416
271.66        40.00098
272.12        39.44746
272.57        38.67171
273.03        37.83257
273.48        37.06688
273.94        36.47995
274.39        35.98793
274.85        35.53941
275.31        35.03433
275.76        34.42875
276.22        33.76686
276.67        33.13241
277.13        32.75172
277.58        32.58294
278.04        32.58887
278.49        32.48965
278.95        31.96103
279.40        30.95391
279.86        29.68685
280.31        28.42106
280.77        27.66318
281.22        27.42253
281.68        27.55333
282.13         27.7821
282.59        27.74047
283.04        27.34044
283.50        26.75163
283.95        26.09837
284.41        25.59344
284.86        25.27408
285.32        25.08193
285.77        24.98338
286.22        25.00211
286.68        25.10312
287.13        25.25117
287.59        25.36868
288.04        25.31229
288.50        25.08117
288.95        24.69538
289.41        24.24581
289.86        23.80278
290.32        23.45263
290.77        23.17246
291.22        23.00937
291.68        22.99476
292.13        23.12332
292.59        23.38884
293.04         23.7454
293.50        24.13233
293.95        24.51321
294.40        24.88544
294.86        25.23558
295.31        25.56026
295.77        25.86398
296.22        26.14662
296.68        26.42069
297.13        26.68782
297.58        26.96367
298.04        27.25787
298.49        27.58859
298.95         28.0139
299.40        28.52339
299.85        29.09876
300.31        29.67615
300.76         30.1586
301.21        30.52257
301.67        30.81212
302.12        31.05236
302.58        31.33605
303.03        31.65958
303.48        32.00672
303.94        32.37192
304.39        32.71237
304.84        33.01861
305.30        33.28769
305.75        33.49023
306.20        33.60176
306.66        33.63969
307.11        33.60644
307.57        33.52542
308.02        33.36355
308.47        33.15391
308.93         32.9066
309.38        32.69211
309.83        32.65882
310.29        32.81033
310.74        33.09719
311.19        33.35683
311.65        33.33162
312.10        32.97478
312.55        32.37413
313.00        31.71315
313.46        31.27565
313.91        31.11383
314.36        31.15103
314.82         31.2595
315.27        31.25291
315.72        31.06502
316.18        30.77292
316.63        30.42968
317.08        30.11504
317.53        29.85459
317.99        29.60719
318.44        29.37675
318.89        29.16944
319.35        28.98251
319.80        28.82281
320.25        28.66199
320.70        28.44915
321.16        28.17079
321.61        27.84106
322.06        27.49536
322.51        27.19782
322.97        26.95999
323.42        26.76949
323.87        26.58435
324.32        26.34065
324.78        26.01912
325.23        25.64675
325.68        25.25624
326.13        24.90648
326.59        24.61843
327.04        24.39509
327.49        24.21133
327.94        24.02702
328.39        23.82846
328.85        23.61153
329.30        23.42861
329.75        23.33396
330.20        23.33242
330.66        23.37899
331.11        23.42157
331.56         23.3287
332.01        23.06869
332.46        22.67716
332.92        22.22463
333.37        21.83294
333.82        21.55708
334.27        21.38872
334.72        21.29797
335.17        21.22832
335.63        21.15113
336.08        21.07661
336.53        21.05201
336.98        21.16005
337.43        21.39938
337.88        21.73755
338.34        22.00159
338.79        21.96035
339.24        21.55983
339.69        20.87229
340.14        20.15509
340.59        19.84142
341.05        20.01833
341.50        20.55997
341.95        21.18979
342.40         21.4751
342.85        21.31425
343.30        20.85505
343.75        20.28185
344.20         19.8965
344.66        19.78574
345.11        19.81744
345.56         19.9307
346.01        20.03164
346.46        20.06852
346.91        20.09532
347.36        20.03348
347.81        19.74418
348.26        19.24047
348.72        18.60032
349.17        17.98281
349.62        17.73775
350.07        17.93816
350.52        18.45499
350.97        19.10892
351.42        19.62972
351.87        19.92283
352.32        20.05271
352.77        20.01793
353.22        19.82472
353.67        19.50544
354.13        19.07178
354.58        18.60246
355.03        18.26321
355.48        18.09898
355.93        18.09127
356.38        18.16696
356.83        18.19307
357.28        18.12772
357.73        17.99451
358.18        17.84882
358.63        17.78432
359.08        17.81693
359.53        17.91057
359.98        17.97382
360.43        17.87413
360.88        17.59598
361.33        17.19004
361.78        16.77985
362.23        16.56408
362.68        16.58179
363.13        16.75765
363.58        16.96988
364.03        17.03168
364.48        16.89221
364.93        16.61189
365.38        16.24947
365.83        15.90637
366.28        15.63162
366.73         15.4005
367.18        15.22331
367.63        15.11664
368.08        15.07216
368.53        15.08513
368.98        15.12342
369.43        15.12828
369.88        15.08553
370.33        15.01306
370.78        14.91108
371.23        14.78935
371.68        14.65658
372.13        14.49714
372.58         14.3627
373.03        14.34116
373.48        14.43643
373.93        14.61971
374.38        14.77453
374.83        14.72015
375.28        14.42961
375.72        13.95656
376.17        13.45722
376.62        13.14419
377.07        13.08036
377.52        13.20012
377.97        13.41103
378.42        13.56729
378.87        13.61945
379.32        13.60582
379.77        13.56322
380.22        13.54458
380.67        13.56356
381.11         13.6002
381.56        13.61051
382.01        13.54499
382.46         13.3948
382.91         13.1774
383.36        12.96079
383.81        12.84205
384.26        12.83811
384.71        12.92796
385.15        13.01663
385.60        12.95768
386.05        12.73033
386.50        12.38391
386.95        12.04745
387.40        11.92412
387.85        12.04565
388.29        12.33267
388.74        12.63904
389.19        12.76695
389.64        12.67504
390.09        12.42583
390.54        12.11922
390.98        11.91007
391.43        11.85646
391.88          11.899
392.33        11.96626
392.78        11.95715
393.23        11.85521
393.67        11.69398
394.12        11.54854
394.57         11.4764
395.02        11.49021
395.47        11.56564
395.91        11.65862
396.36        11.68234
396.81        11.61835
397.26        11.48568
397.71        11.34463
398.15        11.27364
398.60        11.30135
399.05        11.39745
399.50        11.48698
399.95        11.46144
400.39        11.30245
400.84        11.04085
401.29        10.77847
401.74        10.70049
402.18        10.85493
402.63        11.17228
403.08        11.50706
403.53        11.63084
403.97        11.49675
404.42        11.18724
404.87        10.83672
405.32        10.66679
405.76        10.73062
406.21        10.94741
406.66        11.21395
407.11        11.37054
407.55        11.37345
408.00         11.2828
408.45        11.13857
408.90        10.97987
409.34        10.85032
409.79        10.78246
410.24        10.77554
410.68        10.78606
411.13         10.8106
411.58        10.88979
412.03        10.98374
412.47         11.0039
412.92        10.93361
413.37        10.79335
413.81        10.65498
414.26        10.64346
414.71        10.77442
415.15        11.01364
415.60        11.25312
416.05        11.33679
416.49        11.22286
416.94        10.97138
417.39        10.67309
417.83        10.47484
418.28        10.42569
418.73        10.47276
419.17        10.57072
419.62        10.63543
420.07        10.64516
420.51        10.62994
420.96        10.59826
421.41        10.54465
421.85        10.47329
422.30         10.3918
422.74        10.32422
423.19        10.33124
423.64         10.4125
424.08        10.55318
424.53        10.69798
424.98        10.76814
425.42        10.74045
425.87        10.64423
426.31        10.49993
426.76        10.34793
427.21        10.19961
427.65        10.03985
428.10        9.916759
428.54        9.892199
428.99        9.974264
429.44        10.18588
429.88        10.41816
430.33        10.42798
430.77        10.23805
431.22        10.07906
431.66        10.01461
432.11        10.03082
432.56        10.12946
433.00        10.34087
433.45        10.53823
433.89        10.52999
434.34        10.36911
434.78        10.17611
435.23          9.9631
435.67        10.41619
436.12        10.08368
436.57        10.04049
437.01        9.893616
437.46        9.827496
437.90        9.847612
438.35        9.873473
438.79        9.877957
439.24        9.863315
439.68        9.822164
440.13        9.672226
440.57         9.48576
441.02        9.527047
441.46        9.707908
441.91        9.726171
442.35         9.33515
442.80        9.163759
443.24        9.110942
443.69        8.987352
444.13        8.808037
444.58        8.704062
445.02        8.687562
445.47        8.743298
445.91          8.8271
446.36        8.848596
446.80        8.784869
447.24        8.674349
447.69        8.548416
448.13        8.431661
448.58        8.343143
449.02        8.274588
449.47        8.220265
449.91        8.168181
450.36        8.119493
450.80        8.076777
451.25         8.05684
451.69        8.071964
452.13        8.123767
452.58         8.19622
453.02        8.268168
453.47        8.302382
453.91        8.293982
454.36        8.253894
454.80        8.196123
455.24        8.148213
455.69        8.124406
456.13        8.106723
456.58         8.10731
457.02        8.138375
457.46        8.197514
457.91        8.262125
458.35        8.313662
458.79        8.337905
459.24        8.330609
459.68        8.292794
460.13        8.276595
460.57        8.278873
461.01        8.300448
461.46        8.551744
461.90         8.67092
462.34        8.603196
462.79        8.627293
463.23        8.471889
463.68        8.316309
464.12        8.223633
464.56        8.284759
465.01        8.409888
465.45        8.551092
465.89           8.646
466.34        8.681554
466.78        8.652918
467.22        8.589037
467.67        8.598127
468.11        8.664455
468.55        8.613156
468.99        8.479181
469.44        8.456747
469.88        8.557679
470.32        8.684403
470.77        8.783265
471.21          8.8164
471.65        8.768045
472.10        8.654679
472.54        8.524753
472.98        8.481868
473.42        8.545929
473.87           8.658
474.31        8.776458
474.75        8.887245
475.20        8.956399
475.64         8.90902
476.08        8.796563
476.52        8.775265
476.97        8.860305
477.41        8.983577
477.85        9.102135
478.29        9.174296
478.74        9.185802
479.18        9.133491
479.62        9.064706
480.06        9.057739
480.50        9.112624
480.95        9.157871
481.39        9.169899
481.83        9.157467
482.27        9.122576
482.72        9.074493
483.16        9.024047
483.60        9.010065
484.04        9.029822
484.48        9.079743
484.93        9.231565
485.37        9.439466
485.81         9.62742
486.25        10.30441
486.69        10.00808
487.14        9.749149
487.58        9.822618
488.02        10.44122
488.46        9.901411
488.90        9.853277
489.34        9.811161
489.79        9.954116
490.23        10.21354
490.67        10.38705
491.11        10.43122
491.55          10.344
491.99        10.17023
492.43        10.04875
492.88        10.01472
493.32        9.974808
493.76        9.955957
494.20        10.04472
494.64         10.2426
495.08        10.51614
495.52        10.80701
495.96        11.02991
496.41         11.1611
496.85        11.20608
497.29        11.19696
497.73         11.2406
498.17        11.33964
498.61        11.36757
499.05         11.3462
499.49        11.42525
499.93        11.61408
500.37        11.80809
500.82        11.98012
501.26        12.18755
501.70        12.38834
502.14        12.42618
502.58        12.33619
503.02        12.31932
503.46        12.39489
503.90        12.45989
504.34        12.49574
504.78        12.51472
505.22        12.51283
505.66        12.49836
506.10        12.47788
506.54        12.45651
506.98        12.44288
507.42        12.44022
507.86        12.46585
508.30        12.54686
508.74        12.68158
509.18        12.85187
509.62        13.03225
510.06        13.18227
510.50        13.28913
510.94        13.36743
511.38        13.40808
511.82        13.39978
512.26        13.34885
512.70        13.25611
513.14        13.17485
513.58        13.18756
514.02        13.29959
514.46        13.48816
514.90         13.6764
515.34        13.68834
515.78        13.50823
516.22        13.28177
516.66        13.11236
517.10        12.79793
517.54        12.36856
517.98        13.04476
518.42         12.9599
518.86        13.25605
519.30        13.35472
519.74        13.45042
520.18        13.51455
520.62         13.4773
521.06        13.35992
521.50        13.16488
521.93        12.95568
522.37        12.84686
522.81        12.86182
523.25        12.96999
523.69        13.11409
524.13        13.20146
524.57         13.2042
525.01        13.14641
525.45        13.05799
525.89        12.98752
526.32        12.94903
526.76        12.92723
527.20        12.90012
527.64         12.8387
528.08        12.73762
528.52        12.60963
528.96        12.48443
529.40        12.40257
529.83        12.37252
530.27        12.38564
530.71        12.40375
531.15        12.36707
531.59         12.2669
532.03         12.1241
532.46        11.98712
532.90          11.945
533.34        12.00585
533.78        12.13467
534.22         12.2762
534.66        12.34709
535.09        12.32298
535.53        12.23532
535.97        12.11219
536.41        11.99592
536.85        11.90668
537.28        11.84188
537.72        11.80917
538.16        11.78258
538.60         11.8186
539.04        11.86572
539.47        11.93076
539.91        12.02582
540.35        12.15229
540.79        12.19922
541.22        12.31314
541.66        12.39092
542.10        12.48821
542.54        12.40883
542.97        12.49654
543.41        12.54667
543.85        12.65476
544.29        12.78202
544.72         12.9033
545.16          13.016
545.60        13.11139
546.04        13.15205
546.47        13.18176
546.91        13.35462
547.35        13.63722
547.79        13.84655
548.22        13.95556
548.66        14.01672
549.10        14.05742
549.53        14.17762
549.97        14.38076
550.41        14.40479
550.84        14.51587
551.28        14.57544
551.72         14.6909
552.15        14.85723
552.59        15.07437
553.03        15.33066
553.46        15.57328
553.90        15.73515
554.34        15.80394
554.77        15.80129
555.21        15.77298
555.65        15.78312
556.08        15.84804
556.52        15.94838
556.96        16.06549
557.39        16.19166
557.83        16.31168
558.27        16.39153
558.70        16.43618
559.14        16.48284
559.57        16.53036
560.01        16.57658
560.45        16.61462
560.88        16.61424
561.32        16.61291
561.75        16.65522
562.19         16.7961
562.63        16.88061
563.06        16.91943
563.50        16.96293
563.93        17.01789
564.37        17.12516
564.80        17.20719
565.24         17.3272
565.68        17.43931
566.11        17.53246
566.55        17.61658
566.98        17.66424
567.42        17.68489
567.85        17.91491
568.29        17.89771
568.72        18.17094
569.16         18.5345
569.60        18.79992
570.03        18.93225
570.47         19.0501
570.90        19.08411
571.34        19.36189
571.77        19.25956
572.21         19.5516
572.64        19.74124
573.08        19.80878
573.51        20.01093
573.95        20.54236
574.38         20.6727
574.82        20.92743
