SpectraSmart Spectrum 2.9.0.0
--------- Device Information -----------
Spectrum Name :  反射率_0
Saving Time :  2024/04/19 23:52:13
Spectro-Module Model Name : SE2030-DUVN
Spectro-Module Serial Number : OS361AC55029948
Wavelength Start : 200
Wavelength End : 1025
Wavelength Unit : Wavelength(nm)
Spectrum Unit : Reflectance(%)
-----------Spectrum Setting ------------
Integration Time : 30ms
Average : 10
Boxcar : 0
Background removal :  enabled
linearity correction :  enabled
SC :  disabled
Intensity correction :  disabled
DWT denoise :  enabled
savitzky-golay :  disabled
FFT :  disabled
Running average :  disabled
Kalman :  disabled
High pass :  disabled
---------------BEGIN--------------------
Wavelength(nm)             Reflectance(%)
200.29               0
200.75        55.82138
201.21        56.12471
201.67        58.14383
202.13        61.79597
202.58        66.77928
203.04        73.47393
203.50        79.70795
203.96        80.10812
204.42        74.86703
204.88        67.61317
205.34        61.20932
205.80        56.68533
206.26        53.15038
206.72        49.30112
207.18        44.88721
207.64        41.82987
208.10        42.43083
208.55         46.6355
209.01          50.687
209.47        51.88797
209.93        50.43196
210.39        47.44393
210.85        44.13444
211.31        41.70644
211.77        40.24073
212.23        39.26345
212.69         38.7387
213.14        38.96402
213.60        39.56905
214.06        40.75933
214.52        42.18632
214.98        43.91412
215.44        46.01433
215.90        48.21609
216.36        50.68636
216.81        53.28836
217.27        55.40191
217.73         57.1196
218.19        57.06716
218.65        53.24925
219.11        45.39351
219.57         33.5117
220.02        20.25783
220.48        13.07302
220.94        14.64914
221.40        23.89386
221.86        35.63865
222.32        41.68471
222.77        40.14947
223.23        33.59444
223.69        26.57415
224.15        25.53367
224.61        30.36133
225.06        37.53884
225.52         43.5036
225.98        45.40795
226.44        43.35971
226.90        38.77631
227.36        33.40496
227.81        30.30661
228.27        30.66139
228.73        33.01818
229.19        35.98629
229.65        37.99235
230.10        38.74842
230.56        38.87173
231.02         38.6786
231.48        38.48409
231.93        38.36604
232.39        38.17662
232.85        37.88769
233.31        37.53485
233.77        37.12869
234.22         36.6905
234.68        36.28021
235.14        35.85952
235.60        35.45544
236.05        35.12016
236.51        34.88029
236.97        34.73138
237.43        34.71904
237.88        34.98999
238.34        35.57602
238.80        36.62809
239.26        38.02229
239.71        39.41686
240.17        40.72969
240.63        42.46637
241.08        44.73152
241.54        47.32393
242.00         49.2131
242.46        48.41064
242.91        43.81508
243.37        34.26467
243.83        19.98981
244.28        8.804332
244.74        9.883174
245.20        23.14384
245.66        38.22625
246.11        45.18533
246.57        43.21337
247.03        33.68091
247.48        20.27477
247.94        19.28269
248.40        31.04576
248.85        43.69551
249.31        52.29247
249.77        56.36562
250.22        57.23732
250.68        56.21414
251.14        53.75221
251.59        50.66107
252.05        47.92361
252.51        45.52099
252.96        43.38498
253.42        41.67514
253.88        40.55744
254.33         40.2128
254.79        41.55991
255.25        45.14051
255.70        50.38634
256.16        56.36269
256.62        61.27273
257.07        63.15786
257.53          62.252
257.99        59.38101
258.44        55.87084
258.90        54.05764
259.35        53.62768
259.81        54.11104
260.27        54.28734
260.72        53.13381
261.18        51.00478
261.63        48.04209
262.09        45.43214
262.55        44.31401
263.00        44.64528
263.46        45.93593
263.91        46.98243
264.37         46.6157
264.83        44.83759
265.28        42.14193
265.74        39.68973
266.19        38.67575
266.65        39.24122
267.11         40.7355
267.56        42.28235
268.02        42.62838
268.47        41.56166
268.93        39.53046
269.38        37.09724
269.84        35.40574
270.30        34.76568
270.75        34.84005
271.21        35.18993
271.66        35.16191
272.12         34.5687
272.57        33.63585
273.03        32.63626
273.48          31.891
273.94        31.52521
274.39        31.36864
274.85        31.25101
275.31        30.92165
275.76        30.31171
276.22        29.53141
276.67        28.72705
277.13        28.20144
277.58         27.9529
278.04        27.91729
278.49        27.83843
278.95        27.41238
279.40        26.58632
279.86        25.55896
280.31        24.54563
280.77        23.97308
281.22        23.84117
281.68        24.01774
282.13        24.27032
282.59        24.28622
283.04        23.99265
283.50        23.53675
283.95        23.01423
284.41        22.59081
284.86        22.29991
285.32        22.09785
285.77        21.98864
286.22        22.04493
286.68        22.23953
287.13        22.52542
287.59        22.78158
288.04        22.81078
288.50        22.60234
288.95        22.19361
289.41        21.72528
289.86        21.34646
290.32        21.15388
290.77        21.09961
291.22         21.1608
291.68        21.26562
292.13        21.39556
292.59        21.58021
293.04        21.85284
293.50        22.27247
293.95        22.82692
294.40        23.47079
294.86        24.11744
295.31        24.65102
295.77        25.04567
296.22        25.33481
296.68        25.58362
297.13        25.87713
297.58        26.25709
298.04        26.71017
298.49        27.21134
298.95        27.75487
299.40        28.31545
299.85        28.89182
300.31        29.47337
300.76        30.04138
301.21        30.58019
301.67         31.1049
302.12        31.56148
302.58        31.92836
303.03        32.18898
303.48        32.37222
303.94        32.56782
304.39        32.87618
304.84         33.3179
305.30        33.84432
305.75        34.34049
306.20        34.64976
306.66          34.758
307.11        34.70816
307.57        34.59048
308.02         34.4716
308.47        34.40336
308.93        34.35443
309.38        34.33681
309.83        34.41589
310.29        34.57763
310.74        34.80497
311.19        34.97793
311.65        34.90237
312.10        34.55006
312.55        33.98903
313.00        33.38406
313.46         32.9894
313.91        32.85081
314.36        32.90959
314.82        33.04328
315.27        33.07126
315.72        32.92907
316.18        32.68345
316.63        32.39815
317.08        32.17579
317.53         32.0379
317.99        31.93056
318.44        31.81757
318.89        31.63919
319.35        31.37949
319.80        31.06893
320.25        30.72176
320.70        30.35648
321.16        29.98363
321.61        29.60336
322.06        29.23722
322.51        28.92327
322.97        28.66222
323.42        28.45166
323.87        28.24974
324.32        27.99015
324.78        27.65226
325.23        27.26012
325.68        26.84366
326.13        26.46185
326.59        26.13698
327.04        25.87377
327.49        25.65441
327.94        25.45045
328.39        25.24986
328.85         25.0444
329.30        24.87887
329.75        24.79005
330.20        24.77862
330.66        24.80663
331.11        24.82591
331.56        24.71136
332.01        24.43343
332.46        24.02031
332.92        23.55171
333.37        23.16825
333.82        22.92369
334.27        22.80481
334.72        22.74726
335.17        22.63562
335.63        22.43025
336.08        22.16226
336.53        21.92902
336.98        21.89739
337.43        22.09133
337.88        22.45758
338.34        22.78712
338.79        22.78703
339.24        22.38283
339.69        21.66401
340.14         20.9035
340.59        20.56168
341.05        20.73232
341.50        21.27264
341.95        21.89745
342.40        22.16476
342.85        21.96949
343.30        21.46733
343.75        20.83905
344.20        20.37912
344.66        20.17817
345.11        20.10914
345.56         20.1346
346.01        20.19597
346.46        20.24969
346.91        20.34277
347.36        20.36621
347.81        20.13481
348.26        19.64858
348.72        18.98977
349.17         18.3511
349.62        18.13845
350.07        18.43294
350.52        19.08784
350.97        19.86329
351.42        20.40059
351.87        20.59484
352.32        20.54099
352.77        20.32124
353.22        20.07325
353.67        19.85633
354.13        19.64079
354.58         19.4139
355.03        19.19841
355.48        19.00568
355.93        18.85981
356.38        18.76805
356.83        18.72418
357.28        18.71552
357.73        18.72248
358.18        18.72815
358.63        18.71051
359.08        18.65679
359.53         18.5747
359.98        18.43833
360.43        18.20877
360.88        17.89664
361.33        17.52643
361.78        17.18049
362.23        16.99287
362.68        16.98496
363.13        17.10091
363.58        17.25806
364.03        17.32723
364.48        17.26701
364.93        17.11693
365.38        16.88302
365.83        16.58191
366.28        16.24422
366.73         15.8737
367.18        15.54315
367.63        15.36718
368.08        15.35765
368.53         15.4743
368.98        15.63284
369.43        15.69495
369.88        15.62599
370.33        15.47278
370.78        15.26344
371.23        15.05203
371.68        14.86887
372.13        14.68926
372.58        14.56393
373.03        14.58047
373.48        14.73545
373.93        14.99215
374.38        15.23114
374.83         15.2671
375.28        15.06471
375.72        14.67496
376.17         14.2203
376.62        13.86242
377.07         13.6641
377.52        13.58404
377.97        13.59346
378.42        13.64431
378.87        13.70659
379.32        13.78636
379.77         13.8694
380.22        13.92916
380.67        13.95756
381.11        13.95992
381.56        13.90966
382.01        13.78774
382.46        13.59876
382.91        13.34672
383.36        13.10698
383.81        12.99025
384.26        13.01308
384.71         13.1546
385.15        13.29739
385.60        13.25785
386.05        13.00842
386.50        12.60723
386.95        12.21272
387.40         12.0755
387.85        12.23568
388.29        12.59793
388.74         12.9817
389.19        13.14028
389.64        13.02473
390.09        12.71361
390.54        12.34163
390.98        12.11824
391.43        12.11175
391.88        12.24162
392.33        12.39877
392.78        12.42928
393.23         12.3083
393.67        12.08882
394.12         11.8777
394.57        11.77423
395.02        11.79855
395.47        11.91257
395.91        12.04819
396.36        12.07665
396.81        11.97049
397.26        11.76756
397.71        11.55395
398.15        11.44394
398.60        11.47315
399.05        11.59568
399.50        11.72331
399.95         11.7298
400.39        11.59053
400.84        11.34278
401.29        11.08471
401.74        10.99454
402.18        11.12138
402.63        11.39732
403.08        11.69108
403.53         11.7968
403.97        11.67122
404.42        11.39038
404.87          11.075
405.32        10.92305
405.76        10.98217
406.21        11.18063
406.66        11.42309
407.11        11.56241
407.55        11.55878
408.00        11.46552
408.45        11.32551
408.90        11.18282
409.34        11.07856
409.79        11.04479
410.24        11.06441
410.68        11.06711
411.13        11.04776
411.58        11.05729
412.03         11.0777
412.47        11.05938
412.92         10.9957
413.37        10.89239
413.81          10.806
414.26        10.83711
414.71        10.99263
415.15        11.24791
415.60        11.48795
416.05        11.54551
416.49        11.38064
416.94        11.05443
417.39        10.68537
417.83        10.46622
418.28        10.45247
418.73         10.5766
419.17        10.75428
419.62        10.83938
420.07         10.7977
420.51        10.68079
420.96        10.53104
421.41        10.39665
421.85        10.29649
422.30        10.22054
422.74        10.17458
423.19        10.19161
423.64        10.26403
424.08         10.3892
424.53        10.51766
424.98        10.57923
425.42        10.55446
425.87        10.46547
426.31        10.33745
426.76        10.22049
427.21        10.12557
427.65        10.03575
428.10        9.978257
428.54        9.979342
428.99        10.04039
429.44        10.19555
429.88        10.36559
430.33        10.35187
430.77        10.18372
431.22        10.07694
431.66        10.06907
432.11        10.10375
432.56        10.17155
433.00        10.31383
433.45        10.43078
433.89        10.38624
434.34         10.2472
434.78        10.11194
435.23        9.961021
435.67        10.44003
436.12        10.08663
436.57        9.994197
437.01         9.78778
437.46         9.68046
437.90        9.687243
438.35        9.717302
438.79        9.741204
439.24        9.757057
439.68         9.75318
440.13        9.650989
440.57         9.50668
441.02        9.560966
441.46        9.722943
441.91         9.69532
442.35        9.261203
442.80        9.085317
443.24         9.06999
443.69        9.013844
444.13        8.904091
444.58          8.8273
445.02        8.785911
445.47        8.782064
445.91        8.791892
446.36        8.757394
446.80        8.668036
447.24        8.552822
447.69        8.440737
448.13        8.352833
448.58        8.303649
449.02        8.285643
449.47        8.283317
449.91         8.26781
450.36        8.235338
450.80        8.190137
451.25        8.156642
451.69        8.161371
452.13        8.209721
452.58        8.281956
453.02        8.352056
453.47        8.374775
453.91        8.344273
454.36        8.276404
454.80        8.190474
455.24        8.122145
455.69        8.088344
456.13        8.067626
456.58        8.070435
457.02         8.10657
457.46        8.171342
457.91        8.242447
458.35        8.296758
458.79         8.31296
459.24         8.28704
459.68         8.22342
460.13        8.181152
460.57        8.169218
461.01        8.191498
461.46        8.451326
461.90        8.587411
462.34        8.538254
462.79        8.577454
463.23         8.43716
463.68        8.292566
464.12        8.201201
464.56        8.254051
465.01        8.364367
465.45        8.490287
465.89        8.578111
466.34        8.616529
466.78        8.597908
467.22        8.549457
467.67        8.576303
468.11        8.660645
468.55        8.627702
468.99        8.507727
469.44        8.488477
469.88         8.58182
470.32        8.693534
470.77        8.775157
471.21        8.797376
471.65        8.747416
472.10        8.638647
472.54          8.5219
472.98        8.504107
473.42        8.602466
473.87        8.754819
474.31        8.906824
474.75        9.026646
475.20        9.077574
475.64        8.989957
476.08        8.829926
476.52        8.775804
476.97        8.848372
477.41        8.974445
477.85        9.104891
478.29        9.186617
478.74        9.201644
479.18        9.151727
479.62        9.087687
480.06        9.090586
480.50        9.163681
480.95        9.237119
481.39        9.281957
481.83        9.300753
482.27        9.288716
482.72        9.247492
483.16         9.20338
483.60        9.204127
484.04         9.25124
484.48        9.382803
484.93        9.617232
485.37        9.726919
485.81         9.71226
486.25        10.18856
486.69        10.16237
487.14        9.858914
487.58        10.03674
488.02        10.67312
488.46        10.29376
488.90        10.29557
489.34        10.22902
489.79        10.39842
490.23        10.72825
490.67        10.92073
491.11        10.93464
491.55         10.8316
491.99        10.66771
492.43        10.57064
492.88        10.57668
493.32        10.59379
493.76        10.63838
494.20        10.77996
494.64        11.01406
495.08        11.30915
495.52        11.60592
495.96        11.82244
496.41        11.93833
496.85        11.95527
497.29        11.91944
497.73        11.96592
498.17        12.10076
498.61        12.18303
499.05         12.2211
499.49        12.35051
499.93        12.57425
500.37        12.78615
500.82        12.96547
501.26        13.18929
501.70         13.4169
502.14        13.47204
502.58        13.39312
503.02        13.39946
503.46        13.51108
503.90        13.61829
504.34        13.68955
504.78        13.71902
505.22        13.70008
505.66        13.64672
506.10        13.58723
506.54        13.56194
506.98        13.58674
507.42         13.6538
507.86        13.75669
508.30        13.88359
508.74        14.02205
509.18        14.16497
509.62          14.305
510.06        14.43101
510.50         14.5387
510.94        14.63392
511.38        14.69521
511.82        14.69147
512.26        14.62448
512.70        14.50351
513.14        14.39364
513.58        14.39446
514.02        14.51505
514.46        14.72561
514.90        14.93983
515.34          14.966
515.78        14.78705
516.22        14.54891
516.66        14.35967
517.10        14.02768
517.54        13.58706
517.98        14.24149
518.42        14.15089
518.86         14.4429
519.30        14.54694
519.74        14.65337
520.18        14.73702
520.62        14.73326
521.06        14.66102
521.50        14.51962
521.93        14.35696
522.37        14.26349
522.81        14.25837
523.25        14.31809
523.69        14.40565
524.13        14.46051
524.57        14.46233
525.01        14.42685
525.45        14.36727
525.89        14.30402
526.32        14.24563
526.76        14.18877
527.20         14.1258
527.64        14.05016
528.08        13.96147
528.52        13.86076
528.96        13.77116
529.40        13.72457
529.83         13.7234
530.27        13.76165
530.71        13.79041
531.15        13.73317
531.59        13.58129
532.03        13.36243
532.46        13.14625
532.90        13.05605
533.34        13.10805
533.78        13.25851
534.22        13.43529
534.66        13.52701
535.09        13.50202
535.53        13.40102
535.97        13.26088
536.41        13.13844
536.85        13.05623
537.28        13.00239
537.72        12.98133
538.16        12.95988
538.60        12.99796
539.04        13.04396
539.47        13.09678
539.91        13.15597
540.35        13.22496
540.79         13.1891
541.22        13.23489
541.66        13.29338
542.10        13.43069
542.54        13.42156
542.97        13.60199
543.41        13.69406
543.85        13.78872
544.29        13.86189
544.72        13.91612
545.16        13.99506
545.60        14.10061
546.04        14.17618
546.47        14.25209
546.91        14.46827
547.35        14.78071
547.79        15.00244
548.22        15.10889
548.66         15.1632
549.10        15.19827
549.53        15.31816
549.97        15.53268
550.41        15.57118
550.84        15.72209
551.28        15.83202
551.72         16.0026
552.15        16.20325
552.59        16.42956
553.03        16.67731
553.46        16.90546
553.90        17.06715
554.34         17.1546
554.77        17.18284
555.21        17.19025
555.65        17.22904
556.08        17.31067
556.52        17.41801
556.96        17.53593
557.39        17.66329
557.83        17.78632
558.27         17.8669
558.70        17.90549
559.14        17.93624
559.57        17.95819
560.01        17.97198
560.45        17.98289
560.88        17.97709
561.32        17.99638
561.75        18.08192
562.19        18.27525
562.63        18.37965
563.06        18.40132
563.50        18.40539
563.93         18.4158
564.37        18.50341
564.80        18.59136
565.24        18.73827
565.68        18.88461
566.11        19.00419
566.55         19.1011
566.98         19.1473
567.42        19.15291
567.85        19.37476
568.29        19.31982
568.72        19.56916
569.16        19.90576
569.60        20.12892
570.03        20.21479
570.47        20.28042
570.90        20.25233
571.34        20.54506
571.77        20.50801
572.21        20.69002
572.64        20.93417
573.08        21.05228
573.51        21.38689
573.95        21.83125
574.38         21.9074
574.82        21.99811
