SpectraSmart Spectrum 2.9.0.0
--------- Device Information -----------
Spectrum Name :  反射率_0
Saving Time :  2024/04/20 00:53:56
Spectro-Module Model Name : SE2030-DUVN
Spectro-Module Serial Number : OS361AC55029948
Wavelength Start : 200
Wavelength End : 1025
Wavelength Unit : Wavelength(nm)
Spectrum Unit : Reflectance(%)
-----------Spectrum Setting ------------
Integration Time : 30ms
Average : 10
Boxcar : 0
Background removal :  enabled
linearity correction :  enabled
SC :  disabled
Intensity correction :  disabled
DWT denoise :  enabled
savitzky-golay :  disabled
FFT :  disabled
Running average :  disabled
Kalman :  disabled
High pass :  disabled
---------------BEGIN--------------------
Wavelength(nm)             Reflectance(%)
200.29               0
200.75        47.27435
201.21        47.50105
201.67        50.40224
202.13        56.02991
202.58        64.13944
203.04        75.19313
203.50        86.38141
203.96        90.30885
204.42        86.07479
204.88        77.94382
205.34        70.07991
205.80         64.3504
206.26        59.80676
206.72        54.92052
207.18        49.03387
207.64        43.63438
208.10        41.70697
208.55        44.07469
209.01        48.04615
209.47        51.40647
209.93        53.67016
210.39        55.20577
210.85        55.86823
211.31        55.56263
211.77        54.25814
212.23        51.65769
212.69        48.08914
213.14        46.03709
213.60        46.52789
214.06        48.87323
214.52        51.37386
214.98        53.11727
215.44        54.25134
215.90        54.83019
216.36        55.65702
216.81        58.09752
217.27        61.98755
217.73        66.66665
218.19        69.70074
218.65         67.8659
219.11        60.67775
219.57        48.50663
220.02        34.28235
220.48        26.04866
220.94        26.91811
221.40        35.62132
221.86        47.22671
222.32        53.86877
222.77        53.55119
223.23        48.67188
223.69        43.13759
224.15        42.43885
224.61        46.51739
225.06         52.3787
225.52        57.01105
225.98        57.91543
226.44        55.18768
226.90         50.0482
227.36        44.25904
227.81        40.94575
228.27        41.30364
228.73        43.90269
229.19        47.12906
229.65        49.12367
230.10        49.59182
230.56        49.27166
231.02        48.71809
231.48        48.58281
231.93        48.91947
232.39        49.44065
232.85        49.81253
233.31        49.61009
233.77        48.76688
234.22        47.49259
234.68        46.11654
235.14        45.07916
235.60         44.5905
236.05        44.58371
236.51        44.96313
236.97        45.56534
237.43        46.41555
237.88        47.81872
238.34        49.79962
238.80        52.34988
239.26        54.98745
239.71        57.11211
240.17        58.48446
240.63         59.6903
241.08        60.98663
241.54        62.29969
242.00        62.76139
242.46        60.56962
242.91        54.72242
243.37        43.81106
243.83        28.69172
244.28        19.24178
244.74        25.41299
245.20        45.42718
245.66        65.66951
246.11        74.54719
246.57        71.41175
247.03         57.4132
247.48        35.88039
247.94        27.32024
248.40        36.35846
248.85        49.10763
249.31        58.75014
249.77        63.76537
250.22        65.44032
250.68        65.54054
251.14        64.46286
251.59        62.57481
252.05         60.5229
252.51        58.15323
252.96        55.82727
253.42        54.61731
253.88        54.85316
254.33        56.32847
254.79        59.19658
255.25        63.22062
255.70        67.87075
256.16        72.54392
256.62        76.32862
257.07        78.26163
257.53        78.46519
257.99         77.2242
258.44        74.62963
258.90        71.78233
259.35        68.89204
259.81        66.69839
260.27        64.82974
260.72        62.89598
261.18        61.06476
261.63        58.96833
262.09        57.31722
262.55        56.57828
263.00        56.60849
263.46        57.24835
263.91        57.57115
264.37        56.78586
264.83        54.90046
265.28        52.25986
265.74        49.87152
266.19        48.68335
266.65        48.85463
267.11        49.84011
267.56        50.92919
268.02        51.10833
268.47         50.1801
268.93        48.49852
269.38        46.47905
269.84        45.01651
270.30          44.346
270.75        44.21416
271.21        44.26492
271.66        43.96046
272.12        43.15681
272.57        42.02016
273.03        40.85191
273.48        40.01513
273.94        39.63176
274.39        39.51974
274.85         39.4132
275.31        38.89587
275.76        37.88772
276.22        36.57237
276.67        35.23355
277.13        34.39738
277.58         34.0908
278.04        34.17442
278.49        34.26446
278.95        33.89322
279.40        32.96187
279.86        31.73877
280.31        30.49327
280.77        29.74548
281.22        29.50753
281.68        29.61848
282.13        29.81356
282.59        29.75176
283.04        29.34847
283.50        28.77527
283.95         28.1377
284.41        27.62264
284.86        27.26289
285.32        27.01101
285.77        26.86138
286.22        26.88057
286.68        27.04154
287.13        27.29524
287.59        27.52482
288.04        27.52731
288.50        27.29418
288.95        26.85674
289.41        26.35869
289.86         25.9519
290.32        25.73291
290.77        25.64746
291.22        25.66986
291.68        25.72211
292.13        25.78754
292.59        25.91388
293.04        26.13284
293.50        26.50492
293.95        27.02239
294.40        27.63811
294.86        28.30515
295.31        28.96607
295.77        29.60109
296.22         30.2308
296.68        30.83669
297.13        31.36756
297.58         31.8358
298.04        32.26108
298.49        32.72942
298.95        33.41777
299.40        34.32767
299.85        35.38992
300.31        36.46528
300.76        37.33221
301.21        37.94062
301.67         38.3902
302.12        38.72989
302.58        39.10153
303.03         39.5258
303.48        39.98203
303.94        40.51703
304.39        41.15923
304.84        41.90516
305.30        42.73122
305.75        43.51625
306.20         44.0981
306.66        44.46399
307.11        44.64196
307.57        44.73872
308.02        44.83952
308.47        45.00308
308.93        45.19557
309.38        45.40792
309.83         45.6832
310.29        46.00659
310.74        46.36785
311.19         46.6646
311.65        46.72745
312.10         46.5271
312.55        46.11791
313.00        45.65638
313.46        45.38573
313.91         45.3441
314.36        45.47885
314.82        45.65009
315.27        45.65321
315.72        45.42459
316.18        45.04881
316.63         44.6255
317.08        44.31917
317.53        44.16435
317.99        44.08913
318.44        44.02904
318.89        43.87145
319.35        43.58362
319.80        43.21365
320.25        42.78819
320.70        42.34736
321.16        41.90895
321.61        41.46609
322.06        41.04161
322.51           40.68
322.97        40.37844
323.42        40.13516
323.87         39.8966
324.32        39.57719
324.78         39.1494
325.23        38.65016
325.68        38.11136
326.13         37.6007
326.59        37.14651
327.04        36.75612
327.49        36.42452
327.94        36.14638
328.39        35.90976
328.85        35.69368
329.30         35.5239
329.75        35.38381
330.20        35.26205
330.66        35.13667
331.11        34.98748
331.56        34.72728
332.01        34.34169
332.46        33.84898
332.92        33.32517
333.37        32.91694
333.82        32.67022
334.27        32.57278
334.72        32.54514
335.17        32.44398
335.63         32.2182
336.08        31.90782
336.53        31.61722
336.98        31.53573
337.43        31.69222
337.88        32.02213
338.34        32.31107
338.79         32.2615
339.24        31.79348
339.69        31.00174
340.14        30.14771
340.59        29.67294
341.05        29.67772
341.50        30.03293
341.95        30.48496
342.40        30.63732
342.85        30.39362
343.30        29.89498
343.75        29.30015
344.20        28.86547
344.66         28.6686
345.11        28.59336
345.56        28.60238
346.01        28.63988
346.46        28.66362
346.91        28.71108
347.36        28.68823
347.81        28.43586
348.26        27.95324
348.72        27.31385
349.17        26.67542
349.62        26.38282
350.07        26.51123
350.52        26.94242
350.97          27.487
351.42        27.85895
351.87         27.9696
352.32        27.89067
352.77        27.67805
353.22        27.42632
353.67        27.17948
354.13        26.92278
354.58        26.64287
355.03        26.36435
355.48        26.10303
355.93        25.88075
356.38        25.71672
356.83        25.62709
357.28        25.60142
357.73        25.61146
358.18        25.62871
358.63         25.6096
359.08        25.53571
359.53        25.42572
359.98        25.24964
360.43        24.96287
360.88        24.57782
361.33        24.11548
361.78        23.68883
362.23         23.4815
362.68        23.52129
363.13        23.74069
363.58        23.99679
364.03        24.06706
364.48        23.89199
364.93        23.53112
365.38        23.06917
365.83        22.65904
366.28        22.35882
366.73        22.12669
367.18        21.93601
367.63        21.74353
368.08         21.5357
368.53        21.34195
368.98        21.16673
369.43        21.00273
369.88        20.85214
370.33        20.71458
370.78        20.59392
371.23        20.50492
371.68        20.44834
372.13        20.40725
372.58        20.38744
373.03        20.40158
373.48        20.43507
373.93        20.47104
374.38        20.45396
374.83        20.30012
375.28        20.00206
375.72        19.58997
376.17        19.15334
376.62         18.7949
377.07        18.56113
377.52        18.43134
377.97        18.39751
378.42        18.44167
378.87        18.53614
379.32        18.66584
379.77        18.79555
380.22        18.87196
380.67        18.88014
381.11         18.8378
381.56        18.72364
382.01         18.5297
382.46        18.27091
382.91        17.95209
383.36        17.66327
383.81        17.53642
384.26        17.58826
384.71        17.78844
385.15        17.99717
385.60        17.99909
386.05        17.75473
386.50        17.32896
386.95        16.88815
387.40        16.69722
387.85        16.80562
388.29        17.11727
388.74        17.45667
389.19        17.57433
389.64        17.42112
390.09        17.07368
390.54        16.67931
390.98        16.46437
391.43        16.49747
391.88        16.68837
392.33        16.89423
392.78        16.91334
393.23         16.7196
393.67        16.38432
394.12        16.06156
394.57        15.90296
395.02        15.93835
395.47        16.11244
395.91        16.33062
396.36        16.41027
396.81        16.30975
397.26        16.08596
397.71        15.84407
398.15        15.72394
398.60        15.77235
399.05        15.92656
399.50        16.09505
399.95        16.15062
400.39        16.06466
400.84        15.87365
401.29         15.6614
401.74        15.57865
402.18         15.6698
402.63         15.8784
403.08        16.09207
403.53        16.13262
403.97         15.9671
404.42        15.66701
404.87        15.35585
405.32        15.23456
405.76         15.3458
406.21        15.61525
406.66        15.93078
407.11         16.1189
407.55        16.13342
408.00        16.03321
408.45        15.87083
408.90        15.69887
409.34        15.57022
409.79        15.53695
410.24         15.5709
410.68        15.56476
411.13        15.51149
411.58        15.48091
412.03        15.46564
412.47        15.42712
412.92        15.36261
413.37        15.27627
413.81        15.21448
414.26        15.26362
414.71        15.42687
415.15        15.68354
415.60        15.92721
416.05        16.00867
416.49        15.88963
416.94        15.62054
417.39        15.30562
417.83        15.11491
418.28        15.09969
418.73        15.20333
419.17         15.3485
419.62        15.40204
420.07         15.3362
420.51        15.19841
420.96        15.04421
421.41        14.93874
421.85        14.89661
422.30        14.90066
422.74        14.92987
423.19        14.98304
423.64        15.04449
424.08        15.12504
424.53         15.1876
424.98        15.19304
425.42        15.13727
425.87        15.03522
426.31        14.91345
426.76         14.8225
427.21        14.76783
427.65        14.73116
428.10        14.72859
428.54        14.76085
428.99        14.82522
429.44         14.9844
429.88        15.15047
430.33        15.08368
430.77         14.8341
431.22        14.69919
431.66        14.72109
432.11        14.79501
432.56        14.89978
433.00        15.10704
433.45        15.26507
433.89        15.15822
434.34        14.89264
434.78         14.6237
435.23        14.35367
435.67        15.05227
436.12        14.61786
436.57        14.62778
437.01         14.4971
437.46         14.4489
437.90        14.48613
438.35        14.50536
438.79         14.4882
439.24        14.46736
439.68        14.44234
440.13        14.28617
440.57        14.08857
441.02        14.21982
441.46        14.54454
441.91        14.61408
442.35        14.06986
442.80        13.87342
443.24        13.88086
443.69        13.79348
444.13        13.61684
444.58        13.51915
445.02         13.5152
445.47        13.59393
445.91        13.70489
446.36         13.7349
446.80        13.65892
447.24        13.52816
447.69        13.38739
448.13        13.27381
448.58        13.20979
449.02        13.18072
449.47        13.16646
449.91        13.12978
450.36        13.06769
450.80        12.99155
451.25        12.93088
451.69        12.91423
452.13         12.9496
452.58        13.01483
453.02        13.08699
453.47        13.13035
453.91        13.13637
454.36        13.11521
454.80        13.06954
455.24        13.00612
455.69        12.93802
456.13        12.85032
456.58        12.77554
457.02        12.75347
457.46        12.78674
457.91        12.83548
458.35        12.87254
458.79        12.88496
459.24        12.86411
459.68        12.81535
460.13        12.80137
460.57        12.79487
461.01        12.79132
461.46        13.12503
461.90        13.25901
462.34        13.15397
462.79        13.23924
463.23        13.08402
463.68        12.92994
464.12        12.82362
464.56        12.89084
465.01        13.01713
465.45        13.14764
465.89        13.21529
466.34        13.20924
466.78        13.11142
467.22        12.97713
467.67        12.98692
468.11        13.11895
468.55        13.10776
468.99        12.97298
469.44         12.9584
469.88        13.07156
470.32        13.17509
470.77        13.23322
471.21         13.2582
471.65         13.2421
472.10        13.18589
472.54        13.11508
472.98        13.10342
473.42        13.16234
473.87        13.23056
474.31        13.29396
474.75         13.4094
475.20        13.54099
475.64        13.54891
476.08        13.46667
476.52        13.46642
476.97        13.55802
477.41        13.65947
477.85        13.74028
478.29        13.79321
478.74        13.81282
479.18        13.77769
479.62        13.73573
480.06        13.76713
480.50        13.86594
480.95        13.94425
481.39        13.97625
481.83        13.98719
482.27        13.97745
482.72        13.94505
483.16        13.91253
483.60        13.91783
484.04        13.95905
484.48        14.08403
484.93        14.33531
485.37         14.4441
485.81        14.49079
486.25        15.08536
486.69        15.49386
487.14        15.04291
487.58        14.59703
488.02        15.72064
488.46        15.20862
488.90        15.44702
489.34        15.31503
489.79        15.36182
490.23         15.5687
490.67        15.77368
491.11        15.95013
491.55        15.97038
491.99        15.85771
492.43        15.80382
492.88        15.83191
493.32        15.80139
493.76          15.759
494.20        15.85291
494.64        16.09629
495.08        16.44554
495.52        16.82313
495.96        17.10003
496.41        17.25652
496.85        17.33859
497.29        17.39144
497.73        17.53101
498.17        17.75074
498.61         17.8752
499.05        17.91329
499.49        18.04999
499.93        18.29358
500.37        18.49503
500.82        18.64511
501.26        18.88201
501.70         19.1555
502.14        19.21057
502.58        19.09197
503.02        19.09159
503.46        19.23245
503.90        19.36532
504.34        19.45096
504.78        19.49018
505.22        19.47509
505.66        19.41784
506.10        19.35591
506.54         19.3451
506.98        19.40313
507.42         19.5157
507.86        19.66538
508.30         19.8222
508.74        19.96868
509.18        20.10449
509.62        20.22641
510.06        20.32989
510.50        20.41493
510.94        20.48551
511.38         20.5274
511.82        20.52151
512.26        20.47061
512.70        20.38077
513.14        20.30447
513.58        20.31919
514.02         20.4296
514.46        20.61495
514.90        20.80001
515.34        20.80434
515.78        20.63313
516.22        20.40709
516.66        20.23405
517.10        19.93875
517.54        19.55175
517.98        20.18955
518.42        20.13443
518.86         20.4282
519.30        20.53676
519.74         20.6395
520.18        20.70801
520.62        20.67551
521.06        20.56053
521.50        20.36393
521.93        20.14731
522.37        20.02255
522.81        20.01296
523.25        20.09048
523.69        20.19705
524.13        20.23788
524.57        20.18768
525.01        20.07455
525.45        19.93777
525.89        19.83943
526.32        19.79725
526.76         19.7931
527.20        19.79699
527.64        19.76713
528.08        19.69153
528.52        19.58105
528.96        19.46823
529.40         19.3997
529.83        19.38269
530.27        19.40726
530.71        19.42184
531.15        19.34796
531.59        19.17698
532.03        18.93958
532.46        18.70742
532.90        18.60753
533.34        18.65583
533.78        18.80689
534.22        18.98507
534.66        19.07432
535.09        19.04026
535.53        18.92494
535.97        18.76758
536.41        18.62812
536.85        18.53114
537.28        18.46962
537.72        18.44444
538.16         18.4006
538.60        18.42454
539.04         18.4427
539.47        18.47553
539.91        18.55758
540.35        18.69895
540.79        18.72963
541.22        18.87853
541.66        18.99381
542.10        19.15787
542.54        19.06318
542.97        19.23217
543.41        19.33961
543.85        19.52661
544.29        19.73427
544.72        19.91112
545.16        20.03609
545.60        20.09677
546.04        20.04427
546.47        19.97664
546.91        20.17423
547.35        20.59886
547.79        20.96288
548.22        21.19337
548.66        21.32421
549.10        21.38303
549.53        21.53162
549.97        21.79518
550.41        21.81605
550.84        22.00637
551.28        22.14169
551.72        22.35116
552.15        22.57266
552.59        22.80147
553.03        23.04307
553.46        23.26537
553.90        23.44124
554.34        23.56337
554.77        23.63981
555.21        23.69639
555.65        23.76354
556.08        23.84798
556.52        23.94013
556.96        24.03681
557.39        24.16338
557.83        24.30856
558.27        24.40843
558.70        24.46254
559.14        24.51848
559.57        24.57094
560.01        24.62308
560.45        24.66394
560.88        24.64601
561.32        24.62244
561.75        24.65754
562.19        24.83893
562.63        24.94922
563.06        25.00564
563.50         25.0817
563.93        25.16945
564.37        25.30232
564.80        25.36171
565.24        25.44888
565.68         25.5262
566.11        25.62363
566.55        25.76145
566.98        25.88464
567.42        25.96435
567.85        26.28313
568.29        26.15979
568.72        26.40495
569.16        26.76777
569.60        27.03531
570.03        27.18096
570.47        27.34648
570.90        27.38196
571.34        27.76719
571.77        27.65418
572.21        27.84113
572.64        28.06596
573.08        28.37379
573.51        28.47758
573.95         28.8386
574.38        29.23406
574.82        29.27879
