SpectraSmart Spectrum 2.9.0.0
--------- Device Information -----------
Spectrum Name :  反射率_0
Saving Time :  2024/04/20 00:17:05
Spectro-Module Model Name : SE2030-DUVN
Spectro-Module Serial Number : OS361AC55029948
Wavelength Start : 200
Wavelength End : 1025
Wavelength Unit : Wavelength(nm)
Spectrum Unit : Reflectance(%)
-----------Spectrum Setting ------------
Integration Time : 30ms
Average : 10
Boxcar : 0
Background removal :  enabled
linearity correction :  enabled
SC :  disabled
Intensity correction :  disabled
DWT denoise :  enabled
savitzky-golay :  disabled
FFT :  disabled
Running average :  disabled
Kalman :  disabled
High pass :  disabled
---------------BEGIN--------------------
Wavelength(nm)             Reflectance(%)
200.29               0
200.75        64.94946
201.21        64.30827
201.67        65.16553
202.13        69.00535
202.58        76.41196
203.04        87.47559
203.50        98.51381
203.96        100.5131
204.42        93.17258
204.88        82.39664
205.34        72.97874
205.80        66.87812
206.26        63.02228
206.72        59.88724
207.18        57.32074
207.64        56.50893
208.10        58.52872
208.55        63.18648
209.01         67.4385
209.47        69.54288
209.93        69.66416
210.39        68.33546
210.85          66.313
211.31        64.42503
211.77        62.67197
212.23         60.6445
212.69        58.28801
213.14        56.58891
213.60        56.04293
214.06        56.86289
214.52        58.16764
214.98        59.45167
215.44        60.69463
215.90        61.72623
216.36        62.97776
216.81        65.05395
217.27        67.63276
217.73        70.52763
218.19        71.89539
218.65        69.19014
219.11        62.07507
219.57        50.76506
220.02        38.18028
220.48        32.14236
220.94        35.45734
221.40        46.74884
221.86        60.60613
222.32        68.57511
222.77        68.64536
223.23        63.48516
223.69        57.35194
224.15        56.31782
224.61        60.46802
225.06        66.52201
225.52        71.65862
225.98        73.52499
226.44        72.18527
226.90        68.85872
227.36        64.75106
227.81        61.89756
228.27        61.34083
228.73         62.1578
229.19        63.61087
229.65        64.86618
230.10        65.62611
230.56        66.21926
231.02        66.66818
231.48        67.02146
231.93        67.24012
232.39        67.30082
232.85        67.08775
233.31        66.51129
233.77        65.59537
234.22        64.42784
234.68        63.18218
235.14        62.07522
235.60        61.24397
236.05        60.68559
236.51         60.4296
236.97        60.46699
237.43        60.80517
237.88        61.68295
238.34        62.81562
238.80        63.82243
239.26        64.24841
239.71        63.91756
240.17        63.11658
240.63        62.90005
241.08        63.58449
241.54        65.00885
242.00        66.18998
242.46        65.14565
242.91        60.87266
243.37        52.19707
243.83        40.03497
244.28        33.22728
244.74        40.00582
245.20        58.10926
245.66         75.3605
246.11         81.6612
246.57        76.24232
247.03        59.73041
247.48        35.40097
247.94        24.98415
248.40        33.93807
248.85        47.55433
249.31        58.12969
249.77        63.81462
250.22        65.98128
250.68        66.47693
251.14        65.87897
251.59        64.84505
252.05        64.02125
252.51        63.13528
252.96        61.87956
253.42         60.3013
253.88         58.7317
254.33        57.56973
254.79        58.11411
255.25        61.20266
255.70        66.23446
256.16        72.12974
256.62        77.19171
257.07        79.56491
257.53        79.40541
257.99        77.41744
258.44        74.29332
258.90        71.80259
259.35        69.91425
259.81        68.84317
260.27        67.87093
260.72           66.37
261.18        64.61295
261.63        62.41163
262.09        60.61061
262.55        59.81396
263.00        59.91908
263.46        60.72531
263.91        61.28649
264.37        60.82886
264.83        59.33122
265.28        57.10574
265.74        55.13365
266.19        54.29838
266.65        54.74459
267.11        55.92519
267.56        57.12172
268.02        57.32594
268.47        56.34958
268.93        54.57158
269.38        52.42241
269.84        50.82611
270.30         50.0427
270.75        49.81536
271.21         49.8437
271.66          49.658
272.12         49.1133
272.57        48.34774
273.03        47.54704
273.48        46.88279
273.94        46.45392
274.39        46.13989
274.85        45.81634
275.31        45.26101
275.76        44.42136
276.22        43.40646
276.67        42.39478
277.13        41.77688
277.58         41.5316
278.04        41.57639
278.49        41.55299
278.95        41.04994
279.40        39.98062
279.86        38.61279
280.31        37.21347
280.77        36.32223
281.22        35.94933
281.68        35.94956
282.13        36.05206
282.59         35.9184
283.04        35.45337
283.50        34.82418
283.95        34.13225
284.41        33.57489
284.86        33.17186
285.32         32.8749
285.77        32.64474
286.22        32.50652
286.68         32.4425
287.13         32.4287
287.59        32.39985
288.04        32.21162
288.50        31.87012
288.95         31.3775
289.41        30.86327
289.86        30.45231
290.32        30.22503
290.77        30.12792
291.22        30.10956
291.68        30.05295
292.13         29.9401
292.59        29.84114
293.04        29.82852
293.50        30.03158
293.95        30.46185
294.40        31.05669
294.86         31.7526
295.31        32.46272
295.77        33.15112
296.22        33.83885
296.68        34.49899
297.13        35.06805
297.58        35.55168
298.04        35.96868
298.49        36.39833
298.95        37.01351
299.40         37.8226
299.85        38.76773
300.31        39.73809
300.76        40.55022
301.21        41.16073
301.67        41.65443
302.12        42.05589
302.58        42.47575
303.03        42.91943
303.48        43.37498
303.94        43.88482
304.39        44.46972
304.84        45.12942
305.30        45.84093
305.75        46.50121
306.20        46.98108
306.66        47.27503
307.11        47.40306
307.57        47.45216
308.02        47.47063
308.47         47.5136
308.93        47.56334
309.38        47.63314
309.83        47.80145
310.29        48.06293
310.74        48.39604
311.19        48.68507
311.65        48.73904
312.10        48.52187
312.55        48.09531
313.00        47.62164
313.46        47.35353
313.91        47.32858
314.36        47.48384
314.82        47.67542
315.27        47.69508
315.72        47.47567
316.18        47.10684
316.63          46.678
317.08         46.3373
317.53        46.12496
317.99        45.98302
318.44        45.87769
318.89         45.7445
319.35        45.56132
319.80        45.35709
320.25        45.13796
320.70        44.91109
321.16        44.67533
321.61        44.42688
322.06         44.1692
322.51         43.9189
322.97        43.67068
323.42        43.43125
323.87        43.17997
324.32        42.88871
324.78        42.54817
325.23        42.18808
325.68        41.81983
326.13        41.47142
326.59        41.15536
327.04        40.88799
327.49        40.67564
327.94        40.53482
328.39        40.45786
328.85        40.41133
329.30        40.40131
329.75        40.37143
330.20        40.29894
330.66        40.17208
331.11        40.00386
331.56        39.75663
332.01        39.43349
332.46        39.04709
332.92         38.6445
333.37        38.32731
333.82        38.12691
334.27        38.04263
334.72        38.03541
335.17        38.03039
335.63         37.9869
336.08        37.92299
336.53        37.87811
336.98        37.93906
337.43        38.11282
337.88        38.37248
338.34        38.56598
338.79        38.49993
339.24        38.12532
339.69        37.50397
340.14        36.87194
340.59        36.62336
341.05        36.83331
341.50        37.38646
341.95        38.00647
342.40        38.26402
342.85        38.06441
343.30        37.55289
343.75         36.9376
344.20        36.56045
344.66        36.51422
345.11        36.65596
345.56        36.88668
346.01        37.04929
346.46         37.0779
346.91        37.04473
347.36        36.90637
347.81        36.58018
348.26        36.08849
348.72        35.48213
349.17        34.89866
349.62        34.64667
350.07        34.78843
350.52        35.21883
350.97        35.76004
351.42        36.14056
351.87        36.27417
352.32        36.22466
352.77        36.03582
353.22        35.78545
353.67        35.51615
354.13        35.22295
354.58          34.904
355.03        34.60607
355.48        34.34806
355.93        34.14001
356.38        33.99485
356.83        33.91851
357.28        33.89549
357.73        33.90406
358.18        33.89922
358.63        33.81184
359.08        33.62394
359.53        33.36131
359.98        33.03799
360.43        32.67543
360.88        32.29451
361.33        31.89665
361.78        31.53585
362.23        31.30026
362.68        31.19874
363.13        31.19536
363.58        31.20977
364.03        31.11445
364.48        30.87055
364.93        30.50757
365.38        30.06109
365.83        29.60273
366.28        29.17087
366.73        28.75557
367.18        28.36992
367.63        28.03081
368.08        27.73892
368.53        27.49685
368.98        27.28943
369.43        27.08088
369.88        26.86145
370.33        26.64374
370.78         26.4212
371.23         26.1906
371.68        25.95715
372.13        25.71083
372.58         25.5018
373.03        25.41636
373.48        25.45671
373.93        25.58645
374.38        25.69473
374.83        25.61224
375.28        25.30719
375.72        24.82476
376.17        24.29499
376.62         23.8902
377.07        23.67138
377.52        23.59477
377.97        23.60063
378.42        23.59297
378.87        23.53746
379.32        23.45753
379.77        23.38318
380.22         23.3541
380.67        23.37449
381.11        23.42968
381.56        23.45073
382.01        23.35226
382.46        23.11876
382.91         22.7727
383.36        22.42048
383.81        22.22064
384.26         22.2008
384.71        22.32435
385.15        22.44676
385.60        22.34978
386.05        21.99888
386.50        21.47042
386.95        20.95112
387.40         20.7348
387.85        20.87051
388.29        21.23946
388.74        21.64824
389.19        21.81486
389.64        21.68002
390.09        21.33091
390.54        20.90506
390.98        20.61443
391.43        20.53961
391.88        20.60038
392.33        20.69586
392.78        20.68465
393.23        20.54323
393.67        20.31322
394.12        20.11061
394.57         20.0229
395.02        20.06733
395.47        20.20795
395.91        20.36857
396.36        20.39684
396.81        20.26813
397.26        20.02929
397.71        19.78768
398.15        19.68571
398.60        19.76913
399.05         19.9689
399.50        20.18231
399.95        20.26378
400.39        20.18205
400.84        19.98087
401.29        19.74227
401.74        19.61683
402.18        19.65456
402.63        19.79836
403.08         19.9614
403.53         20.0031
403.97        19.89182
404.42        19.68718
404.87        19.47082
405.32        19.37501
405.76        19.42984
406.21        19.58808
406.66        19.77814
407.11        19.88978
407.55        19.89552
408.00        19.83491
408.45        19.74834
408.90        19.65348
409.34        19.59029
409.79        19.64028
410.24          19.753
410.68        19.76896
411.13        19.68097
411.58        19.57729
412.03        19.48722
412.47        19.43325
412.92        19.42578
413.37        19.44936
413.81        19.51215
414.26        19.64136
414.71        19.82499
415.15        20.06365
415.60        20.26704
416.05         20.3171
416.49        20.18778
416.94        19.91512
417.39        19.60962
417.83         19.4518
418.28        19.49078
418.73        19.66993
419.17        19.88379
419.62        19.95538
420.07        19.85214
420.51        19.63725
420.96        19.40785
421.41        19.29118
421.85        19.31251
422.30        19.43438
422.74        19.59982
423.19        19.76143
423.64        19.88936
424.08        20.00974
424.53        20.09552
424.98         20.1303
425.42        20.11772
425.87        20.06226
426.31         19.9817
426.76        19.91626
427.21        19.86792
427.65        19.82271
428.10        19.80904
428.54        19.84202
428.99        19.92385
429.44        20.13415
429.88        20.35533
430.33        20.26963
430.77        19.94395
431.22         19.7827
431.66        19.83644
432.11        19.95226
432.56        20.10036
433.00        20.37572
433.45         20.5946
433.89        20.50053
434.34        20.23758
434.78        19.99416
435.23        19.73105
435.67        20.74393
436.12        20.12643
436.57        20.04678
437.01        19.75038
437.46        19.64701
437.90        19.76202
438.35        19.91377
438.79        20.03608
439.24        20.11246
439.68        20.12447
440.13        19.91885
440.57        19.63543
441.02        19.81565
441.46         20.2811
441.91         20.3917
442.35        19.66035
442.80        19.44668
443.24        19.55352
443.69        19.55647
444.13        19.42725
444.58        19.34016
445.02        19.30685
445.47        19.32981
445.91         19.3861
446.36        19.39329
446.80        19.33591
447.24        19.26434
447.69        19.19694
448.13        19.12006
448.58        19.04828
449.02        18.98137
449.47        18.92791
449.91         18.8941
450.36        18.88598
450.80        18.89632
451.25        18.92569
451.69        18.95401
452.13        18.98156
452.58         19.0061
453.02         19.0271
453.47        19.04817
453.91        19.06865
454.36        19.08131
454.80        19.08203
455.24        19.06061
455.69        19.02387
456.13         18.9684
456.58        18.91218
457.02        18.85363
457.46        18.80517
457.91        18.75733
458.35        18.72039
458.79        18.72754
459.24          18.774
459.68        18.86288
460.13        19.01054
460.57        19.05157
461.01        18.95442
461.46        19.25917
461.90        19.24732
462.34        18.99332
462.79        19.14478
463.23        19.04234
463.68        18.97252
464.12        18.90051
464.56        18.97922
465.01        19.08111
465.45        19.17022
465.89        19.20923
466.34        19.19577
466.78        19.08349
467.22        18.93228
467.67         18.9651
468.11        19.14478
468.55        19.11815
468.99        18.91681
469.44        18.87802
469.88        19.01361
470.32         19.1344
470.77        19.19149
471.21        19.19907
471.65        19.14819
472.10        19.04001
472.54        18.91564
472.98        18.88071
473.42        18.95173
473.87        19.04268
474.31        19.12753
474.75        19.28368
475.20        19.45815
475.64        19.45022
476.08         19.3149
476.52        19.30902
476.97        19.44737
477.41        19.60675
477.85        19.73288
478.29        19.79853
478.74        19.79239
479.18        19.69176
479.62        19.57594
480.06        19.57297
480.50        19.68027
480.95        19.77205
481.39        19.80875
481.83        19.82207
482.27          19.807
482.72        19.75471
483.16        19.70507
483.60        19.71022
484.04        19.76495
484.48        19.96659
484.93        20.34049
485.37        20.41397
485.81        20.38796
486.25        21.14598
486.69        21.65857
487.14        21.22201
487.58        20.82604
488.02         21.5951
488.46        21.03223
488.90        21.16745
489.34        21.11419
489.79        21.26734
490.23        21.53626
490.67        21.63512
491.11        21.58223
491.55        21.52509
491.99        21.49651
492.43        21.46724
492.88         21.4599
493.32        21.48956
493.76        21.58026
494.20        21.76158
494.64        22.03179
495.08        22.37101
495.52        22.71763
495.96        22.99195
496.41         23.1738
496.85        23.23949
497.29         23.2361
497.73         23.3563
498.17        23.58579
498.61         23.6544
499.05        23.59166
499.49        23.70996
499.93         24.0144
500.37        24.23975
500.82        24.36848
501.26        24.61845
501.70         24.9225
502.14         24.9264
502.58        24.69596
503.02        24.63218
503.46        24.76955
503.90         24.9104
504.34        25.00731
504.78        25.06626
505.22        25.07304
505.66        25.03746
506.10         25.0039
506.54        25.01913
506.98         25.0961
507.42        25.25649
507.86        25.47601
508.30        25.52815
508.74        25.69046
509.18        25.73547
509.62        25.78034
510.06        25.86434
510.50        25.99891
510.94         26.1681
511.38        26.32063
511.82        26.38352
512.26        26.34282
512.70        26.22286
513.14        26.09646
513.58        26.07318
514.02        26.16985
514.46        26.35594
514.90        26.55684
515.34         26.5874
515.78        26.46496
516.22        26.29063
516.66        26.16147
517.10        25.89941
517.54        25.53139
517.98        26.09533
518.42        26.01182
518.86        26.26583
519.30        26.36659
519.74        26.47119
520.18         26.5503
520.62         26.5363
521.06        26.44316
521.50        26.27797
521.93        26.08384
522.37        25.94099
522.81        25.87271
523.25        25.86238
523.69        25.89163
524.13        25.92888
524.57        25.95666
525.01        25.97636
525.45         25.9837
525.89        25.97088
526.32        25.93524
526.76         25.8825
527.20         25.7995
527.64        25.67275
528.08        25.50792
528.52         25.3112
528.96        25.13402
529.40        25.05191
529.83        25.07305
530.27        25.17995
530.71        25.29259
531.15        25.28509
531.59        25.13452
532.03        24.88242
532.46        24.61327
532.90         24.4797
533.34         24.5068
533.78        24.64346
534.22        24.81414
534.66        24.90298
535.09        24.87552
535.53        24.77866
535.97         24.6511
536.41        24.54941
536.85        24.49444
537.28        24.47719
537.72          24.497
538.16        24.47975
538.60        24.53869
539.04        24.57439
539.47        24.60479
539.91        24.66627
540.35        24.77295
540.79        24.70385
541.22        24.78854
541.66        24.86673
542.10        25.05554
542.54        24.94891
542.97        25.19323
543.41        25.30121
543.85        25.44833
544.29        25.57456
544.72        25.67088
545.16        25.79815
545.60        25.95219
546.04        26.03822
546.47        26.10791
546.91        26.40842
547.35        26.86481
547.79         27.1392
548.22        27.21419
548.66        27.25538
549.10        27.31813
549.53        27.55573
549.97        27.95834
550.41        28.01647
550.84        28.23696
551.28        28.34198
551.72        28.52021
552.15        28.73059
552.59        28.97932
553.03        29.26076
553.46        29.51725
553.90        29.69356
554.34        29.77675
554.77        29.78786
555.21        29.78186
555.65        29.83225
556.08         29.9532
556.52        30.11751
556.96        30.29436
557.39         30.4739
557.83        30.63282
558.27        30.70582
558.70        30.71052
559.14        30.73729
559.57        30.78828
560.01        30.85599
560.45        30.92418
560.88        30.93006
561.32        30.93431
561.75         31.0194
562.19        31.28257
562.63        31.42972
563.06        31.47894
563.50        31.52718
563.93        31.58248
564.37        31.71686
564.80        31.78868
565.24        31.91888
565.68        32.04112
566.11        32.16259
566.55        32.30369
566.98        32.40673
567.42        32.45749
567.85        32.84372
568.29        32.71841
568.72        33.07939
569.16        33.59258
569.60        33.94553
570.03        34.08421
570.47        34.24756
570.90         34.2753
571.34        34.64715
571.77        34.30545
572.21        34.76262
572.64        34.99116
573.08        35.26117
573.51        35.42994
573.95        35.78598
574.38        36.16112
574.82        36.44974
