SpectraSmart Spectrum 2.9.0.0
--------- Device Information -----------
Spectrum Name :  反射率_0
Saving Time :  2024/04/20 01:02:26
Spectro-Module Model Name : SE2030-DUVN
Spectro-Module Serial Number : OS361AC55029948
Wavelength Start : 200
Wavelength End : 1025
Wavelength Unit : Wavelength(nm)
Spectrum Unit : Reflectance(%)
-----------Spectrum Setting ------------
Integration Time : 30ms
Average : 10
Boxcar : 0
Background removal :  enabled
linearity correction :  enabled
SC :  disabled
Intensity correction :  disabled
DWT denoise :  enabled
savitzky-golay :  disabled
FFT :  disabled
Running average :  disabled
Kalman :  disabled
High pass :  disabled
---------------BEGIN--------------------
Wavelength(nm)             Reflectance(%)
200.29               0
200.75        66.11337
201.21        68.07058
201.67        72.12266
202.13        77.78272
202.58        84.53414
203.04         92.4201
203.50        99.42248
203.96          100.75
204.42        96.50961
204.88        89.98299
205.34         84.0591
205.80        79.90024
206.26        76.79109
206.72        73.71088
207.18        70.68158
207.64        69.51012
208.10        71.84354
208.55        77.10258
209.01        81.82043
209.47        83.94828
209.93        83.65737
210.39        81.60308
210.85        78.87825
211.31        76.60358
211.77        74.78724
212.23        73.07077
212.69        70.80724
213.14        67.66888
213.60        64.49876
214.06        62.74617
214.52        62.63064
214.98        64.18766
215.44        67.15829
215.90        71.23106
216.36        76.20023
216.81         80.7135
217.27        83.51688
217.73        85.13963
218.19        84.92872
218.65        82.00934
219.11        76.53305
219.57        68.30959
220.02        59.96248
220.48        58.35081
220.94        65.41495
221.40        79.53718
221.86        95.10497
222.32        103.5785
222.77        103.0804
223.23        96.68511
223.69        88.39262
224.15        84.10143
224.61        84.76828
225.06        87.72497
225.52        91.32127
225.98        94.23245
226.44        96.30424
226.90        98.13084
227.36        99.72461
227.81        100.6439
228.27         100.997
228.73        100.7172
229.19        99.85757
229.65        98.55157
230.10        96.97137
230.56        95.50943
231.02        94.43732
231.48        94.21375
231.93        94.70783
232.39         95.6822
232.85        96.79764
233.31         97.6121
233.77        97.93983
234.22        97.95004
234.68        97.36459
235.14        95.69107
235.60        93.03391
236.05        89.63756
236.51        86.37254
236.97        84.47162
237.43         84.2188
237.88        85.74974
238.34        88.24579
238.80        89.79853
239.26        89.01726
239.71        86.28151
240.17        82.45412
240.63        79.43114
241.08         77.7672
241.54        76.91278
242.00        76.19757
242.46        74.20807
242.91        70.16302
243.37        63.35565
243.83        54.23643
244.28        48.41895
244.74         51.5824
245.20        62.60516
245.66         74.0683
246.11        79.91625
246.57        79.72319
247.03        74.31564
247.48        64.53146
247.94        58.91418
248.40        60.61192
248.85        64.51949
249.31        67.70316
249.77        69.28896
250.22        69.61254
250.68        69.33895
251.14        68.79414
251.59        68.44521
252.05        68.77599
252.51        69.75892
252.96        70.83047
253.42        71.28722
253.88        71.11792
254.33        70.68555
254.79        71.40621
255.25        74.37926
255.70        79.17445
256.16        84.76031
256.62        89.81672
257.07        92.92959
257.53        94.17462
257.99         93.9611
258.44        92.32433
258.90        90.29987
259.35        88.00229
259.81        86.39419
260.27        85.09239
260.72        83.77142
261.18         82.7419
261.63        81.48352
262.09        80.82492
262.55        81.22805
263.00        82.37258
263.46        84.07902
263.91        85.13142
264.37        84.61074
264.83        82.53441
265.28        79.37589
265.74        76.41123
266.19        74.79583
266.65        74.81396
267.11        75.82457
267.56        77.03735
268.02        77.39387
268.47        76.64149
268.93        75.15995
269.38        73.36786
269.84         72.1576
270.30        71.72949
270.75        71.77248
271.21        71.87953
271.66        71.42194
272.12        70.27954
272.57         68.6802
273.03        66.98858
273.48        65.63366
273.94        64.81942
274.39        64.33495
274.85         64.0405
275.31        63.64122
275.76        63.00858
276.22        62.25591
276.67        61.42817
277.13        60.76503
277.58        60.21232
278.04        59.77913
278.49        59.19274
278.95        58.23088
279.40        56.83093
279.86        55.23203
280.31        53.67245
280.77        52.69994
281.22        52.27859
281.68        52.28194
282.13        52.34822
282.59        52.04002
283.04        51.23644
283.50        50.15591
283.95        48.98006
284.41        48.06318
284.86        47.43722
285.32        47.02103
285.77         46.6893
286.22        46.35559
286.68        45.99043
287.13        45.60481
287.59         45.2085
288.04        44.72598
288.50        44.18718
288.95        43.55609
289.41        42.92717
289.86         42.3627
290.32        41.93559
290.77        41.60783
291.22        41.35954
291.68        41.12008
292.13        40.86629
292.59        40.64641
293.04        40.50065
293.50        40.52389
293.95        40.71357
294.40        41.02853
294.86        41.40506
295.31        41.75197
295.77        42.04311
296.22        42.30111
296.68        42.54226
297.13        42.77708
297.58        43.02098
298.04        43.26929
298.49        43.53792
298.95        43.89936
299.40        44.33785
299.85        44.83445
300.31        45.32619
300.76        45.69788
301.21        45.93498
301.67        46.10583
302.12        46.22577
302.58        46.40013
303.03        46.61942
303.48         46.8701
303.94        47.18168
304.39        47.55105
304.84        47.97163
305.30        48.42493
305.75        48.80527
306.20        48.98562
306.66         48.9705
307.11        48.78701
307.57        48.54571
308.02        48.32578
308.47        48.18805
308.93        48.10483
309.38        48.07037
309.83        48.13333
310.29        48.27689
310.74        48.48368
311.19         48.6423
311.65        48.56983
312.10        48.23535
312.55        47.70177
313.00        47.12777
313.46        46.76056
313.91        46.63898
314.36        46.70195
314.82        46.82588
315.27         46.8344
315.72        46.66142
316.18        46.38024
316.63        46.04084
317.08          45.733
317.53        45.48203
317.99        45.24262
318.44        45.01114
318.89        44.77608
319.35        44.53226
319.80        44.29735
320.25        44.05349
320.70        43.76745
321.16        43.43204
321.61        43.06197
322.06        42.69376
322.51        42.39431
322.97        42.16988
323.42        42.00763
323.87        41.85505
324.32         41.6334
324.78        41.31549
325.23        40.94118
325.68         40.5371
326.13        40.15784
326.59        39.82767
327.04        39.55829
327.49         39.3478
327.94        39.19954
328.39        39.10512
328.85        39.03736
329.30         39.0243
329.75        39.04697
330.20        39.08509
330.66        39.10894
331.11        39.08961
331.56        38.92426
332.01        38.60195
332.46        38.15854
332.92        37.67056
333.37        37.29169
333.82         37.0743
334.27        36.99868
334.72        37.03497
335.17        37.12148
335.63        37.21001
336.08        37.31644
336.53        37.42268
336.98        37.51879
337.43        37.59372
337.88        37.64594
338.34        37.60572
338.79          37.416
339.24        37.06475
339.69         36.5813
340.14         36.1301
340.59        35.97982
341.05        36.17025
341.50        36.62498
341.95        37.13139
342.40        37.35711
342.85        37.22776
343.30        36.85179
343.75          36.383
344.20        36.07793
344.66        36.01007
345.11        36.07304
345.56        36.21035
346.01        36.33065
346.46         36.3865
346.91        36.42123
347.36        36.38065
347.81         36.1679
348.26        35.79435
348.72        35.31941
349.17         34.8461
349.62        34.62472
350.07        34.71011
350.52        35.01144
350.97        35.41761
351.42        35.75984
351.87        35.97041
352.32        36.08617
352.77        36.07747
353.22        35.90171
353.67        35.57795
354.13        35.14317
354.58        34.67407
355.03        34.33992
355.48         34.1852
355.93        34.17473
356.38        34.25622
356.83        34.33422
357.28        34.36781
357.73         34.3739
358.18        34.33989
358.63        34.24968
359.08        34.10183
359.53        33.89167
359.98        33.63917
360.43        33.38027
360.88        33.12809
361.33        32.88441
361.78        32.64723
362.23        32.41028
362.68        32.17536
363.13        31.94573
363.58        31.73129
364.03        31.54279
364.48        31.37402
364.93        31.21477
365.38         31.0345
365.83        30.78918
366.28        30.47379
366.73         30.1056
367.18        29.72714
367.63        29.40322
368.08        29.15145
368.53        28.95899
368.98        28.79325
369.43        28.59751
369.88        28.36018
370.33          28.103
370.78        27.85471
371.23        27.66584
371.68         27.5498
372.13        27.47984
372.58        27.44446
373.03        27.42734
373.48        27.41006
373.93        27.39221
374.38        27.33539
374.83        27.18053
375.28        26.92281
375.72        26.57356
376.17        26.21532
376.62        25.94208
377.07        25.78735
377.52        25.72847
377.97        25.72707
378.42        25.71984
378.87        25.68088
379.32        25.61865
379.77        25.54781
380.22        25.48909
380.67        25.44382
381.11        25.40753
381.56        25.33117
382.01         25.1606
382.46        24.89211
382.91        24.54538
383.36        24.20762
383.81        24.00533
384.26        23.96134
384.71        24.04909
385.15        24.15032
385.60        24.08933
386.05        23.83308
386.50        23.43475
386.95         23.0448
387.40         22.9011
387.85        23.04037
388.29        23.36675
388.74        23.70899
389.19        23.81137
389.64        23.62694
390.09        23.23478
390.54        22.78755
390.98        22.52123
391.43        22.51324
391.88        22.66893
392.33        22.85258
392.78        22.87125
393.23        22.69513
393.67        22.38648
394.12        22.08779
394.57        21.91559
395.02        21.89734
395.47        21.98853
395.91        22.11808
396.36        22.14273
396.81        22.03481
397.26        21.83222
397.71        21.62762
398.15        21.53898
398.60        21.60864
399.05        21.77771
399.50        21.93729
399.95         21.9326
400.39        21.73585
400.84        21.39051
401.29        21.01859
401.74         20.8429
402.18        20.93016
402.63        21.20485
403.08        21.51365
403.53        21.61197
403.97        21.44709
404.42        21.10756
404.87        20.73963
405.32        20.58235
405.76        20.68806
406.21        20.97062
406.66        21.29571
407.11        21.45719
407.55         21.4032
408.00        21.20532
408.45        20.94768
408.90        20.72246
409.34        20.60116
409.79        20.64917
410.24        20.78952
410.68        20.81884
411.13        20.71799
411.58        20.59086
412.03        20.47939
412.47        20.42373
412.92        20.43626
413.37        20.48889
413.81        20.57234
414.26        20.69125
414.71        20.82791
415.15        20.99112
415.60        21.10428
416.05        21.07207
416.49        20.88041
416.94        20.56589
417.39        20.23373
417.83        20.05423
418.28        20.07305
418.73        20.23228
419.17        20.43964
419.62        20.53877
420.07         20.4928
420.51        20.35183
420.96        20.17471
421.41        20.03061
421.85         19.9399
422.30        19.89281
422.74        19.87637
423.19        19.90645
423.64        19.96795
424.08        20.06859
424.53        20.16687
424.98        20.21268
425.42        20.19519
425.87        20.14885
426.31        20.08127
426.76        19.97068
427.21        19.83823
427.65        19.77086
428.10        19.79407
428.54        19.82783
428.99        19.87153
429.44        20.06441
429.88        20.28478
430.33        20.18204
430.77        19.82409
431.22        19.62478
431.66        19.64101
432.11        19.73285
432.56        19.87013
433.00          20.143
433.45        20.38185
433.89        20.28104
434.34        19.96659
434.78        19.77161
435.23        19.63921
435.67         20.2766
436.12        19.79232
436.57        19.53886
437.01        19.11176
437.46        18.95917
437.90        19.12507
438.35        19.40051
438.79        19.65116
439.24         19.7773
439.68        19.73581
440.13        19.40333
440.57        18.96935
441.02        19.03556
441.46        19.44799
441.91        19.56877
442.35        18.89332
442.80        18.67555
443.24        18.71571
443.69        18.62632
444.13        18.40726
444.58         18.2645
445.02        18.21926
445.47        18.25893
445.91          18.343
446.36        18.36496
446.80        18.30188
447.24        18.21193
447.69        18.12235
448.13        18.03448
448.58        17.96557
449.02        17.90718
449.47        17.86486
449.91        17.84146
450.36        17.84084
450.80        17.85959
451.25        17.89103
451.69        17.90445
452.13        17.89978
452.58        17.87664
453.02        17.85362
453.47        17.86292
453.91        17.90939
454.36        17.97999
454.80        18.04254
455.24        18.04207
455.69         17.9764
456.13        17.85059
456.58        17.72042
457.02        17.65703
457.46        17.67232
457.91        17.70123
458.35         17.7258
458.79        17.76549
459.24        17.80628
459.68        17.84662
460.13        17.92351
460.57        17.92201
461.01        17.82283
461.46        18.12166
461.90        18.12754
462.34        17.88595
462.79        18.00125
463.23        17.86047
463.68        17.75191
464.12        17.67187
464.56        17.76945
465.01        17.91417
465.45        18.04755
465.89        18.10211
466.34        18.07123
466.78        17.91795
467.22        17.72313
467.67        17.74449
468.11        17.95207
468.55        17.98057
468.99         17.8381
469.44        17.82929
469.88        17.95862
470.32        18.04704
470.77        18.06392
471.21        18.05336
471.65        18.01347
472.10        17.93351
472.54        17.84538
472.98        17.83948
473.42        17.92583
473.87        18.02652
474.31        18.11089
474.75        18.24165
475.20        18.36947
475.64        18.30995
476.08        18.13047
476.52        18.09255
476.97        18.21413
477.41        18.37924
477.85        18.52923
478.29        18.59826
478.74        18.61082
479.18        18.51742
479.62        18.40685
480.06        18.40272
480.50        18.50283
480.95        18.58352
481.39        18.60932
481.83        18.61295
482.27        18.59176
482.72        18.54399
483.16        18.49389
483.60        18.47187
484.04        18.47572
484.48        18.58119
484.93        18.83801
485.37        18.90655
485.81         19.0008
486.25        19.67891
486.69        20.35438
487.14        19.93299
487.58        19.33894
488.02        20.00067
488.46        19.71243
488.90        19.82056
489.34        19.53029
489.79         19.6076
490.23         19.9822
490.67        20.16154
491.11        20.13559
491.55         20.0902
491.99        20.05514
492.43        20.02019
492.88        20.00663
493.32        19.99414
493.76        20.01321
494.20        20.12962
494.64        20.34893
495.08        20.64355
495.52        20.95108
495.96        21.18964
496.41        21.33753
496.85        21.37572
497.29        21.35634
497.73        21.46616
498.17        21.69319
498.61        21.79536
499.05        21.78134
499.49        21.88744
499.93         22.1236
500.37         22.3039
500.82        22.42554
501.26        22.66597
501.70        22.96627
502.14        23.01995
502.58         22.8685
503.02        22.84035
503.46        22.96045
503.90        23.05775
504.34        23.10427
504.78        23.13194
505.22        23.13571
505.66        23.11492
506.10        23.09566
506.54        23.11483
506.98        23.18349
507.42        23.29571
507.86        23.42891
508.30        23.54539
508.74         23.6312
509.18        23.68809
509.62        23.74031
510.06        23.82691
510.50        23.95476
510.94        24.11633
511.38        24.25833
511.82        24.29552
512.26        24.21558
512.70        24.04506
513.14        23.87562
513.58        23.84785
514.02        23.98189
514.46        24.23535
514.90        24.50549
515.34        24.56405
515.78        24.41202
516.22        24.17213
516.66        23.96423
517.10        23.64066
517.54        23.24118
517.98        23.82761
518.42        23.76271
518.86        24.04592
519.30        24.16627
519.74        24.29045
520.18        24.39302
520.62        24.41129
521.06        24.35837
521.50        24.23378
521.93        24.07189
522.37        23.94146
522.81        23.86316
523.25        23.82654
523.69        23.81901
524.13        23.81678
524.57        23.80904
525.01        23.79991
525.45        23.79163
525.89        23.78572
526.32        23.77991
526.76        23.77359
527.20        23.74903
527.64        23.68495
528.08        23.57974
528.52        23.43841
528.96        23.29911
529.40        23.21835
529.83        23.20559
530.27          23.253
530.71        23.30333
531.15          23.267
531.59        23.13024
532.03        22.92216
532.46         22.7158
532.90        22.64363
533.34        22.72023
533.78         22.8976
534.22        23.09054
534.66        23.16895
535.09        23.09894
535.53        22.93219
535.97        22.72524
536.41        22.56441
536.85        22.48026
537.28        22.45822
537.72        22.48807
538.16        22.48412
538.60        22.54398
539.04        22.58036
539.47        22.61482
539.91        22.68752
540.35        22.81209
540.79        22.78139
541.22        22.88743
541.66        22.96634
542.10        23.12357
542.54        22.98785
542.97         23.1743
543.41        23.26435
543.85        23.42428
544.29        23.59005
544.72        23.72556
545.16        23.84396
545.60        23.93436
546.04        23.92439
546.47        23.89438
546.91        24.12143
547.35        24.54853
547.79        24.85309
548.22        24.98911
548.66        25.05581
549.10        25.09727
549.53        25.28489
549.97        25.62306
550.41        25.65149
550.84        25.84231
551.28         25.9445
551.72        26.12363
552.15        26.32747
552.59        26.55856
553.03        26.81666
553.46        27.05722
553.90        27.24052
554.34        27.35501
554.77        27.41319
555.21         27.4516
555.65        27.51627
556.08        27.61555
556.52        27.73202
556.96        27.85036
557.39        27.98202
557.83        28.11142
558.27        28.17317
558.70        28.17771
559.14        28.19769
559.57        28.23275
560.01        28.28122
560.45        28.33037
560.88          28.325
561.32        28.32223
561.75        28.39533
562.19        28.63476
562.63        28.77439
563.06        28.82966
563.50        28.88667
563.93        28.94793
564.37        29.07157
564.80        29.12638
565.24        29.22649
565.68        29.31362
566.11        29.39838
566.55         29.5021
566.98        29.57083
567.42        29.59603
567.85        29.94311
568.29        29.84163
568.72        30.18944
569.16        30.67304
569.60        31.03862
570.03        31.13476
570.47        31.28539
570.90        31.33394
571.34        31.60283
571.77        31.38993
572.21        31.78219
572.64        32.01078
573.08        32.21546
573.51         32.2912
573.95        32.79533
574.38        33.28628
574.82        33.39644
