SpectraSmart Spectrum 2.9.0.0
--------- Device Information -----------
Spectrum Name :  反射率_0
Saving Time :  2024/04/20 00:16:03
Spectro-Module Model Name : SE2030-DUVN
Spectro-Module Serial Number : OS361AC55029948
Wavelength Start : 200
Wavelength End : 1025
Wavelength Unit : Wavelength(nm)
Spectrum Unit : Reflectance(%)
-----------Spectrum Setting ------------
Integration Time : 30ms
Average : 10
Boxcar : 0
Background removal :  enabled
linearity correction :  enabled
SC :  disabled
Intensity correction :  disabled
DWT denoise :  enabled
savitzky-golay :  disabled
FFT :  disabled
Running average :  disabled
Kalman :  disabled
High pass :  disabled
---------------BEGIN--------------------
Wavelength(nm)             Reflectance(%)
200.29               0
200.75        60.17645
201.21        62.21059
201.67        66.77455
202.13         72.7914
202.58         79.2626
203.04        86.25362
203.50        91.57852
203.96        90.63528
204.42        84.35894
204.88        76.52055
205.34         69.5756
205.80        63.98693
206.26        58.66692
206.72         52.0026
207.18        44.36887
207.64        41.45999
208.10        47.97503
208.55        61.23012
209.01        72.92629
209.47        77.17824
209.93        74.90399
210.39         68.7224
210.85        61.63655
211.31        56.68656
211.77         54.1754
212.23        53.05878
212.69        53.06481
213.14        53.67059
213.60         54.0545
214.06        55.01329
214.52        56.27806
214.98        57.83319
215.44        59.77164
215.90         61.7949
216.36        64.16151
216.81        67.03524
217.27        69.79667
217.73        72.31445
218.19        73.19621
218.65        70.50683
219.11        64.00567
219.57          53.821
220.02        42.10092
220.48        35.11988
220.94         35.2268
221.40        41.54472
221.86        50.36562
222.32        55.64557
222.77        55.84378
223.23        52.90022
223.69        49.50828
224.15        49.47341
224.61        52.72223
225.06        57.00386
225.52        60.55799
225.98        62.13145
226.44        61.74471
226.90        60.10549
227.36        57.70182
227.81         55.3065
228.27         53.6981
228.73         52.6431
229.19        52.08636
229.65        51.92498
230.10        52.00932
230.56        52.33278
231.02        52.82974
231.48        53.44588
231.93        54.06499
232.39        54.66015
232.85        54.98189
233.31        54.69529
233.77         53.7742
234.22        52.35006
234.68        50.74351
235.14        49.44341
235.60        48.68544
236.05         48.4189
236.51         48.5691
236.97        48.97802
237.43         49.6309
237.88        50.78158
238.34        52.37362
238.80          54.312
239.26        56.17176
239.71        57.58765
240.17         58.2748
240.63        58.60686
241.08        58.83538
241.54        58.90603
242.00        58.53304
242.46        56.99095
242.91        53.80841
243.37        48.21329
243.83        40.96708
244.28        37.83076
244.74         43.8609
245.20        57.34341
245.66         69.6115
246.11        73.81758
246.57        69.45257
247.03        56.63854
247.48        38.12702
247.94        31.25023
248.40        39.41925
248.85        50.87964
249.31        59.37783
249.77        63.35008
250.22        63.91778
250.68        62.46933
251.14        59.63674
251.59        56.69278
252.05         54.8091
252.51        53.87124
252.96        53.23201
253.42        52.06413
253.88        50.40182
254.33        48.81633
254.79        49.11447
255.25        52.75245
255.70        58.97184
256.16        66.24423
256.62         72.1472
257.07        74.02948
257.53        72.18412
257.99        67.88659
258.44        62.71513
258.90        59.42735
259.35        57.92294
259.81        57.69108
260.27        57.50264
260.72        56.32648
261.18        54.44059
261.63        51.90719
262.09        49.76601
262.55         48.9306
263.00         49.3132
263.46        50.50115
263.91        51.40851
264.37        51.04057
264.83        49.39523
265.28         46.9042
265.74        44.61483
266.19        43.54623
266.65        43.85405
267.11        44.96373
267.56        46.15359
268.02        46.38673
268.47        45.47599
268.93        43.80515
269.38        41.78598
269.84        40.30245
270.30        39.59771
270.75        39.41536
271.21        39.47001
271.66         39.3355
272.12        38.86604
272.57        38.18941
273.03         37.4596
273.48        36.81193
273.94         36.3347
274.39        35.94096
274.85         35.5294
275.31         34.9274
275.76        34.10256
276.22        33.14678
276.67        32.23428
277.13        31.72219
277.58        31.59212
278.04        31.75117
278.49         31.8661
278.95        31.53203
279.40        30.66853
279.86        29.51361
280.31        28.31256
280.77        27.54911
281.22        27.24112
281.68        27.25223
282.13        27.35472
282.59        27.25319
283.04        26.87159
283.50        26.35372
283.95        25.78788
284.41        25.33018
284.86        25.00477
285.32         24.7759
285.77        24.62172
286.22        24.58131
286.68        24.63315
287.13        24.74285
287.59        24.84546
288.04         24.8195
288.50        24.66252
288.95         24.3802
289.41        24.05226
289.86           23.73
290.32        23.48599
290.77        23.30002
291.22        23.19763
291.68        23.17884
292.13        23.24623
292.59        23.41671
293.04        23.69234
293.50        24.08658
293.95        24.58005
294.40        25.14471
294.86        25.74508
295.31        26.33979
295.77        26.91552
296.22        27.48464
296.68        28.03525
297.13        28.52788
297.58        28.97668
298.04        29.40202
298.49        29.87179
298.95        30.53113
299.40          31.378
299.85        32.35089
300.31        33.33826
300.76        34.16562
301.21        34.78643
301.67        35.27917
302.12        35.66064
302.58        36.01845
303.03        36.36774
303.48        36.70964
303.94        37.11338
304.39        37.64529
304.84         38.3113
305.30        39.06956
305.75        39.80454
306.20        40.35957
306.66        40.71512
307.11        40.90253
307.57        40.99006
308.02         41.0083
308.47        41.01218
308.93        40.98796
309.38        40.98801
309.83        41.14583
310.29        41.46209
310.74        41.89723
311.19        42.29305
311.65        42.39188
312.10        42.14421
312.55        41.63488
313.00        41.05511
313.46        40.70136
313.91        40.62902
314.36        40.76548
314.82        40.96227
315.27        41.00171
315.72        40.81074
316.18        40.47457
316.63        40.08691
317.08        39.79749
317.53        39.64035
317.99        39.55234
318.44        39.47121
318.89        39.29027
319.35        38.98554
319.80        38.60596
320.25        38.20109
320.70        37.84689
321.16        37.56079
321.61        37.31487
322.06         37.0921
322.51        36.87154
322.97        36.63005
323.42        36.38291
323.87        36.09064
324.32        35.69411
324.78        35.18452
325.23        34.59436
325.68         33.9841
326.13        33.46556
326.59        33.07813
327.04        32.82342
327.49        32.65994
327.94        32.51634
328.39        32.36221
328.85        32.18905
329.30        32.05173
329.75        31.99444
330.20        32.01719
330.66        32.07288
331.11        32.09753
331.56         31.9406
332.01        31.57232
332.46        31.03218
332.92        30.43256
333.37        29.97797
333.82        29.73527
334.27        29.67489
334.72        29.69841
335.17        29.62801
335.63        29.40175
336.08        29.07475
336.53        28.75578
336.98        28.63699
337.43         28.7541
337.88        29.04102
338.34         29.3033
338.79         29.2761
339.24         28.8843
339.69        28.21282
340.14        27.49445
340.59        27.11907
341.05        27.17226
341.50        27.54126
341.95        27.99366
342.40        28.16751
342.85        27.97854
343.30        27.55662
343.75         27.0586
344.20        26.73814
344.66        26.66479
345.11        26.71835
345.56        26.84639
346.01        26.96894
346.46        27.03671
346.91        27.09258
347.36        27.04992
347.81        26.76271
348.26        26.23958
348.72        25.55707
349.17        24.88183
349.62        24.57295
350.07        24.70868
350.52         25.1654
350.97        25.75078
351.42        26.17231
351.87        26.33637
352.32        26.31665
352.77        26.15148
353.22        25.90863
353.67         25.6304
354.13        25.30964
354.58        24.96751
355.03         24.6831
355.48        24.48109
355.93        24.36524
356.38        24.31645
356.83         24.2889
357.28        24.25882
357.73         24.2201
358.18        24.17138
358.63         24.1156
359.08        24.04669
359.53        23.96062
359.98        23.82129
360.43        23.57598
360.88        23.22975
361.33        22.81188
361.78         22.4058
362.23        22.14674
362.68        22.06075
363.13         22.0957
363.58        22.17277
364.03        22.16757
364.48        22.03963
364.93        21.82513
365.38        21.53572
365.83        21.19788
366.28        20.83994
366.73        20.45935
367.18        20.10876
367.63        19.87117
368.08        19.75589
368.53        19.73931
368.98        19.75712
369.43        19.70038
369.88        19.54444
370.33        19.32687
370.78        19.07981
371.23        18.86385
371.68        18.70455
372.13        18.57295
372.58        18.49452
373.03          18.514
373.48        18.61876
373.93        18.78558
374.38        18.91811
374.83        18.86785
375.28        18.61043
375.72        18.18537
376.17        17.71231
376.62        17.34845
377.07        17.15035
377.52         17.0772
377.97        17.08753
378.42        17.11166
378.87         17.1189
379.32        17.12642
379.77        17.13227
380.22        17.12916
380.67         17.1148
381.11        17.08612
381.56        17.02426
382.01        16.92365
382.46        16.78532
382.91        16.60804
383.36        16.43258
383.81        16.31665
384.26         16.2701
384.71        16.28956
385.15        16.30117
385.60        16.19223
386.05        15.94959
386.50        15.60897
386.95        15.29363
387.40        15.19706
387.85        15.34565
388.29        15.66463
388.74        15.99654
389.19        16.12052
389.64        15.99372
390.09        15.67971
390.54         15.3115
390.98        15.09718
391.43        15.10222
391.88        15.24754
392.33        15.40727
392.78        15.40174
393.23        15.20862
393.67         14.8922
394.12        14.59094
394.57        14.43923
395.02        14.46271
395.47        14.61093
395.91         14.7977
396.36        14.85776
396.81        14.75314
397.26        14.53405
397.71        14.29667
398.15         14.1685
398.60        14.19361
399.05         14.3187
399.50        14.45772
399.95        14.48957
400.39        14.38899
400.84        14.19115
401.29        13.98547
401.74        13.93265
402.18        14.07466
402.63         14.3459
403.08        14.62073
403.53        14.70291
403.97        14.55369
404.42        14.24963
404.87        13.91216
405.32        13.74005
405.76        13.78253
406.21         13.9705
406.66        14.21152
407.11        14.36219
407.55        14.38109
408.00        14.31677
408.45        14.20642
408.90        14.07627
409.34        13.96641
409.79        13.93147
410.24        13.94447
410.68        13.90734
411.13        13.81827
411.58        13.74049
412.03        13.68903
412.47        13.66733
412.92        13.67655
413.37        13.70314
413.81        13.75634
414.26         13.8641
414.71        14.01696
415.15         14.2142
415.60        14.37198
416.05        14.37987
416.49        14.21735
416.94        13.92539
417.39        13.61538
417.83        13.46816
418.28        13.53035
418.73        13.74035
419.17        13.99472
419.62        14.11706
420.07        14.07087
420.51        13.91658
420.96         13.7276
421.41        13.60069
421.85        13.56133
422.30        13.58137
422.74        13.63996
423.19        13.73551
423.64        13.84944
424.08        13.99303
424.53        14.11652
424.98        14.15405
425.42        14.09383
425.87        13.95772
426.31          13.788
426.76        13.66078
427.21        13.59095
427.65        13.55655
428.10        13.56906
428.54        13.62056
428.99        13.70382
429.44        13.87859
429.88        14.06399
430.33        14.03667
430.77        13.84114
431.22        13.75216
431.66        13.80503
432.11         13.8956
432.56        14.00254
433.00        14.19435
433.45        14.33449
433.89        14.23409
434.34        13.99594
434.78        13.75856
435.23        13.51713
435.67        14.18177
436.12        13.76822
436.57        13.75108
437.01        13.59047
437.46        13.52882
437.90         13.5736
438.35        13.61198
438.79        13.62101
439.24        13.62721
439.68        13.62646
440.13        13.50105
440.57        13.33017
441.02        13.45591
441.46        13.75041
441.91         13.7916
442.35        13.25659
442.80        13.07353
443.24        13.10786
443.69        13.07165
444.13         12.9527
444.58        12.88266
445.02        12.86927
445.47        12.91185
445.91        12.97616
446.36        12.97748
446.80        12.89855
447.24        12.77958
447.69        12.65819
448.13        12.56171
448.58        12.50865
449.02        12.49016
449.47        12.48272
449.91        12.44299
450.36        12.36847
450.80        12.27113
451.25        12.19331
451.69        12.18472
452.13        12.25575
452.58        12.37734
453.02        12.50741
453.47         12.5804
453.91        12.58111
454.36        12.52724
454.80        12.44104
455.24         12.3621
455.69        12.31239
456.13        12.26917
456.58        12.24255
457.02        12.24018
457.46        12.25947
457.91        12.27096
458.35        12.27292
458.79         12.2886
459.24        12.31312
459.68        12.33649
460.13        12.38854
460.57        12.39442
461.01        12.34249
461.46        12.57498
461.90        12.60408
462.34        12.43901
462.79        12.49884
463.23        12.36244
463.68        12.25184
464.12        12.19761
464.56        12.30922
465.01        12.48026
465.45        12.64586
465.89        12.72452
466.34        12.70559
466.78        12.57526
467.22         12.4035
467.67        12.39275
468.11        12.52876
468.55        12.54911
468.99         12.4564
469.44        12.45777
469.88        12.55446
470.32         12.6255
470.77        12.64395
471.21        12.63286
471.65        12.58954
472.10        12.50975
472.54        12.42577
472.98        12.42155
473.42        12.50743
473.87        12.62092
474.31        12.72654
474.75        12.84458
475.20         12.9358
475.64        12.87754
476.08        12.72918
476.52        12.69483
476.97        12.79206
477.41        12.93133
477.85        13.06211
478.29        13.14103
478.74        13.15254
479.18        13.08822
479.62        13.01019
480.06        13.01839
480.50        13.11369
480.95        13.20558
481.39        13.25826
481.83        13.27874
482.27        13.26296
482.72        13.21508
483.16        13.16766
483.60        13.17276
484.04        13.24558
484.48        13.41083
484.93        13.67653
485.37         13.8308
485.81        14.02044
486.25        14.35021
486.69        14.92803
487.14        14.51828
487.58        14.44841
488.02         14.8354
488.46         14.5457
488.90        14.56651
489.34        14.47729
489.79        14.59341
490.23        14.85425
490.67        15.07992
491.11        15.20707
491.55        15.14256
491.99        14.93907
492.43        14.83606
492.88        14.87515
493.32        14.90605
493.76        14.94723
494.20         15.0994
494.64        15.36222
495.08        15.69702
495.52        16.04641
495.96        16.33272
496.41        16.53227
496.85         16.6335
497.29        16.67161
497.73        16.78665
498.17        16.97237
498.61        17.04328
499.05        17.02264
499.49        17.12173
499.93         17.3547
500.37        17.56894
500.82        17.74529
501.26        17.99879
501.70        18.27601
502.14        18.34048
502.58        18.23185
503.02        18.22434
503.46        18.34143
503.90           18.44
504.34        18.49791
504.78        18.54159
505.22        18.56712
505.66        18.57847
506.10        18.58713
506.54        18.60659
506.98        18.64465
507.42        18.69948
507.86        18.77828
508.30        18.89165
508.74        19.03415
509.18        19.19441
509.62        19.35214
510.06         19.4753
510.50         19.5565
510.94        19.60934
511.38        19.63324
511.82        19.62986
512.26        19.60706
512.70        19.56282
513.14        19.53586
513.58        19.58357
514.02        19.70524
514.46        19.88524
514.90        20.06045
515.34        20.07085
515.78         19.9235
516.22        19.73447
516.66        19.59782
517.10        19.31471
517.54        18.91199
517.98        19.52535
518.42        19.43556
518.86        19.71239
519.30        19.82262
519.74        19.93904
520.18        20.03123
520.62        20.02921
521.06         19.9478
521.50        19.78959
521.93        19.60319
522.37        19.47919
522.81        19.43914
523.25        19.46169
523.69        19.51173
524.13        19.53131
524.57        19.50154
525.01        19.43766
525.45        19.35698
525.89         19.2857
526.32        19.23203
526.76        19.19082
527.20        19.14387
527.64        19.06801
528.08        18.96006
528.52        18.82619
528.96        18.70231
529.40        18.64049
529.83        18.64669
530.27        18.70883
530.71        18.76611
531.15        18.72418
531.59        18.56886
532.03        18.33249
532.46        18.09021
532.90        17.97638
533.34        18.00935
533.78        18.14147
534.22        18.29688
534.66        18.35896
535.09        18.29495
535.53         18.1511
535.97        17.96814
536.41        17.80685
536.85        17.69366
537.28         17.6212
537.72        17.59533
538.16        17.57123
538.60         17.6298
539.04        17.69491
539.47        17.77418
539.91        17.88339
540.35        18.02748
540.79        18.04697
541.22        18.16845
541.66        18.25546
542.10        18.39247
542.54        18.28415
542.97        18.43341
543.41         18.5306
543.85        18.71153
544.29        18.91944
544.72        19.10622
545.16        19.25242
545.60        19.34475
546.04        19.33479
546.47        19.30728
546.91        19.51872
547.35        19.92927
547.79        20.26353
548.22        20.46562
548.66        20.59025
549.10        20.66883
549.53         20.8534
549.97        21.15316
550.41        21.19396
550.84        21.36971
551.28        21.47012
551.72        21.64318
552.15         21.8644
552.59         22.1356
553.03        22.45018
553.46        22.74783
553.90        22.95913
554.34        23.06934
554.77        23.09974
555.21        23.10581
555.65          23.165
556.08        23.29369
556.52        23.46621
556.96        23.64862
557.39        23.81886
557.83        23.95608
558.27         24.0141
558.70        24.01884
559.14        24.05772
559.57        24.13501
560.01        24.23825
560.45        24.33916
560.88        24.36438
561.32        24.35903
561.75        24.39731
562.19        24.57095
562.63        24.67253
563.06         24.7219
563.50        24.78553
563.93        24.86347
564.37        25.00197
564.80        25.08712
565.24        25.21968
565.68        25.34101
566.11        25.45582
566.55        25.58192
566.98        25.64572
567.42        25.66008
567.85        26.02888
568.29        26.05663
568.72        26.39467
569.16        26.77458
569.60        27.06972
570.03        27.24546
570.47        27.36968
570.90        27.34192
571.34        27.72372
571.77        27.64047
572.21        27.90671
572.64        28.26275
573.08        28.26225
573.51        28.46646
573.95        28.87814
574.38        29.29377
574.82        29.53994
