SpectraSmart Spectrum 2.9.0.0
--------- Device Information -----------
Spectrum Name :  反射率_0
Saving Time :  2024/04/20 00:18:05
Spectro-Module Model Name : SE2030-DUVN
Spectro-Module Serial Number : OS361AC55029948
Wavelength Start : 200
Wavelength End : 1025
Wavelength Unit : Wavelength(nm)
Spectrum Unit : Reflectance(%)
-----------Spectrum Setting ------------
Integration Time : 30ms
Average : 10
Boxcar : 0
Background removal :  enabled
linearity correction :  enabled
SC :  disabled
Intensity correction :  disabled
DWT denoise :  enabled
savitzky-golay :  disabled
FFT :  disabled
Running average :  disabled
Kalman :  disabled
High pass :  disabled
---------------BEGIN--------------------
Wavelength(nm)             Reflectance(%)
200.29               0
200.75        64.18399
201.21        67.31569
201.67        73.29514
202.13        81.12378
202.58        89.81864
203.04        99.44684
203.50        106.8622
203.96        105.6928
204.42        97.19353
204.88         86.4035
205.34        77.41565
205.80        71.74121
206.26        68.25636
206.72        65.67628
207.18        64.16144
207.64        65.02509
208.10        68.83216
208.55        74.89408
209.01        79.41542
209.47         80.2999
209.93        78.17246
210.39        73.96057
210.85        69.51052
211.31        66.85622
211.77        66.10214
212.23        66.71227
212.69        67.88957
213.14        67.42205
213.60         64.6623
214.06        62.01695
214.52         60.3577
214.98         59.9044
215.44        60.40989
215.90        61.34662
216.36        63.13516
216.81        66.38734
217.27        70.55802
217.73         75.2194
218.19         78.4931
218.65        77.96481
219.11        73.35297
219.57        64.87665
220.02         54.6647
220.48         48.8851
220.94        49.80747
221.40        56.46533
221.86        65.34058
222.32        70.77728
222.77        71.30155
223.23        68.77314
223.69        65.71503
224.15        65.63815
224.61         68.5703
225.06        72.53737
225.52        75.90807
225.98        77.40878
226.44        77.09089
226.90        75.58254
227.36        73.65714
227.81        72.50922
228.27          72.749
228.73         73.7698
229.19        74.79846
229.65        74.93629
230.10        74.14548
230.56        72.99696
231.02        71.98458
231.48        71.78071
231.93        72.32034
232.39        73.26553
232.85         74.1574
233.31        74.37305
233.77        73.74966
234.22        72.55623
234.68        70.88845
235.14        68.85882
235.60        66.71706
236.05        64.54865
236.51        62.78339
236.97        61.99391
237.43        62.33945
237.88        64.07674
238.34        66.82785
238.80        69.47652
239.26        70.94617
239.71        71.10872
240.17        70.27815
240.63        69.81524
241.08        70.20239
241.54        71.04599
242.00        71.71185
242.46        70.92609
242.91        68.02348
243.37          62.288
243.83        54.43867
244.28        50.36327
244.74        55.34518
245.20         67.8307
245.66        79.39277
246.11        83.11024
246.57         78.3151
247.03        65.21447
247.48        46.53315
247.94        39.46344
248.40        47.55044
248.85        59.02237
249.31        67.72642
249.77        72.15089
250.22        73.45969
250.68        73.06243
251.14        71.68227
251.59        70.56159
252.05        70.61341
252.51        71.67395
252.96        72.67941
253.42         72.1464
253.88        70.10719
254.33        67.43052
254.79        66.55363
255.25        69.54829
255.70        75.59833
256.16        82.87543
256.62        88.92557
257.07        91.04469
257.53        89.52148
257.99        85.72136
258.44        80.71011
258.90        76.77512
259.35        74.10622
259.81        72.77815
260.27        72.05314
260.72        71.35276
261.18         70.8402
261.63        70.13539
262.09        69.84009
262.55        70.14929
263.00         70.8113
263.46          71.766
263.91        72.15232
264.37        71.37638
264.83        69.47099
265.28        66.76453
265.74        64.26207
266.19        62.82475
266.65        62.67417
267.11        63.30952
267.56        64.13006
268.02        64.29714
268.47         63.6138
268.93        62.38071
269.38        60.87999
269.84        59.77542
270.30        59.21967
270.75        58.99792
271.21        58.85837
271.66        58.41271
272.12        57.56648
272.57        56.44273
273.03        55.26535
273.48        54.26297
273.94        53.56823
274.39        53.05899
274.85        52.62001
275.31        52.01197
275.76         51.1561
276.22        50.15171
276.67        49.13179
277.13        48.43814
277.58        48.03698
278.04        47.88109
278.49        47.62016
278.95        46.87842
279.40        45.57811
279.86        43.98532
280.31        42.40485
280.77        41.44419
281.22        41.10431
281.68        41.22827
282.13        41.44804
282.59        41.29057
283.04        40.64203
283.50         39.7243
283.95        38.75211
284.41        38.10175
284.86        37.81179
285.32        37.76952
285.77         37.8182
286.22        37.81071
286.68         37.6959
287.13        37.51015
287.59        37.27378
288.04        36.95138
288.50        36.58066
288.95        36.12037
289.41        35.67055
289.86        35.30676
290.32        35.09668
290.77        35.00776
291.22        34.99314
291.68        34.93933
292.13        34.82662
292.59        34.71598
293.04        34.69241
293.50        34.91413
293.95         35.3908
294.40        36.05443
294.86        36.80107
295.31        37.47827
295.77        38.04174
296.22         38.5333
296.68        38.98571
297.13        39.43459
297.58        39.90743
298.04        40.39239
298.49        40.90805
298.95        41.53256
299.40        42.25071
299.85        43.04041
300.31        43.83585
300.76        44.51672
301.21        45.06112
301.67        45.53482
302.12         45.9417
302.58        46.37111
303.03        46.81627
303.48        47.27369
303.94        47.79251
304.39        48.39779
304.84        49.08997
305.30         49.8421
305.75        50.53536
306.20        51.02245
306.66        51.29791
307.11        51.38665
307.57        51.39894
308.02        51.41319
308.47        51.48853
308.93        51.59254
309.38        51.71428
309.83        51.90012
310.29        52.13675
310.74        52.41422
311.19        52.62547
311.65        52.59118
312.10        52.28538
312.55        51.77425
313.00        51.23333
313.46        50.93425
313.91        50.91753
314.36        51.11319
314.82        51.36863
315.27        51.46152
315.72        51.30949
316.18        50.99551
316.63        50.59389
317.08        50.23516
317.53        49.95929
317.99        49.72004
318.44         49.4908
318.89        49.22028
319.35        48.89985
319.80        48.55956
320.25        48.23785
320.70        47.99063
321.16        47.81823
321.61        47.69967
322.06        47.58005
322.51        47.37793
322.97        47.06491
323.42         46.6805
323.87        46.25138
324.32        45.83158
324.78        45.43963
325.23        45.08041
325.68        44.75898
326.13        44.49225
326.59        44.27658
327.04        44.13118
327.49        44.02522
327.94        43.91431
328.39        43.77797
328.85        43.59302
329.30        43.40922
329.75        43.24871
330.20         43.1176
330.66        42.98715
331.11        42.84711
331.56        42.61507
332.01        42.27895
332.46        41.86595
332.92        41.43064
333.37        41.08903
333.82        40.87574
334.27         40.7821
334.72        40.76419
335.17          40.742
335.63        40.67509
336.08        40.59071
336.53        40.53219
336.98        40.59305
337.43        40.78022
337.88         41.0567
338.34          41.276
338.79        41.25542
339.24        40.94234
339.69        40.39736
340.14        39.81609
340.59         39.5275
341.05        39.60017
341.50        39.94128
341.95        40.34874
342.40        40.50537
342.85        40.33867
343.30         39.9638
343.75        39.51283
344.20        39.20126
344.66        39.09087
345.11        39.07701
345.56        39.13409
346.01        39.22268
346.46        39.30396
346.91        39.40878
347.36         39.4286
347.81        39.18338
348.26        38.67365
348.72        37.98538
349.17        37.30446
349.62        37.01628
350.07        37.20266
350.52        37.72406
350.97        38.36918
351.42        38.82255
351.87        38.97883
352.32        38.91086
352.77        38.66548
353.22        38.32322
353.67        37.93682
354.13        37.51429
354.58        37.05554
355.03        36.61059
355.48        36.21078
355.93         35.8728
356.38        35.65316
356.83        35.62156
357.28        35.76486
357.73        36.03383
358.18        36.30598
358.63        36.38457
359.08        36.21463
359.53        35.85276
359.98        35.37506
360.43        34.90334
360.88         34.4868
361.33        34.09969
361.78        33.76293
362.23        33.51096
362.68        33.34242
363.13        33.24913
363.58        33.18091
364.03        33.05036
364.48        32.82743
364.93        32.52389
365.38         32.1553
365.83         31.7615
366.28         31.3686
366.73        30.97703
367.18        30.60305
367.63        30.26837
368.08        29.97983
368.53        29.73885
368.98        29.54112
369.43        29.37042
369.88        29.21705
370.33        29.08245
370.78         28.9479
371.23        28.78734
371.68         28.5965
372.13        28.37469
372.58        28.15756
373.03        28.01087
373.48        27.94115
373.93         27.9189
374.38        27.88601
374.83        27.75187
375.28        27.49527
375.72        27.14008
376.17        26.74579
376.62        26.36774
377.07        26.04303
377.52        25.76708
377.97        25.55691
378.42        25.43525
378.87        25.39518
379.32        25.42079
379.77        25.48084
380.22        25.52533
380.67        25.53406
381.11        25.51664
381.56        25.44674
382.01        25.30897
382.46        25.10619
382.91        24.83989
383.36        24.56568
383.81        24.36638
384.26        24.26064
384.71        24.24281
385.15        24.23463
385.60        24.11962
386.05        23.87767
386.50        23.54195
386.95        23.23347
387.40        23.14189
387.85        23.29115
388.29        23.60393
388.74        23.92146
389.19        24.00492
389.64        23.81355
390.09        23.41708
390.54        22.97533
390.98         22.7373
391.43        22.77787
391.88        22.99721
392.33        23.23724
392.78        23.27132
393.23        23.06887
393.67        22.70795
394.12        22.35568
394.57        22.16235
395.02        22.16204
395.47        22.29795
395.91         22.4907
396.36        22.57871
396.81        22.52495
397.26        22.37507
397.71        22.21144
398.15        22.13718
398.60        22.19826
399.05        22.33916
399.50         22.4796
399.95        22.50908
400.39         22.4054
400.84         22.1988
401.29        21.97447
401.74         21.8861
402.18        21.97854
402.63        22.19627
403.08        22.42115
403.53        22.46347
403.97        22.28754
404.42        21.96812
404.87         21.6366
405.32        21.50777
405.76        21.62697
406.21        21.91841
406.66        22.25854
407.11        22.45569
407.55        22.46077
408.00         22.3382
408.45        22.15729
408.90        21.98266
409.34         21.8775
409.79        21.91896
410.24        22.04273
410.68        22.05963
411.13        21.95644
411.58        21.83716
412.03        21.73356
412.47        21.66587
412.92        21.64614
413.37        21.65955
413.81        21.71559
414.26        21.84604
414.71        22.03899
415.15        22.29219
415.60        22.51649
416.05        22.59647
416.49        22.50447
416.94        22.27524
417.39        22.00545
417.83        21.85451
418.28        21.86833
418.73        21.99454
419.17        22.15094
419.62        22.19859
420.07        22.11086
420.51        21.93976
420.96        21.75419
421.41        21.63466
421.85        21.59975
422.30        21.63373
422.74        21.70992
423.19         21.8271
423.64        21.96542
424.08        22.13738
424.53        22.29755
424.98        22.39806
425.42        22.42908
425.87         22.4027
426.31        22.33988
426.76        22.28734
427.21        22.24807
427.65        22.19991
428.10         22.1752
428.54        22.19675
428.99        22.26933
429.44        22.48454
429.88         22.7056
430.33        22.56955
430.77        22.15314
431.22        21.91187
431.66        21.91326
432.11        22.00714
432.56         22.1657
433.00        22.48883
433.45         22.7623
433.89        22.67742
434.34        22.38519
434.78         22.1016
435.23        21.79324
435.67        22.90591
436.12        22.23277
436.57        22.16181
437.01        21.85375
437.46        21.75289
437.90        21.88424
438.35        22.04978
438.79        22.17786
439.24        22.25144
439.68        22.25218
440.13        22.01161
440.57        21.68656
441.02        21.87925
441.46          22.393
441.91        22.51849
442.35        21.71838
442.80         21.4932
443.24         21.6257
443.69        21.64775
444.13        21.52082
444.58        21.42516
445.02        21.37326
445.47         21.3708
445.91         21.4085
446.36         21.4215
446.80        21.39557
447.24        21.37519
447.69         21.3586
448.13        21.29783
448.58        21.20134
449.02        21.08061
449.47        20.95991
449.91        20.87013
450.36         20.8276
450.80        20.81902
451.25        20.84245
451.69        20.87241
452.13        20.90561
452.58         20.9402
453.02        20.97433
453.47         21.0097
453.91        21.04531
454.36         21.0761
454.80        21.08971
455.24        21.06592
455.69         21.0121
456.13        20.91675
456.58        20.82456
457.02         20.7892
457.46        20.81634
457.91        20.84213
458.35        20.84812
458.79        20.86202
459.24        20.87316
459.68        20.88162
460.13        20.94119
460.57        20.93766
461.01        20.84927
461.46        21.24914
461.90        21.31701
462.34        21.08887
462.79        21.26996
463.23        21.14187
463.68        21.03438
464.12        20.92966
464.56        21.00492
465.01        21.11206
465.45        21.20638
465.89        21.24365
466.34        21.21958
466.78        21.07959
467.22        20.89551
467.67        20.93119
468.11        21.14276
468.55        21.11611
468.99        20.88069
469.44        20.82362
469.88        20.95903
470.32        21.06625
470.77        21.11194
471.21        21.15037
471.65        21.17416
472.10        21.16781
472.54        21.14331
472.98        21.16319
473.42         21.2331
473.87         21.2763
474.31        21.28989
474.75        21.40145
475.20        21.56392
475.64        21.54162
476.08        21.39104
476.52        21.38852
476.97        21.54631
477.41        21.73443
477.85        21.88241
478.29        21.94085
478.74         21.8962
479.18        21.72929
479.62        21.55085
480.06        21.53721
480.50        21.69133
480.95        21.86279
481.39        21.98125
481.83        22.04246
482.27        22.02855
482.72        21.93402
483.16        21.82184
483.60        21.78883
484.04        21.85906
484.48        22.07944
484.93        22.42451
485.37        22.51087
485.81        22.62629
486.25        22.90053
486.69        23.63208
487.14        23.28486
487.58        22.96062
488.02          23.549
488.46        23.31447
488.90         23.4636
489.34        23.34937
489.79        23.48042
490.23         23.7812
490.67        23.85467
491.11        23.73547
491.55        23.70296
491.99        23.77629
492.43        23.81215
492.88        23.81847
493.32        23.86351
493.76        23.97853
494.20        24.17133
494.64        24.43951
495.08        24.80128
495.52        25.17379
495.96        25.37127
496.41        25.41007
496.85        25.44226
497.29        25.51715
497.73          25.688
498.17        25.93054
498.61         26.0549
499.05        26.07121
499.49        26.21109
499.93        26.48439
500.37        26.68337
500.82        26.80922
501.26        27.08057
501.70         27.4312
502.14        27.49122
502.58        27.31554
503.02        27.30625
503.46        27.49146
503.90        27.66059
504.34        27.76625
504.78        27.82413
505.22        27.82347
505.66        27.77278
506.10        27.71033
506.54        27.69314
506.98        27.74108
507.42        27.84208
507.86        27.98271
508.30        28.13877
508.74        28.29414
509.18        28.44626
509.62        28.59079
510.06        28.72041
510.50        28.83303
510.94        28.93366
511.38        29.00117
511.82        29.00569
512.26        28.94918
512.70        28.84087
513.14        28.74742
513.58        28.76786
514.02        28.91098
514.46        29.15108
514.90        29.39702
515.34        29.43258
515.78        29.27864
516.22        29.03234
516.66        28.81876
517.10        28.51382
517.54        28.15642
517.98        28.73768
518.42         28.7085
518.86        28.97589
519.30        29.05729
519.74        29.11766
520.18        29.15434
520.62        29.14269
521.06        29.10229
521.50        29.02114
521.93         28.9132
522.37        28.81283
522.81        28.73187
523.25         28.6724
523.69        28.63251
524.13        28.60514
524.57        28.58496
525.01        28.56774
525.45        28.55883
525.89        28.56559
526.32         28.5841
526.76         28.6143
527.20        28.62067
527.64        28.55278
528.08        28.40528
528.52        28.19162
528.96        27.97731
529.40        27.86233
529.83        27.86251
530.27        27.95534
530.71        28.05497
531.15         28.0263
531.59        27.84625
532.03        27.56377
532.46        27.27032
532.90        27.12902
533.34        27.16487
533.78        27.31824
534.22        27.50895
534.66        27.61483
535.09        27.59712
535.53        27.50659
535.97        27.37131
536.41        27.23094
536.85        27.10834
537.28        27.00414
537.72        26.94563
538.16        26.89581
538.60        26.98731
539.04        27.09443
539.47        27.21039
539.91        27.33388
540.35        27.46929
540.79        27.38566
541.22        27.45613
541.66        27.51689
542.10        27.70266
542.54        27.55526
542.97        27.80032
543.41        27.91814
543.85        28.10392
544.29        28.29086
544.72        28.43783
545.16        28.56262
545.60        28.65466
546.04        28.62416
546.47        28.57912
546.91        28.87011
547.35        29.42976
547.79        29.86434
548.22         30.0921
548.66        30.19494
549.10        30.22082
549.53        30.38976
549.97        30.72986
550.41        30.73131
550.84        30.97187
551.28        31.13453
551.72        31.40264
552.15          31.688
552.59        31.98384
553.03        32.29807
553.46        32.57459
553.90        32.76301
554.34        32.85241
554.77        32.86057
555.21        32.84581
555.65        32.88861
556.08        33.00549
556.52        33.16946
556.96        33.35044
557.39        33.54111
557.83        33.71727
558.27        33.80694
558.70        33.82607
559.14          33.869
559.57        33.93467
560.01        34.01422
560.45        34.09363
560.88        34.10247
561.32        34.10626
561.75        34.21822
562.19         34.5344
562.63        34.66085
563.06        34.64182
563.50        34.70581
563.93        34.84627
564.37         35.0172
564.80        35.05559
565.24        35.16455
565.68        35.27624
566.11        35.37892
566.55        35.49738
566.98        35.56871
567.42        35.57958
567.85        35.97142
568.29        35.81396
568.72        36.17271
569.16        36.68748
569.60        37.05606
570.03         37.2198
570.47        37.39579
570.90        37.41247
571.34        37.84906
571.77        37.53791
572.21        38.02681
572.64          38.289
573.08        38.56343
573.51        38.40929
573.95        38.87794
574.38        39.41959
574.82        39.77898
