SpectraSmart Spectrum 2.9.0.0
--------- Device Information -----------
Spectrum Name :  反射率_0
Saving Time :  2024/04/20 00:43:34
Spectro-Module Model Name : SE2030-DUVN
Spectro-Module Serial Number : OS361AC55029948
Wavelength Start : 200
Wavelength End : 1025
Wavelength Unit : Wavelength(nm)
Spectrum Unit : Reflectance(%)
-----------Spectrum Setting ------------
Integration Time : 30ms
Average : 10
Boxcar : 0
Background removal :  enabled
linearity correction :  enabled
SC :  disabled
Intensity correction :  disabled
DWT denoise :  enabled
savitzky-golay :  disabled
FFT :  disabled
Running average :  disabled
Kalman :  disabled
High pass :  disabled
---------------BEGIN--------------------
Wavelength(nm)             Reflectance(%)
200.29               0
200.75        58.43597
201.21        59.45374
201.67        62.72554
202.13        68.28903
202.58        75.83642
203.04        85.85718
203.50        94.78308
203.96        94.51414
204.42        85.74885
204.88        74.16402
205.34        64.68245
205.80        59.48447
206.26        57.61633
206.72        58.16052
207.18        61.19053
207.64        65.14919
208.10        67.67816
208.55        69.06491
209.01        69.15096
209.47        69.23626
209.93        69.49961
210.39        69.27193
210.85        68.61185
211.31        67.67775
211.77        66.35067
212.23        64.67216
212.69        62.26664
213.14        59.35979
213.60        56.82052
214.06        55.55086
214.52        55.54778
214.98        56.73265
215.44        58.89961
215.90        61.88607
216.36         65.5156
216.81        68.72717
217.27        70.60899
217.73        71.54462
218.19        71.14694
218.65        68.92316
219.11        64.94151
219.57         58.9185
220.02        52.54964
220.48        50.73296
220.94        54.76206
221.40        63.77724
221.86        73.59207
222.32        77.77399
222.77        75.11528
223.23        67.99747
223.69        60.44878
224.15        58.24644
224.61        61.51597
225.06        67.15442
225.52        72.49372
225.98        75.34206
226.44        75.70822
226.90        74.68578
227.36        73.00252
227.81        71.72186
228.27        71.57112
228.73        71.95457
229.19        72.68996
229.65        73.64526
230.10        74.59293
230.56        75.61275
231.02        76.50176
231.48        77.06829
231.93        77.22052
232.39        77.05571
232.85        76.51414
233.31        75.57803
233.77        74.30177
234.22        72.75984
234.68        71.08879
235.14         69.4662
235.60        68.06811
236.05        66.96844
236.51        66.28482
236.97        66.10821
237.43        66.46884
237.88        67.59711
238.34        69.21181
238.80        70.90429
239.26        72.04131
239.71        72.30472
240.17        71.68346
240.63        70.93939
241.08        70.35914
241.54        69.85894
242.00        68.67985
242.46        65.13334
242.91        58.20963
243.37        46.37433
243.83        30.42232
244.28        20.36598
244.74        26.38135
245.20        46.66648
245.66        67.42248
246.11         76.9399
246.57        74.55128
247.03        61.46904
247.48        40.40502
247.94        30.48351
248.40         37.2175
248.85        48.08277
249.31        56.59743
249.77        61.20423
250.22        62.98025
250.68         63.5668
251.14        63.41162
251.59        62.83052
252.05        62.36474
252.51        61.91117
252.96        61.40759
253.42        61.24906
253.88        61.59555
254.33        62.30197
254.79        64.37717
255.25        68.51773
255.70        74.17335
256.16        80.47926
256.62        85.72967
257.07        88.03334
257.53        87.68861
257.99        85.48412
258.44        82.33434
258.90        80.27292
259.35        79.07703
259.81        78.80791
260.27        78.53022
260.72         77.4826
261.18        76.03694
261.63        74.01526
262.09        72.37225
262.55        71.78381
263.00        72.10379
263.46        73.10996
263.91        73.73023
264.37        73.13908
264.83        71.30929
265.28        68.60747
265.74        66.13375
266.19        64.86069
266.65        64.99401
267.11        65.96352
267.56        66.99131
268.02        67.00735
268.47        65.79787
268.93        63.75259
269.38        61.38995
269.84        59.78338
270.30        59.20008
270.75        59.30743
271.21        59.62018
271.66        59.39096
272.12        58.43925
272.57        56.99865
273.03        55.44679
273.48        54.25144
273.94        53.59887
274.39        53.26801
274.85        53.02703
275.31        52.47951
275.76        51.52273
276.22        50.33244
276.67        49.11996
277.13         48.3369
277.58        47.96791
278.04        47.90525
278.49        47.77176
278.95        47.15478
279.40        45.96111
279.86        44.48616
280.31        42.98093
280.77        41.97771
281.22        41.47942
281.68        41.34016
282.13        41.32411
282.59          41.161
283.04        40.74723
283.50        40.22852
283.95         39.6152
284.41        38.98279
284.86         38.3381
285.32        37.69408
285.77        37.10938
286.22        36.76698
286.68        36.68375
287.13        36.76941
287.59        36.89801
288.04        36.82864
288.50        36.53828
288.95         36.0545
289.41        35.50645
289.86        35.01057
290.32        34.66349
290.77        34.41969
291.22        34.26056
291.68        34.12354
292.13         33.9961
292.59        33.92519
293.04        33.97476
293.50         34.2627
293.95        34.77998
294.40        35.46426
294.86        36.19628
295.31        36.80148
295.77        37.23871
296.22         37.5612
296.68        37.83332
297.13        38.14555
297.58        38.54195
298.04        38.99467
298.49        39.51411
298.95        40.16005
299.40         40.9047
299.85        41.73062
300.31        42.54309
300.76        43.17936
301.21        43.61616
301.67        43.93375
302.12        44.18725
302.58        44.53971
303.03        45.00048
303.48         45.5452
303.94        46.17488
304.39        46.84167
304.84        47.52678
305.30        48.21916
305.75        48.84556
306.20        49.32839
306.66        49.67046
307.11        49.87059
307.57        49.97764
308.02        49.98067
308.47        49.92978
308.93        49.83455
309.38        49.75359
309.83        49.83502
310.29         50.0882
310.74        50.46524
311.19        50.81739
311.65        50.90144
312.10        50.66404
312.55        50.18437
313.00        49.63532
313.46        49.28462
313.91        49.17817
314.36        49.24914
314.82        49.36064
315.27        49.31934
315.72        49.06141
316.18        48.67408
316.63        48.24014
317.08        47.89585
317.53        47.67494
317.99        47.51927
318.44        47.38791
318.89        47.20689
319.35        46.95209
319.80        46.65297
320.25        46.32607
320.70         45.9966
321.16        45.66843
321.61        45.33643
322.06        44.99377
322.51         44.6386
322.97        44.26351
323.42        43.88339
323.87        43.49446
324.32        43.09514
324.78        42.68154
325.23        42.27404
325.68        41.86848
326.13         41.4663
326.59        41.07354
327.04        40.71846
327.49        40.41384
327.94        40.18592
328.39        40.03157
328.85        39.91017
329.30        39.84114
329.75        39.79358
330.20        39.74559
330.66        39.67714
331.11        39.56268
331.56        39.30193
332.01        38.88438
332.46        38.33946
332.92        37.75599
333.37        37.30901
333.82        37.05391
334.27        36.97091
334.72        36.99327
335.17        36.99489
335.63        36.91867
336.08        36.80162
336.53        36.69399
336.98         36.6991
337.43        36.82955
337.88        37.04369
338.34        37.19708
338.79        37.11235
339.24        36.73783
339.69        36.13176
340.14        35.49585
340.59        35.16632
341.05        35.21317
341.50        35.54787
341.95        35.94735
342.40        36.06063
342.85        35.81253
343.30        35.32692
343.75        34.78019
344.20        34.46058
344.66        34.44036
345.11        34.58805
345.56        34.81578
346.01        34.98446
346.46        35.03268
346.91        35.02424
347.36        34.90167
347.81        34.56466
348.26        34.03432
348.72        33.36823
349.17         32.7279
349.62        32.46214
350.07        32.63705
350.52         33.1283
350.97        33.72535
351.42        34.10688
351.87        34.17857
352.32        34.02914
352.77        33.71964
353.22        33.35485
353.67        32.99476
354.13        32.62889
354.58         32.2807
355.03        32.03432
355.48        31.90648
355.93        31.89059
356.38        31.94957
356.83        32.00954
357.28        32.03598
357.73        32.02879
358.18        31.97585
358.63        31.86803
359.08        31.70503
359.53        31.48874
359.98         31.2263
360.43        30.92943
360.88        30.61255
361.33        30.28802
361.78        29.98625
362.23        29.75334
362.68        29.59715
363.13        29.49638
363.58        29.42326
364.03        29.33215
364.48        29.20055
364.93        29.03497
365.38        28.81454
365.83        28.51395
366.28        28.14054
366.73        27.70688
367.18        27.27389
367.63        26.93503
368.08        26.71136
368.53        26.58495
368.98        26.49618
369.43        26.34321
369.88        26.10582
370.33        25.81882
370.78        25.53555
371.23        25.34981
371.68        25.28541
372.13        25.29746
372.58        25.35471
373.03        25.40874
373.48        25.42791
373.93        25.42179
374.38        25.35249
374.83        25.16139
375.28        24.84961
375.72        24.43033
376.17        24.00336
376.62        23.69224
377.07        23.53639
377.52        23.50461
377.97         23.5445
378.42        23.56722
378.87         23.5416
379.32        23.48928
379.77        23.42445
380.22        23.36772
380.67        23.32354
381.11        23.28123
381.56         23.2174
382.01        23.11961
382.46        22.98484
382.91        22.81659
383.36        22.64361
383.81         22.5048
384.26        22.40814
384.71        22.35336
385.15        22.29016
385.60        22.14713
386.05        21.91642
386.50        21.62319
386.95        21.35656
387.40        21.25647
387.85        21.34041
388.29        21.54864
388.74        21.77093
389.19        21.84037
389.64        21.72289
390.09        21.46388
390.54         21.1564
390.98        20.94326
391.43        20.88317
391.88        20.92215
392.33         20.9777
392.78         20.9314
393.23        20.76904
393.67        20.52401
394.12        20.31061
394.57        20.21561
395.02        20.25599
395.47        20.39754
395.91        20.56735
396.36        20.61671
396.81        20.51723
397.26        20.30819
397.71        20.08759
398.15        19.98482
398.60        20.04592
399.05        20.21187
399.50        20.38049
399.95        20.40638
400.39        20.26067
400.84        19.98274
401.29        19.67897
401.74        19.54345
402.18        19.63192
402.63        19.87433
403.08        20.13031
403.53        20.17636
403.97        19.96901
404.42        19.59698
404.87        19.20236
405.32        19.01602
405.76        19.09206
406.21        19.34939
406.66        19.67126
407.11        19.87725
407.55        19.91775
408.00        19.85385
408.45        19.73778
408.90        19.60891
409.34        19.51701
409.79        19.53037
410.24         19.6052
410.68        19.59579
411.13        19.49499
411.58        19.39204
412.03        19.29722
412.47        19.19817
412.92        19.10285
413.37        19.01096
413.81        18.96228
414.26         19.0322
414.71        19.21742
415.15        19.49986
415.60        19.76681
416.05        19.86086
416.49        19.74164
416.94        19.45943
417.39        19.12242
417.83        18.90871
418.28        18.87332
418.73        18.95827
419.17        19.08901
419.62        19.13746
420.07        19.07584
420.51        18.95156
420.96         18.8149
421.41        18.71897
421.85         18.6756
422.30        18.67307
422.74        18.69804
423.19        18.76629
423.64        18.86349
424.08        18.99648
424.53        19.11455
424.98        19.15836
425.42         19.1177
425.87        19.01302
426.31        18.87873
426.76         18.7786
427.21        18.71967
427.65         18.6751
428.10        18.66294
428.54        18.68544
428.99        18.73981
429.44        18.90776
429.88        19.07651
430.33        18.94266
430.77        18.57553
431.22        18.35668
431.66        18.34291
432.11        18.42117
432.56        18.56984
433.00        18.83734
433.45        19.04784
433.89        19.02641
434.34        18.85995
434.78        18.56977
435.23        18.15792
435.67        18.98002
436.12         18.3902
436.57        18.30243
437.01        18.02613
437.46        17.95391
437.90        18.10444
438.35        18.31363
438.79        18.49747
439.24         18.5968
439.68        18.58521
440.13         18.3329
440.57        17.99068
441.02        18.08737
441.46        18.46849
441.91        18.54464
442.35        17.86226
442.80        17.63962
443.24        17.69127
443.69          17.639
444.13        17.47015
444.58        17.36078
445.02        17.32589
445.47        17.36394
445.91        17.43612
446.36        17.44114
446.80        17.35845
447.24        17.23707
447.69        17.12145
448.13         17.0418
448.58         17.0165
449.02        17.03239
449.47        17.05167
449.91        17.00742
450.36        16.89495
450.80        16.73512
451.25        16.58941
451.69        16.53355
452.13        16.58694
452.58        16.71469
453.02        16.86496
453.47        16.95981
453.91        16.97871
454.36        16.94266
454.80        16.87628
455.24        16.82043
455.69        16.79785
456.13        16.77841
456.58        16.77105
457.02        16.78252
457.46        16.80878
457.91        16.80964
458.35        16.79126
458.79        16.80318
459.24        16.84208
459.68        16.89692
460.13        16.98999
460.57        16.99381
461.01        16.88686
461.46        17.14458
461.90        17.13093
462.34        16.91536
462.79         17.0729
463.23        17.01422
463.68        16.98395
464.12        16.93056
464.56        16.98816
465.01        17.05046
465.45        17.09587
465.89        17.10612
466.34        17.08396
466.78        16.98083
467.22        16.85296
467.67        16.91243
468.11        17.12167
468.55        17.14324
468.99        16.99876
469.44        17.00047
469.88        17.15718
470.32        17.28633
470.77        17.34729
471.21        17.36794
471.65        17.34096
472.10         17.2617
472.54        17.16105
472.98        17.12596
473.42        17.17072
473.87        17.22453
474.31        17.26793
474.75         17.3743
475.20        17.49945
475.64          17.463
476.08        17.32421
476.52         17.3272
476.97        17.48587
477.41        17.68573
477.85        17.86093
478.29        17.95836
478.74        17.96013
479.18        17.85195
479.62        17.72227
480.06        17.71375
480.50        17.82973
480.95        17.94728
481.39        18.01587
481.83        18.04281
482.27        18.01917
482.72        17.94321
483.16        17.86197
483.60        17.85183
484.04        17.92815
484.48        18.12099
484.93        18.44278
485.37        18.56556
485.81        18.65188
486.25        18.99792
486.69        19.71585
487.14        19.04315
487.58        18.83684
488.02        19.69299
488.46        19.19865
488.90        19.32626
489.34         19.1793
489.79         19.3254
490.23         19.6769
490.67         19.8526
491.11        19.85396
491.55        19.84489
491.99        19.85811
492.43        19.87651
492.88        19.91638
493.32         19.9642
493.76        20.04222
494.20        20.19455
494.64        20.42344
495.08        20.71846
495.52        21.02394
495.96        21.24448
496.41        21.37664
496.85         21.4559
497.29        21.52283
497.73        21.69766
498.17        21.96105
498.61        22.10203
499.05        22.13164
499.49         22.2774
499.93        22.54932
500.37         22.7613
500.82        22.90276
501.26        23.14464
501.70        23.42822
502.14        23.44529
502.58        23.25916
503.02        23.23595
503.46        23.40549
503.90        23.58247
504.34        23.71391
504.78        23.79211
505.22        23.80125
505.66        23.75359
506.10        23.69035
506.54        23.67427
506.98        23.72563
507.42        23.82911
507.86        23.96476
508.30        24.09852
508.74        24.21533
509.18         24.3208
509.62         24.4215
510.06        24.52673
510.50        24.63883
510.94        24.75555
511.38        24.85532
511.82        24.90662
512.26        24.90577
512.70          24.861
513.14        24.81923
513.58        24.84981
514.02         24.9581
514.46         25.1264
514.90        25.29358
515.34        25.29763
515.78        25.16046
516.22        24.97989
516.66        24.85061
517.10        24.58828
517.54        24.21714
517.98        24.79539
518.42        24.71241
518.86        24.96263
519.30        25.04728
519.74        25.13204
520.18        25.18951
520.62        25.15573
521.06        25.04719
521.50        24.86624
521.93        24.66876
522.37        24.55541
522.81        24.54818
523.25        24.62304
523.69        24.72758
524.13        24.77695
524.57        24.74737
525.01        24.66017
525.45        24.55355
525.89        24.48877
526.32        24.47923
526.76        24.50551
527.20        24.52435
527.64        24.47352
528.08         24.3403
528.52        24.14564
528.96         23.9432
529.40        23.81099
529.83        23.76574
530.27        23.79273
530.71        23.82928
531.15        23.77858
531.59         23.6249
532.03        23.40118
532.46        23.18454
532.90         23.1127
533.34        23.20027
533.78        23.39549
534.22         23.6073
534.66        23.69752
535.09        23.63004
535.53        23.45897
535.97        23.24411
536.41        23.07736
536.85        22.99092
537.28        22.96832
537.72        22.99889
538.16         22.9946
538.60        23.05524
539.04        23.09307
539.47        23.12848
539.91        23.19956
540.35        23.32073
540.79        23.28172
541.22        23.38672
541.66        23.47699
542.10        23.66175
542.54          23.558
542.97        23.78819
543.41        23.91148
543.85        24.09481
544.29        24.27415
544.72         24.4188
545.16        24.55323
545.60        24.66842
546.04        24.68597
546.47        24.68007
546.91        24.92526
547.35        25.36121
547.79        25.65501
548.22        25.77105
548.66        25.84148
549.10        25.91005
549.53        26.12188
549.97        26.48189
550.41        26.54076
550.84          26.785
551.28        26.93423
551.72        27.16074
552.15        27.41976
552.59        27.71049
553.03        28.02738
553.46        28.30959
553.90        28.49544
554.34        28.57286
554.77        28.56707
555.21        28.53903
555.65        28.56949
556.08        28.67559
556.52         28.8416
556.96         29.0135
557.39        29.19966
557.83        29.36814
558.27        29.45744
558.70        29.47566
559.14        29.49586
559.57        29.51915
560.01        29.54275
560.45        29.56445
560.88        29.54515
561.32        29.54807
561.75        29.64661
562.19         29.9232
562.63        30.07905
563.06        30.12725
563.50        30.16679
563.93        30.21412
564.37        30.34926
564.80         30.4386
565.24        30.59723
565.68        30.75267
566.11        30.88522
566.55        31.01602
566.98         31.1228
567.42        31.18636
567.85        31.53968
568.29        31.37108
568.72        31.67019
569.16        32.11896
569.60        32.39375
570.03        32.45124
570.47        32.54094
570.90        32.55983
571.34        32.82105
571.77        32.77654
572.21        33.13032
572.64        33.45465
573.08        33.50615
573.51        33.60688
573.95        34.33619
574.38        34.53101
574.82        34.74555
