SpectraSmart Spectrum 2.9.0.0
--------- Device Information -----------
Spectrum Name :  反射率_0
Saving Time :  2024/04/20 00:50:51
Spectro-Module Model Name : SE2030-DUVN
Spectro-Module Serial Number : OS361AC55029948
Wavelength Start : 200
Wavelength End : 1025
Wavelength Unit : Wavelength(nm)
Spectrum Unit : Reflectance(%)
-----------Spectrum Setting ------------
Integration Time : 30ms
Average : 10
Boxcar : 0
Background removal :  enabled
linearity correction :  enabled
SC :  disabled
Intensity correction :  disabled
DWT denoise :  enabled
savitzky-golay :  disabled
FFT :  disabled
Running average :  disabled
Kalman :  disabled
High pass :  disabled
---------------BEGIN--------------------
Wavelength(nm)             Reflectance(%)
200.29               0
200.75        76.49894
201.21        74.23912
201.67        73.01483
202.13         76.7701
202.58        87.51315
203.04        105.2482
203.50        123.8868
203.96        128.3462
204.42        117.6195
204.88        101.2443
205.34        87.47881
205.80        80.38197
206.26        78.83064
206.72        81.34776
207.18        88.09188
207.64        95.73042
208.10        99.31069
208.55        99.63591
209.01        97.37182
209.47        94.51705
209.93        91.76921
210.39        88.50835
210.85        85.49701
211.31        83.73342
211.77        83.11607
212.23        83.52253
212.69        84.47887
213.14        84.39773
213.60        82.61789
214.06        80.91239
214.52        79.83591
214.98        79.59113
215.44        80.01086
215.90        80.62122
216.36        81.96922
216.81        84.95547
217.27        89.18072
217.73        94.28436
218.19        98.16531
218.65        98.09552
219.11        93.82961
219.57        85.71152
220.02        76.44988
220.48        73.14274
220.94        78.18304
221.40        89.96898
221.86        103.8097
222.32        112.5293
222.77          114.28
223.23        111.5103
223.69        107.1182
224.15        105.2618
224.61        106.6283
225.06        109.3293
225.52        112.2661
225.98        114.4277
226.44        115.8152
226.90        116.8725
227.36        118.0707
227.81        119.7754
228.27        122.0314
228.73        124.2482
229.19        125.5561
229.65        125.0407
230.10        122.8684
230.56        120.0365
231.02        117.3492
231.48        115.9457
231.93        115.7939
232.39         116.462
232.85        117.4192
233.31        117.9689
233.77        117.8784
234.22         117.474
234.68        116.5678
235.14        114.8034
235.60        112.3167
236.05         109.233
236.51        106.3975
236.97        105.0777
237.43        105.5444
237.88        108.0067
238.34        111.2941
238.80        112.7952
239.26        110.7064
239.71         105.645
240.17         99.0405
240.63        93.56738
241.08        90.03662
241.54        87.88766
242.00         86.4329
242.46        84.13408
242.91        80.18323
243.37         73.8421
243.83        65.98255
244.28        62.87322
244.74         69.5866
245.20         83.6446
245.66        96.16798
246.11        100.5543
246.57        96.23344
247.03        83.32758
247.48        63.35391
247.94        51.98372
248.40        55.25394
248.85        63.24635
249.31        70.06168
249.77        73.80931
250.22        75.23278
250.68        75.68534
251.14         75.5795
251.59         75.3393
252.05        75.44098
252.51         75.7796
252.96        76.14455
253.42        76.56536
253.88        77.24515
254.33        78.32213
254.79        80.90388
255.25        85.77627
255.70        92.38636
256.16        99.69272
256.62        106.4174
257.07        111.1975
257.53        114.1349
257.99        115.6182
258.44        115.1519
258.90        113.2808
259.35        110.3146
259.81        107.8777
260.27        106.0962
260.72        105.1077
261.18        105.1789
261.63        105.3566
262.09        106.0891
262.55        107.1783
263.00        108.1782
263.46        109.2876
263.91        109.4997
264.37        108.2918
264.83        105.7053
265.28         102.111
265.74        98.75491
266.19        96.64185
266.65        96.10928
267.11        96.54996
267.56        97.27923
268.02        97.41778
268.47        96.69706
268.93         95.4496
269.38        93.91938
269.84        92.71058
270.30        91.96439
270.75        91.45366
271.21         90.9887
271.66        90.24482
272.12        89.15965
272.57        87.82952
273.03        86.43388
273.48        85.09548
273.94        83.96809
274.39         82.9445
274.85        82.03635
275.31        81.11427
275.76        80.09416
276.22         79.0508
276.67        77.98305
277.13        77.11314
277.58        76.34663
278.04        75.71564
278.49        74.92523
278.95        73.76048
279.40        72.13582
279.86        70.32302
280.31        68.50941
280.77        67.22045
281.22        66.41306
281.68        65.99686
282.13         65.6864
282.59        65.19427
283.04        64.39458
283.50        63.45514
283.95        62.42879
284.41        61.51237
284.86        60.69294
285.32        59.96321
285.77        59.25977
286.22        58.61145
286.68         58.0365
287.13        57.50153
287.59        57.01888
288.04        56.48915
288.50        55.93524
288.95        55.31474
289.41        54.70646
289.86        54.13062
290.32        53.65612
290.77        53.24975
291.22        52.89931
291.68        52.55035
292.13        52.18379
292.59        51.85452
293.04        51.62302
293.50        51.62769
293.95        51.86457
294.40        52.28036
294.86        52.77831
295.31        53.20929
295.77        53.53498
296.22        53.79822
296.68         54.0318
297.13        54.27636
297.58        54.55911
298.04        54.86443
298.49        55.21473
298.95        55.70261
299.40        56.29769
299.85        56.96159
300.31        57.60166
300.76        58.04521
301.21        58.27208
301.67        58.38491
302.12        58.39832
302.58        58.43847
303.03        58.51094
303.48        58.61915
303.94        58.85305
304.39        59.28751
304.84        59.92717
305.30        60.72302
305.75        61.49041
306.20        61.99014
306.66        62.19283
307.11        62.13749
307.57         61.9762
308.02        61.83892
308.47        61.80597
308.93        61.83429
309.38        61.88597
309.83        61.97857
310.29        62.09743
310.74         62.2425
311.19        62.34298
311.65        62.27177
312.10        62.00282
312.55        61.57718
313.00        61.12302
313.46        60.83882
313.91        60.74934
314.36         60.8161
314.82        60.91575
315.27        60.87856
315.72        60.64687
316.18        60.29424
316.63        59.90578
317.08        59.63564
317.53        59.51468
317.99        59.47753
318.44        59.45415
318.89        59.31782
319.35        59.03379
319.80        58.65061
320.25         58.2203
320.70        57.82676
321.16         57.4922
321.61        57.20169
322.06        56.92885
322.51        56.63905
322.97        56.31047
323.42        55.96706
323.87        55.61469
324.32        55.26948
324.78         54.9257
325.23        54.59922
325.68        54.25523
326.13         53.8527
326.59        53.38693
327.04        52.90223
327.49        52.45173
327.94         52.1297
328.39        51.95245
328.85        51.86514
329.30        51.85238
329.75        51.79715
330.20        51.65882
330.66        51.44107
331.11        51.18897
331.56        50.90624
332.01        50.60523
332.46        50.28198
332.92        49.94149
333.37        49.63397
333.82         49.3696
334.27        49.16074
334.72        49.01255
335.17        48.92684
335.63        48.88163
336.08        48.88317
336.53        48.91475
336.98        48.97443
337.43        49.04885
337.88        49.13983
338.34        49.15326
338.79        48.99287
339.24        48.62994
339.69        48.09142
340.14        47.56012
340.59         47.3424
341.05        47.49015
341.50        47.92274
341.95        48.39451
342.40         48.5199
342.85        48.22486
343.30        47.64391
343.75        46.99707
344.20        46.64701
344.66        46.68463
345.11        46.95826
345.56        47.34202
346.01        47.63223
346.46        47.74756
346.91        47.76979
347.36        47.66106
347.81         47.3521
348.26        46.87205
348.72        46.26249
349.17        45.67727
349.62        45.45009
350.07        45.64105
350.52        46.13306
350.97        46.71784
351.42        47.07587
351.87        47.11502
352.32        46.92238
352.77        46.56528
353.22        46.15997
353.67        45.76791
354.13        45.37696
354.58        44.99776
355.03        44.69915
355.48        44.49723
355.93        44.39658
356.38        44.36988
356.83        44.35725
357.28         44.3306
357.73        44.28519
358.18        44.21619
358.63        44.12625
359.08        44.01056
359.53        43.86098
359.98        43.65953
360.43        43.38096
360.88         43.0307
361.33        42.63084
361.78        42.22789
362.23         41.8964
362.68        41.65829
363.13        41.49059
363.58        41.36248
364.03        41.22223
364.48        41.04255
364.93        40.82639
365.38        40.56209
365.83        40.23882
366.28        39.86246
366.73        39.44171
367.18        39.00038
367.63        38.57443
368.08        38.18427
368.53        37.83932
368.98        37.54101
369.43        37.28057
369.88        37.05404
370.33        36.86082
370.78        36.70736
371.23        36.60667
371.68         36.5525
372.13        36.52522
372.58        36.49472
373.03        36.41875
373.48        36.28074
373.93        36.08826
374.38        35.84972
374.83        35.57708
375.28        35.27981
375.72         34.9538
376.17         34.6359
376.62        34.34295
377.07        34.09153
377.52        33.88432
377.97        33.72981
378.42        33.63611
378.87        33.59287
379.32        33.58436
379.77        33.58268
380.22        33.54634
380.67        33.46262
381.11        33.34682
381.56        33.18603
382.01        32.98852
382.46        32.76549
382.91        32.51482
383.36        32.28026
383.81         32.1248
384.26        32.05587
384.71        32.06384
385.15        32.06929
385.60        31.96162
386.05        31.71791
386.50        31.37134
386.95        31.02751
387.40        30.85419
387.85        30.88166
388.29        31.04496
388.74        31.23046
389.19        31.24634
389.64        31.05445
390.09        30.70004
390.54        30.31085
390.98        30.08112
391.43        30.07628
391.88        30.21926
392.33        30.35572
392.78        30.26423
393.23        29.92822
393.67        29.42335
394.12        28.96139
394.57        28.73576
395.02        28.78204
395.47        29.02648
395.91        29.34379
396.36        29.48145
396.81        29.37957
397.26         29.1105
397.71        28.79983
398.15        28.61257
398.60         28.6185
399.05        28.73866
399.50        28.87439
399.95        28.88804
400.39         28.7507
400.84        28.50314
401.29        28.23754
401.74        28.11862
402.18        28.19514
402.63        28.40256
403.08        28.62058
403.53        28.65726
403.97        28.47263
404.42        28.14264
404.87        27.78992
405.32        27.61561
405.76         27.6651
406.21        27.87208
406.66         28.1252
407.11        28.25071
407.55        28.20499
408.00        28.04712
408.45        27.84709
408.90        27.65549
409.34        27.53544
409.79        27.59318
410.24        27.73671
410.68        27.70908
411.13        27.49393
411.58        27.22506
412.03        26.96657
412.47        26.79049
412.92        26.72697
413.37        26.74756
413.81        26.84262
414.26        27.01473
414.71        27.23702
415.15        27.51189
415.60        27.74438
416.05        27.81308
416.49        27.69042
416.94         27.4122
417.39        27.07623
417.83        26.84582
418.28        26.77403
418.73        26.81155
419.17        26.89657
419.62        26.92175
420.07         26.8609
420.51        26.75244
420.96        26.63495
421.41        26.53736
421.85        26.46572
422.30        26.42421
422.74        26.40639
423.19        26.44717
423.64         26.5349
424.08        26.67196
424.53        26.80532
424.98        26.88246
425.42        26.89009
425.87        26.84189
426.31        26.75532
426.76        26.66803
427.21        26.58243
427.65        26.48153
428.10        26.40004
428.54        26.37655
428.99        26.42599
429.44        26.61617
429.88        26.81707
430.33          26.733
430.77        26.40421
431.22        26.17048
431.66        26.11249
432.11        26.19827
432.56         26.3947
433.00        26.72206
433.45        26.93727
433.89         26.7348
434.34        26.30902
434.78        25.94919
435.23        25.61682
435.67        26.77563
436.12        26.04176
436.57        25.91413
437.01        25.53113
437.46        25.41186
437.90        25.58916
438.35        25.82185
438.79        26.00821
439.24        26.11239
439.68        26.10608
440.13        25.79388
440.57        25.37436
441.02        25.57492
441.46        26.17101
441.91        26.33077
442.35        25.40562
442.80        25.12002
443.24         25.2173
443.69        25.15602
444.13        24.92741
444.58        24.79495
445.02        24.78193
445.47        24.87786
445.91        25.02212
446.36        25.05792
446.80        24.95554
447.24        24.79767
447.69        24.63862
448.13        24.51072
448.58        24.44166
449.02        24.41188
449.47        24.40948
449.91        24.40623
450.36        24.39899
450.80        24.39419
451.25        24.39688
451.69        24.38894
452.13        24.37627
452.58        24.35338
453.02        24.33587
453.47        24.35772
453.91        24.42128
454.36        24.51292
454.80        24.59463
455.24          24.599
455.69        24.52225
456.13         24.3644
456.58        24.19381
457.02        24.09776
457.46        24.09023
457.91        24.08974
458.35        24.07172
458.79        24.06604
459.24        24.05777
459.68        24.04992
460.13        24.10105
460.57        24.07486
461.01        23.94585
461.46        24.37604
461.90        24.42564
462.34        24.14283
462.79        24.33693
463.23        24.18493
463.68        24.06694
464.12        23.96729
464.56        24.08562
465.01        24.24951
465.45        24.39853
465.89        24.46712
466.34        24.44772
466.78        24.29339
467.22        24.09111
467.67        24.11906
468.11        24.34317
468.55        24.35973
468.99         24.1761
469.44        24.12831
469.88        24.22401
470.32        24.26776
470.77        24.24289
471.21        24.22251
471.65        24.20862
472.10        24.17791
472.54        24.14673
472.98        24.18815
473.42        24.30322
473.87        24.40232
474.31        24.46001
474.75        24.59053
475.20        24.73644
475.64        24.63961
476.08        24.39234
476.52        24.34933
476.97        24.52946
477.41        24.78371
477.85        25.02276
478.29        25.12946
478.74        25.06836
479.18        25.00093
479.62        24.74435
480.06        24.73339
480.50        24.88383
480.95        25.03485
481.39        25.12153
481.83        25.16715
482.27        25.15986
482.72        25.08932
483.16        25.01614
483.60        25.00104
484.04        25.03058
484.48        25.27816
484.93        25.75992
485.37        25.71288
485.81        25.45828
486.25        26.44482
486.69        27.25088
487.14        26.73161
487.58        25.96007
488.02           26.87
488.46         26.5316
488.90        26.78341
489.34        26.53411
489.79        26.61378
490.23        26.96521
490.67        27.19069
491.11        27.27497
491.55        27.26064
491.99        27.19273
492.43        27.19416
492.88        27.28816
493.32         27.3784
493.76        27.47635
494.20         27.6383
494.64        27.86283
495.08        28.16778
495.52        28.48893
495.96        28.65502
496.41        28.69682
496.85        28.78694
497.29        28.95749
497.73        29.21575
498.17        29.52039
498.61        29.67515
499.05        29.68736
499.49        29.81202
499.93        30.06386
500.37        30.20655
500.82         30.2689
501.26        30.54072
501.70        30.95338
502.14        31.07797
502.58        30.94021
503.02         30.9354
503.46        31.08558
503.90        31.17638
504.34         31.1852
504.78        31.18078
505.22        31.16548
505.66        31.12574
506.10        31.10168
506.54          31.153
506.98        31.29064
507.42         31.5039
507.86        31.73551
508.30        31.88901
508.74        31.94085
509.18        31.91286
509.62        31.87159
510.06        31.92524
510.50        32.09722
510.94        32.35577
511.38        32.61869
511.82        32.75233
512.26        32.72639
512.70        32.58358
513.14         32.4172
513.58        32.36921
514.02        32.46618
514.46         32.6656
514.90        32.88702
515.34        32.92972
515.78        32.82502
516.22        32.65987
516.66        32.52771
517.10        32.26074
517.54        31.88574
517.98        32.35054
518.42        32.23104
518.86        32.46301
519.30        32.60133
519.74        32.78137
520.18        32.93803
520.62        32.94907
521.06         32.8145
521.50        32.55512
521.93        32.25775
522.37        32.07415
522.81        32.04216
523.25        32.12323
523.69        32.24541
524.13        32.29278
524.57        32.23509
525.01        32.10815
525.45        31.96491
525.89        31.88789
526.32        31.89527
526.76        31.95658
527.20        32.02057
527.64        32.01421
528.08        31.91823
528.52        31.75585
528.96        31.57345
529.40        31.43851
529.83        31.36697
530.27        31.34832
530.71        31.33456
531.15        31.25413
531.59        31.09809
532.03        30.89539
532.46        30.70536
532.90        30.63988
533.34        30.70646
533.78        30.85983
534.22        31.03069
534.66        31.11375
535.09        31.07796
535.53        30.97064
535.97        30.81972
536.41        30.66693
536.85        30.53517
537.28        30.42552
537.72        30.37253
538.16         30.3378
538.60        30.46945
539.04        30.62544
539.47        30.77944
539.91        30.90293
540.35        30.99972
540.79        30.81914
541.22        30.81739
541.66        30.86581
542.10        31.12525
542.54         31.0619
542.97        31.45055
543.41         31.6385
543.85        31.82868
544.29        31.96317
544.72          32.031
545.16        32.10719
545.60        32.19309
546.04        32.17284
546.47        32.13865
546.91         32.4375
547.35        32.98726
547.79        33.36905
548.22        33.52832
548.66        33.60786
549.10        33.66747
549.53        33.92825
549.97        34.39746
550.41        34.46504
550.84        34.76086
551.28         34.9411
551.72        35.20577
552.15        35.44731
552.59        35.66758
553.03        35.88398
553.46        36.06755
553.90        36.21334
554.34        36.31746
554.77        36.38434
555.21        36.45126
555.65        36.56108
556.08        36.71678
556.52        36.90039
556.96        37.08477
557.39         37.2728
557.83        37.44284
558.27        37.50829
558.70        37.49439
559.14        37.52076
559.57        37.58655
560.01        37.67833
560.45        37.76709
560.88        37.74956
561.32        37.69452
561.75        37.74599
562.19        38.02184
562.63        38.08764
563.06        38.01009
563.50        38.07965
563.93        38.27651
564.37        38.49418
564.80        38.54627
565.24        38.68068
565.68        38.83189
566.11        38.98992
566.55        39.17879
566.98        39.32604
567.42          39.394
567.85        39.82386
568.29        39.58776
568.72         39.9163
569.16        40.43252
569.60        40.76113
570.03        40.85282
570.47        41.02813
570.90        41.10224
571.34        41.38704
571.77        41.43782
572.21        41.72914
572.64        41.76571
573.08        42.45353
573.51        42.36752
573.95        42.83365
574.38        43.44082
574.82        43.66597
