SpectraSmart Spectrum 2.9.0.0
--------- Device Information -----------
Spectrum Name :  反射率_0
Saving Time :  2024/04/19 23:53:18
Spectro-Module Model Name : SE2030-DUVN
Spectro-Module Serial Number : OS361AC55029948
Wavelength Start : 200
Wavelength End : 1025
Wavelength Unit : Wavelength(nm)
Spectrum Unit : Reflectance(%)
-----------Spectrum Setting ------------
Integration Time : 30ms
Average : 10
Boxcar : 0
Background removal :  enabled
linearity correction :  enabled
SC :  disabled
Intensity correction :  disabled
DWT denoise :  enabled
savitzky-golay :  disabled
FFT :  disabled
Running average :  disabled
Kalman :  disabled
High pass :  disabled
---------------BEGIN--------------------
Wavelength(nm)             Reflectance(%)
200.29               0
200.75        56.33286
201.21        58.22969
201.67        62.58818
202.13        68.60408
202.58        75.50213
203.04        83.50489
203.50        90.54215
203.96        91.69123
204.42        87.13554
204.88        80.24722
205.34        73.87454
205.80        69.06218
206.26        64.88287
206.72        59.86748
207.18        53.81608
207.64        49.65981
208.10        50.76437
208.55        56.84377
209.01        62.66066
209.47        64.06616
209.93        61.50009
210.39        56.75063
210.85        51.99887
211.31        49.58587
211.77        49.81127
212.23        52.11495
212.69        56.01604
213.14        58.93004
213.60        58.85204
214.06        57.69398
214.52        56.70665
214.98        56.76892
215.44          57.798
215.90        59.08426
216.36        60.88019
216.81        63.43843
217.27        66.20676
217.73        69.21033
218.19        70.56339
218.65         67.5644
219.11        59.85914
219.57         47.6025
220.02        33.81382
220.48        26.72363
220.94        29.28554
221.40        39.97547
221.86        53.25544
222.32        60.42292
222.77        59.39148
223.23        53.01406
223.69         45.5368
224.15        43.02863
224.61         45.8377
225.06        50.89376
225.52        55.38659
225.98        57.08847
226.44        55.99084
226.90        53.15647
227.36        49.81965
227.81        48.00265
228.27        48.52834
228.73        50.35573
229.19        52.34116
229.65        53.21168
230.10        52.84728
230.56        51.86808
231.02        50.83978
231.48        50.43303
231.93        50.68011
232.39        51.31937
232.85        51.93402
233.31        51.95239
233.77        51.26458
234.22        50.07578
234.68         48.7905
235.14        47.99709
235.60        47.90054
236.05        48.34282
236.51        49.05489
236.97          49.628
237.43        49.97405
237.88        50.33648
238.34        50.74632
238.80        51.63004
239.26        52.99586
239.71        54.44469
240.17        55.57217
240.63        56.42938
241.08        57.10181
241.54        57.63561
242.00        57.52671
242.46        55.61848
242.91        51.21986
243.37        43.24809
243.83        32.34615
244.28        25.82424
244.74        30.90136
245.20        46.09762
245.66         61.2354
246.11        67.77939
246.57        65.23351
247.03        54.53516
247.48        38.12549
247.94        31.62705
248.40        38.55032
248.85        48.39594
249.31        56.02796
249.77        60.53868
250.22        62.91328
250.68         64.4423
251.14          65.332
251.59        65.31795
252.05        64.47366
252.51        62.75958
252.96        60.17208
253.42        57.38163
253.88        54.98949
254.33        53.20727
254.79        53.18455
255.25        55.57302
255.70         59.8026
256.16        64.97713
256.62        69.40887
257.07        71.23567
257.53        70.59426
257.99         68.1227
258.44        64.80581
258.90        62.67685
259.35        61.52732
259.81        61.23857
260.27        60.75172
260.72        59.14837
261.18        56.78038
261.63        53.69011
262.09        51.04372
262.55        49.93575
263.00        50.29856
263.46        51.66185
263.91        52.80367
264.37        52.57553
264.83        50.96006
265.28         48.4323
265.74        46.13955
266.19         45.2255
266.65         45.8443
267.11        47.35383
267.56         48.9063
268.02        49.30772
268.47        48.34436
268.93        46.44385
269.38         44.1372
269.84        42.51377
270.30        41.86489
270.75        41.87125
271.21        42.10463
271.66        41.91888
272.12        41.14317
272.57        40.00312
273.03        38.80817
273.48        37.92729
273.94        37.50316
274.39        37.35264
274.85        37.27225
275.31        36.94679
275.76        36.29105
276.22        35.43182
276.67        34.54681
277.13        34.00433
277.58         33.7943
278.04         33.8234
278.49        33.77272
278.95        33.26947
279.40        32.24819
279.86        30.95905
280.31        29.65387
280.77        28.82339
281.22        28.48259
281.68        28.49128
282.13        28.61885
282.59        28.56649
283.04        28.25027
283.50        27.81319
283.95         27.3195
284.41        26.89684
284.86        26.56466
285.32        26.29296
285.77        26.09303
286.22        26.05929
286.68        26.17492
287.13        26.38152
287.59        26.56911
288.04        26.54657
288.50        26.30479
288.95        25.87855
289.41        25.39063
289.86        24.95797
290.32         24.6745
290.77        24.49935
291.22        24.44166
291.68        24.47602
292.13        24.59251
292.59        24.81565
293.04        25.13928
293.50        25.56519
293.95        26.06935
294.40         26.6198
294.86        27.18982
295.31         27.7555
295.77        28.30605
296.22        28.84881
296.68        29.35481
297.13        29.75886
297.58        30.06984
298.04        30.31578
298.49        30.59164
298.95        31.08224
299.40         31.7972
299.85        32.67342
300.31        33.56782
300.76        34.25508
301.21        34.68574
301.67         34.9563
302.12        35.13757
302.58        35.39732
303.03        35.75336
303.48        36.16574
303.94        36.63452
304.39        37.12213
304.84        37.61475
305.30        38.11506
305.75        38.55202
306.20        38.83703
306.66        38.97918
307.11        38.99191
307.57        38.95809
308.02        38.93192
308.47        38.95884
308.93        39.01434
309.38        39.09845
309.83        39.25925
310.29        39.48108
310.74        39.74929
311.19        39.95335
311.65        39.91584
312.10           39.61
312.55        39.09533
313.00        38.53506
313.46        38.18256
313.91        38.07773
314.36        38.16018
314.82        38.29223
315.27        38.27045
315.72        38.03016
316.18        37.65586
316.63        37.23147
317.08        36.89017
317.53        36.66719
317.99        36.50624
318.44        36.37612
318.89        36.22202
319.35        36.02187
319.80        35.79605
320.25        35.54554
320.70        35.26835
321.16        34.96356
321.61        34.63488
322.06        34.28448
322.51        33.92474
322.97        33.55694
323.42        33.18762
323.87        32.82495
324.32        32.48525
324.78        32.16584
325.23         31.8755
325.68         31.5844
326.13        31.24597
326.59        30.85703
327.04        30.45944
327.49        30.09425
327.94        29.83085
328.39        29.68432
328.85        29.60992
329.30        29.61893
329.75        29.68212
330.20        29.76743
330.66        29.84847
331.11        29.87753
331.56        29.72816
332.01         29.3775
332.46        28.85513
332.92        28.25143
333.37        27.73597
333.82        27.37625
334.27         27.1626
334.72        27.04688
335.17        26.93322
335.63        26.78032
336.08        26.61323
336.53         26.4959
336.98         26.5414
337.43        26.75548
337.88        27.09371
338.34        27.36143
338.79        27.29715
339.24        26.83728
339.69        26.06231
340.14        25.25033
340.59        24.86926
341.05        25.01833
341.50        25.56474
341.95        26.20936
342.40        26.48473
342.85        26.28198
343.30        25.75729
343.75        25.12562
344.20        24.73721
344.66        24.68744
345.11        24.82866
345.56        25.05173
346.01        25.18832
346.46        25.17028
346.91        25.07043
347.36        24.86747
347.81        24.51106
348.26        24.02947
348.72        23.47235
349.17        22.93577
349.62        22.66317
350.07        22.71115
350.52        23.00079
350.97        23.42344
351.42        23.80986
351.87        24.09011
352.32        24.29156
352.77         24.3835
353.22        24.32602
353.67        24.12615
354.13         23.8053
354.58        23.42162
355.03        23.11105
355.48        22.91754
355.93        22.82996
356.38        22.80643
356.83        22.76835
357.28        22.68846
357.73        22.57641
358.18        22.47219
358.63         22.4405
359.08        22.48494
359.53        22.57864
359.98        22.62737
360.43        22.49205
360.88        22.16092
361.33        21.68937
361.78        21.21271
362.23        20.95181
362.68        20.95092
363.13        21.12414
363.58        21.35003
364.03        21.44118
364.48        21.33997
364.93        21.10605
365.38        20.76809
365.83        20.37925
366.28        19.98294
366.73        19.57107
367.18        19.20505
367.63        18.98163
368.08         18.9111
368.53        18.96764
368.98        19.07398
369.43        19.09952
369.88        19.01233
370.33        18.85122
370.78        18.65227
371.23        18.48523
371.68         18.3757
372.13        18.28849
372.58        18.24054
373.03        18.26403
373.48        18.34712
373.93        18.47819
374.38        18.57234
374.83        18.49613
375.28         18.2316
375.72        17.81426
376.17        17.37068
376.62         17.0671
377.07        16.95617
377.52          16.991
377.97        17.10308
378.42         17.1829
378.87        17.19063
379.32        17.15021
379.77         17.0896
380.22         17.0486
380.67        17.03473
381.11         17.0352
381.56        16.99887
382.01        16.86437
382.46        16.62812
382.91        16.31798
383.36        16.02287
383.81        15.87172
384.26        15.88614
384.71        16.02967
385.15        16.19576
385.60         16.2219
386.05        16.07475
386.50        15.80568
386.95        15.52185
387.40        15.39356
387.85        15.45383
388.29        15.63693
388.74        15.83968
389.19        15.91921
389.64        15.84377
390.09        15.65723
390.54        15.43157
390.98        15.27371
391.43         15.2283
391.88        15.24941
392.33        15.27547
392.78        15.21994
393.23        15.07309
393.67        14.86199
394.12        14.66837
394.57        14.55029
395.02        14.51968
395.47        14.55222
395.91        14.60595
396.36        14.59328
396.81        14.50083
397.26        14.35346
397.71        14.20748
398.15        14.13277
398.60        14.15985
399.05        14.25453
399.50        14.35623
399.95         14.3797
400.39        14.30621
400.84        14.15649
401.29        13.99756
401.74        13.95288
402.18        14.05479
402.63        14.25342
403.08        14.44617
403.53         14.4692
403.97        14.29375
404.42        13.98798
404.87        13.66429
405.32        13.50665
405.76        13.55861
406.21        13.75511
406.66        14.00704
407.11        14.17543
407.55        14.21962
408.00        14.18548
408.45        14.10244
408.90         13.9857
409.34        13.87159
409.79         13.8152
410.24        13.80283
410.68        13.75672
411.13        13.67836
411.58        13.62744
412.03        13.59835
412.47        13.55939
412.92        13.50715
413.37         13.4414
413.81        13.40484
414.26        13.47642
414.71        13.65518
415.15         13.9217
415.60        14.15941
416.05        14.20235
416.49        14.01366
416.94        13.65339
417.39        13.25172
417.83        13.01981
418.28        13.01803
418.73        13.17688
419.17        13.39839
419.62        13.51472
420.07        13.48652
420.51        13.37034
420.96        13.22396
421.41        13.11803
421.85        13.07207
422.30        13.06581
422.74         13.0856
423.19        13.14082
423.64        13.21797
424.08        13.32415
424.53        13.41818
424.98        13.44919
425.42        13.40671
425.87        13.30755
426.31        13.17598
426.76        13.05983
427.21        12.96658
427.65        12.88026
428.10          12.825
428.54        12.81772
428.99        12.86111
429.44        13.00679
429.88        13.16946
430.33        13.12446
430.77        12.91223
431.22         12.7959
431.66         12.8173
432.11        12.89435
432.56        13.01048
433.00        13.22367
433.45         13.3961
433.89        13.33094
434.34        13.11475
434.78        12.88175
435.23        12.63507
435.67        13.23362
436.12        12.82887
436.57        12.79656
437.01        12.63022
437.46        12.55128
437.90        12.56597
438.35        12.56989
438.79        12.55337
439.24        12.55808
439.68        12.58078
440.13        12.50667
440.57        12.38264
441.02         12.4871
441.46        12.69436
441.91        12.62761
442.35        12.03296
442.80        11.80756
443.24        11.83173
443.69        11.83141
444.13        11.76643
444.58           11.71
445.02        11.65831
445.47        11.62672
445.91        11.61027
446.36        11.57385
446.80        11.51223
447.24        11.44737
447.69        11.39211
448.13        11.33878
448.58        11.29671
449.02        11.26918
449.47        11.24992
449.91        11.22305
450.36        11.19099
450.80        11.15248
451.25        11.13443
451.69        11.16571
452.13        11.24967
452.58        11.36415
453.02        11.47328
453.47        11.51902
453.91        11.49162
454.36        11.40999
454.80        11.29786
455.24        11.19854
455.69         11.1353
456.13        11.08455
456.58        11.06221
457.02        11.08369
457.46        11.14416
457.91        11.21317
458.35        11.26668
458.79        11.29097
459.24        11.27946
459.68        11.23576
460.13         11.2179
460.57        11.20694
461.01        11.20128
461.46        11.49126
461.90        11.60841
462.34        11.51774
462.79        11.59514
463.23        11.46439
463.68        11.33283
464.12        11.23253
464.56        11.27413
465.01         11.3602
465.45        11.45317
465.89        11.50756
466.34        11.51563
466.78        11.45805
467.22        11.37242
467.67        11.40001
468.11        11.51709
468.55        11.49458
468.99        11.36153
469.44        11.35024
469.88        11.47157
470.32        11.59936
470.77        11.68741
471.21        11.72525
471.65        11.70056
472.10        11.62062
472.54        11.52351
472.98        11.50016
473.42        11.56667
473.87        11.66198
474.31        11.75466
474.75        11.86538
475.20        11.95764
475.64        11.91736
476.08        11.79838
476.52        11.78788
476.97        11.89969
477.41        12.04927
477.85         12.1832
478.29        12.25135
478.74        12.23904
479.18        12.14348
479.62         12.0303
480.06        12.00549
480.50        12.07239
480.95        12.13928
481.39        12.17605
481.83        12.19675
482.27        12.19649
482.72        12.17308
483.16        12.14008
483.60        12.14105
484.04        12.18753
484.48         12.2728
484.93        12.44561
485.37        12.64196
485.81        12.88189
486.25        13.27553
486.69        13.34977
487.14        12.98799
487.58        13.37188
488.02        13.98745
488.46        13.43474
488.90        13.40858
489.34        13.47602
489.79        13.63094
490.23        13.81261
490.67        13.98954
491.11        14.11361
491.55        14.07656
491.99         13.9213
492.43        13.84416
492.88        13.87723
493.32        13.89613
493.76        13.92104
494.20        14.04377
494.64        14.26594
495.08        14.55134
495.52        14.85032
495.96        15.09704
496.41        15.27107
496.85        15.36173
497.29        15.39663
497.73        15.49684
498.17        15.65495
498.61        15.70197
499.05        15.66656
499.49        15.75497
499.93        15.98227
500.37        16.20312
500.82        16.39061
501.26        16.63805
501.70         16.8922
502.14        16.93778
502.58        16.81784
503.02        16.79511
503.46        16.89478
503.90        16.98407
504.34        17.03842
504.78        17.07559
505.22        17.09051
505.66         17.0878
506.10        17.08766
506.54        17.11704
506.98        17.18494
507.42        17.28605
507.86        17.40722
508.30        17.52681
508.74        17.63399
509.18         17.7265
509.62          17.814
510.06        17.91283
510.50        18.02516
510.94        18.14922
511.38        18.25144
511.82        18.27873
512.26        18.22562
512.70        18.10935
513.14        17.99641
513.58         17.9882
514.02        18.09725
514.46        18.29316
514.90        18.50047
515.34        18.54143
515.78        18.41097
516.22        18.23716
516.66        18.11245
517.10        17.83044
517.54        17.41776
517.98        18.02884
518.42        17.91817
518.86        18.18598
519.30        18.29205
519.74        18.41228
520.18        18.50874
520.62        18.49769
521.06        18.39362
521.50        18.20468
521.93        17.99402
522.37        17.87508
522.81        17.87296
523.25        17.95679
523.69        18.07509
524.13        18.14509
524.57        18.14062
525.01        18.08321
525.45        17.99724
525.89        17.92138
526.32        17.86744
526.76        17.82441
527.20        17.77293
527.64        17.68874
528.08        17.56823
528.52        17.42117
528.96        17.28022
529.40        17.19062
529.83        17.15987
530.27        17.17975
530.71        17.20122
531.15        17.14785
531.59        17.00916
532.03        16.81172
532.46         16.6198
532.90        16.54955
533.34        16.61348
533.78        16.76762
534.22        16.94068
534.66        17.02394
535.09        16.98673
535.53        16.87083
535.97        16.71334
536.41        16.57113
536.85        16.46805
537.28         16.3957
537.72        16.36312
538.16         16.3329
538.60        16.38289
539.04        16.44676
539.47        16.52186
539.91        16.60742
540.35        16.70704
540.79        16.67463
541.22        16.74791
541.66        16.84395
542.10        17.04473
542.54        17.06136
542.97        17.31139
543.41        17.42689
543.85        17.52149
544.29        17.56918
544.72        17.58508
545.16        17.64255
545.60        17.74902
546.04         17.8306
546.47        17.91817
546.91        18.17368
547.35        18.54043
547.79         18.7906
548.22        18.90288
548.66        18.97118
549.10        19.03655
549.53        19.22054
549.97        19.52663
550.41        19.60272
550.84        19.80503
551.28        19.94187
551.72        20.13556
552.15        20.33849
552.59        20.54906
553.03         20.7691
553.46         20.9652
553.90        21.10372
554.34        21.17899
554.77        21.20967
555.21         21.2351
555.65        21.27274
556.08        21.38533
556.52        21.51658
556.96        21.66144
557.39         21.8142
557.83        21.95827
558.27        22.04118
558.70        22.07821
559.14        22.13904
559.57        22.22245
560.01        22.32016
560.45        22.40322
560.88        22.39925
561.32        22.35322
561.75        22.33811
562.19        22.44878
562.63        22.51198
563.06        22.55082
563.50        22.62182
563.93        22.71916
564.37        22.87441
564.80        22.97626
565.24        23.11623
565.68        23.23865
566.11        23.33798
566.55        23.42828
566.98        23.46666
567.42        23.46194
567.85          23.725
568.29        23.65204
568.72        23.95907
569.16        24.37916
569.60        24.66233
570.03        24.77385
570.47        24.84631
570.90        24.79427
571.34        25.14681
571.77        25.11408
572.21        25.34921
572.64        25.61215
573.08        25.78143
573.51        25.95841
573.95        26.34585
574.38         26.3604
574.82        26.53437
