SpectraSmart Spectrum 2.9.0.0
--------- Device Information -----------
Spectrum Name :  反射率_0
Saving Time :  2024/04/20 00:05:29
Spectro-Module Model Name : SE2030-DUVN
Spectro-Module Serial Number : OS361AC55029948
Wavelength Start : 200
Wavelength End : 1025
Wavelength Unit : Wavelength(nm)
Spectrum Unit : Reflectance(%)
-----------Spectrum Setting ------------
Integration Time : 30ms
Average : 10
Boxcar : 0
Background removal :  enabled
linearity correction :  enabled
SC :  disabled
Intensity correction :  disabled
DWT denoise :  enabled
savitzky-golay :  disabled
FFT :  disabled
Running average :  disabled
Kalman :  disabled
High pass :  disabled
---------------BEGIN--------------------
Wavelength(nm)             Reflectance(%)
200.29               0
200.75        63.56086
201.21        64.36604
201.67        67.68919
202.13        74.75042
202.58        85.82438
203.04        101.1416
203.50        115.6213
203.96         117.472
204.42        106.8458
204.88        91.70995
205.34        78.90594
205.80        71.47814
206.26        68.11023
206.72        67.17164
207.18        68.62854
207.64        71.60498
208.10        74.38992
208.55        77.16075
209.01        78.37661
209.47        77.80443
209.93        75.95467
210.39        73.11057
210.85        69.98185
211.31        67.33302
211.77        65.09436
212.23        62.79476
212.69        61.00023
213.14        61.67459
213.60        64.49377
214.06        68.36417
214.52        71.49867
214.98         73.1859
215.44        73.74522
215.90        73.14801
216.36        72.33556
216.81        73.30515
217.27         76.3262
217.73        80.80445
218.19        84.09463
218.65         82.5584
219.11        75.67063
219.57        63.99121
220.02        50.78355
220.48        44.57625
220.94        48.38429
221.40        60.24357
221.86        74.57644
222.32        82.78893
222.77        82.69807
223.23        77.24178
223.69        69.98869
224.15        66.12003
224.61        66.47464
225.06         68.7452
225.52        71.20161
225.98        72.47338
226.44        72.45866
226.90        71.80482
227.36        71.09267
227.81        71.04148
228.27        72.00146
228.73        73.36207
229.19        74.45433
229.65         74.5748
230.10        73.74438
230.56        72.51141
231.02        71.32301
231.48        70.78296
231.93        70.87157
232.39        71.33324
232.85        71.86124
233.31        72.06284
233.77        71.79941
234.22         71.2172
234.68        70.29128
235.14         68.9065
235.60         67.1928
236.05        65.29037
236.51          63.551
236.97        62.42413
237.43        62.03342
237.88        62.53511
238.34        63.74284
238.80        65.38528
239.26        66.96389
239.71        68.24995
240.17        69.01025
240.63        69.66015
241.08        70.40163
241.54        71.07255
242.00        71.10297
242.46        69.31509
242.91        65.02843
243.37        57.12935
243.83        46.33265
244.28        39.98061
244.74        45.13287
245.20        60.33406
245.66        75.23292
246.11        81.08105
246.57        77.18381
247.03        64.06073
247.48        44.51037
247.94        36.60039
248.40        44.45478
248.85        55.90852
249.31        64.55727
249.77        68.74694
250.22        69.65088
250.68        68.80074
251.14        66.96051
251.59        65.52224
252.05        65.52763
252.51        66.63328
252.96        67.99799
253.42        68.48403
253.88        67.90313
254.33        66.83776
254.79         66.8941
255.25        69.28938
255.70         73.5544
256.16        78.56631
256.62        82.75003
257.07        84.42058
257.53        83.71601
257.99        81.25349
258.44        77.70636
258.90        74.82181
259.35        72.63235
259.81        71.49393
260.27        70.51097
260.72        68.90103
261.18        66.98528
261.63        64.56901
262.09        62.79755
262.55        62.66764
263.00        63.93542
263.46        66.10897
263.91        67.75284
264.37         67.5794
264.83        65.60964
265.28        62.45853
265.74        59.48674
266.19        58.04947
266.65         58.3983
267.11        59.80743
267.56        61.41036
268.02        62.02054
268.47        61.37848
268.93         59.9076
269.38        58.04353
269.84        56.70001
270.30         56.1133
270.75         55.9952
271.21        55.98993
271.66        55.56014
272.12         54.5863
272.57        53.26582
273.03        51.92183
273.48        50.92757
273.94        50.43306
274.39        50.24437
274.85        50.15323
275.31        49.80198
275.76         49.0845
276.22        48.14319
276.67        47.13689
277.13        46.44152
277.58        46.04254
278.04        45.87183
278.49         45.6142
278.95        44.94053
279.40         43.7738
279.86        42.36568
280.31        40.95522
280.77        40.04737
281.22        39.63884
281.68        39.60856
282.13        39.67332
282.59        39.48568
283.04        38.94803
283.50        38.22383
283.95        37.45141
284.41        36.89295
284.86        36.56618
285.32        36.40636
285.77         36.2935
286.22        36.13369
286.68         35.9012
287.13        35.61853
287.59        35.32595
288.04        35.02222
288.50        34.73949
288.95        34.42755
289.41         34.1343
289.86        33.85082
290.32         33.6258
290.77        33.45057
291.22        33.32751
291.68        33.22079
292.13        33.12859
292.59         33.0846
293.04        33.13799
293.50         33.3909
293.95         33.8397
294.40        34.43648
294.86         35.1045
295.31        35.73067
295.77        36.28421
296.22        36.79995
296.68        37.29156
297.13        37.76385
297.58        38.23939
298.04        38.71658
298.49        39.24746
298.95        39.95949
299.40        40.84232
299.85        41.85223
300.31        42.87266
300.76        43.70785
301.21        44.32248
301.67        44.80968
302.12        45.21984
302.58        45.71152
303.03        46.29211
303.48        46.92858
303.94        47.64189
304.39        48.41563
304.84        49.23376
305.30        50.08158
305.75        50.83815
306.20        51.35256
306.66        51.62482
307.11        51.68364
307.57         51.6587
308.02         51.6574
308.47        51.74971
308.93        51.90329
309.38        52.09676
309.83        52.35774
310.29        52.66703
310.74        53.01434
311.19        53.30509
311.65        53.38056
312.10        53.21019
312.55        52.84481
313.00        52.42606
313.46        52.17626
313.91         52.1292
314.36        52.23642
314.82        52.38042
315.27        52.39663
315.72        52.22587
316.18         51.9412
316.63        51.60736
317.08        51.33894
317.53        51.16618
317.99        51.04229
318.44        50.93631
318.89        50.78789
319.35        50.57934
319.80        50.33657
320.25        50.08195
320.70        49.84988
321.16        49.64368
321.61        49.45718
322.06        49.26542
322.51        49.03708
322.97        48.75517
323.42        48.43819
323.87        48.10252
324.32        47.78291
324.78        47.48279
325.23        47.21629
325.68        46.94684
326.13        46.62288
326.59         46.2379
327.04        45.83714
327.49        45.47893
327.94        45.26451
328.39        45.21041
328.85        45.25756
329.30        45.37653
329.75        45.43879
330.20        45.39512
330.66        45.25022
331.11        45.04393
331.56        44.77942
332.01        44.47084
332.46         44.1144
332.92        43.73175
333.37        43.39186
333.82        43.11632
334.27         42.9212
334.72        42.79515
335.17        42.70699
335.63        42.63188
336.08        42.58238
336.53        42.58076
336.98        42.68635
337.43        42.89362
337.88        43.17831
338.34         43.3965
338.79        43.36905
339.24        43.04982
339.69        42.49889
340.14        41.92578
340.59        41.68535
341.05        41.84576
341.50          42.296
341.95        42.81678
342.40        43.06629
342.85        42.96146
343.30        42.62607
343.75        42.17616
344.20        41.80152
344.66         41.5724
345.11        41.40304
345.56        41.31938
346.01        41.36379
346.46        41.51192
346.91        41.76157
347.36        41.96455
347.81        41.87851
348.26        41.48052
348.72        40.87432
349.17        40.22838
349.62        39.90211
350.07        39.98255
350.52        40.33756
350.97        40.81987
351.42        41.21032
351.87        41.42194
352.32        41.50832
352.77        41.44189
353.22         41.1807
353.67        40.74858
354.13        40.18285
354.58        39.56882
355.03        39.09266
355.48        38.80986
355.93        38.69386
356.38        38.69221
356.83        38.70549
357.28        38.69021
357.73        38.65575
358.18        38.60597
358.63        38.55154
359.08        38.48557
359.53        38.38997
359.98        38.22465
360.43         37.9359
360.88        37.52851
361.33         37.0379
361.78        36.54249
362.23        36.16903
362.68        35.94917
363.13        35.83768
363.58         35.7799
364.03        35.68649
364.48        35.51812
364.93        35.29446
365.38        34.99608
365.83        34.59911
366.28        34.11814
366.73        33.56912
367.18        33.02287
367.63        32.58956
368.08        32.29697
368.53        32.12443
368.98        32.01581
369.43        31.87345
369.88        31.66969
370.33         31.4296
370.78        31.18664
371.23        31.00141
371.68        30.89033
372.13        30.82397
372.58        30.77582
373.03        30.70994
373.48        30.60697
373.93        30.47087
374.38        30.30316
374.83        30.10297
375.28        29.87042
375.72        29.59943
376.17        29.30723
376.62        28.98204
377.07        28.64152
377.52        28.30415
377.97        28.01417
378.42        27.83508
378.87        27.76995
379.32        27.78602
379.77        27.83677
380.22        27.84993
380.67         27.8019
381.11        27.71801
381.56        27.57867
382.01        27.37923
382.46        27.13015
382.91        26.82721
383.36        26.54124
383.81        26.37884
384.26        26.35472
384.71        26.45122
385.15        26.54927
385.60        26.47056
386.05        26.18514
386.50        25.74939
386.95        25.32278
387.40        25.15904
387.85        25.29704
388.29        25.63084
388.74        25.98761
389.19        26.10513
389.64        25.93041
390.09        25.54213
390.54        25.07961
390.98        24.75687
391.43        24.65743
391.88        24.70431
392.33        24.78559
392.78        24.74153
393.23        24.54951
393.67        24.25578
394.12        24.00158
394.57        23.89859
395.02        23.96636
395.47        24.15779
395.91        24.37686
396.36        24.43201
396.81        24.28795
397.26        24.00298
397.71        23.70044
398.15        23.54409
398.60        23.59207
399.05        23.76889
399.50        23.96706
399.95        24.03385
400.39         23.9365
400.84        23.72026
401.29        23.47427
401.74        23.36026
402.18        23.42837
402.63         23.6146
403.08         23.8161
403.53        23.86844
403.97         23.7365
404.42        23.48989
404.87        23.22572
405.32        23.10208
405.76        23.15602
406.21        23.33212
406.66        23.55173
407.11        23.69353
407.55        23.72449
408.00         23.6874
408.45        23.61674
408.90        23.50933
409.34        23.40837
409.79        23.42228
410.24        23.50282
410.68        23.47739
411.13        23.34342
411.58        23.19931
412.03        23.08592
412.47        23.03894
412.92        23.07016
413.37        23.16099
413.81        23.29761
414.26        23.47572
414.71        23.67342
415.15        23.89315
415.60        24.06544
416.05        24.11181
416.49        24.01486
416.94        23.80179
417.39        23.54506
417.83        23.36356
418.28         23.3007
418.73        23.32544
419.17        23.39443
419.62        23.42667
420.07        23.40576
420.51        23.35945
420.96        23.32491
421.41        23.33238
421.85        23.38106
422.30        23.46749
422.74         23.5701
423.19        23.69949
423.64        23.84044
424.08        24.00017
424.53        24.13659
424.98         24.2115
425.42        24.21881
425.87        24.17879
426.31        24.10753
426.76        24.02329
427.21        23.93515
427.65        23.86525
428.10        23.84546
428.54         23.8612
428.99        23.91943
429.44        24.14095
429.88        24.39283
430.33        24.29735
430.77        23.93363
431.22         23.7839
431.66        23.90284
432.11        24.09258
432.56        24.30624
433.00         24.6732
433.45        24.98731
433.89        24.84813
434.34        24.41166
434.78        24.19253
435.23        24.00127
435.67        24.83684
436.12        24.24225
436.57        24.22539
437.01        24.12769
437.46        24.10578
437.90        24.17075
438.35        24.25484
438.79        24.31328
439.24        24.34412
439.68        24.34324
440.13        24.11852
440.57        23.83127
441.02        24.12756
441.46        24.78324
441.91        25.01885
442.35        24.20837
442.80        23.98474
443.24        24.11007
443.69         24.0763
444.13        23.87418
444.58        23.74852
445.02        23.72542
445.47        23.80669
445.91        23.93917
446.36        23.97583
446.80        23.88965
447.24        23.75678
447.69        23.63308
448.13        23.55425
448.58        23.54431
449.02        23.58196
449.47        23.63425
449.91        23.64104
450.36        23.59387
450.80        23.50711
451.25        23.41928
451.69        23.36536
452.13        23.36256
452.58        23.39349
453.02        23.43587
453.47        23.46263
453.91        23.46564
454.36        23.45115
454.80        23.42923
455.24        23.41213
455.69        23.41185
456.13        23.39876
456.58        23.38539
457.02        23.38032
457.46        23.38151
457.91        23.33516
458.35        23.25442
458.79        23.22331
459.24        23.24043
459.68        23.28751
460.13        23.39733
460.57        23.40864
461.01        23.28896
461.46        23.68122
461.90         23.6813
462.34        23.42395
462.79         23.5818
463.23         23.4448
463.68        23.34018
464.12        23.26169
464.56        23.40187
465.01        23.56668
465.45        23.69312
465.89        23.83961
466.34        23.79002
466.78        23.65866
467.22        23.46508
467.67        23.50052
468.11         23.7213
468.55         23.6906
468.99        23.44362
469.44        23.38603
469.88        23.53207
470.32        23.65347
470.77        23.70156
471.21        23.70925
471.65        23.66887
472.10        23.57359
472.54        23.46451
472.98        23.45376
473.42        23.55533
473.87        23.66808
474.31        23.76204
474.75        23.93981
475.20        24.13901
475.64        24.11039
476.08        23.92666
476.52        23.90974
476.97          24.079
477.41        24.28539
477.85        24.46204
478.29        24.55071
478.74        24.57217
479.18        24.47076
479.62        24.35187
480.06        24.36654
480.50        24.51254
480.95        24.63614
481.39        24.69367
481.83        24.73415
482.27        24.74716
482.72        24.71347
483.16        24.67516
483.60        24.67227
484.04        24.72971
484.48        24.96026
484.93        25.29865
485.37        25.35204
485.81        25.62321
486.25         25.8839
486.69        26.91008
487.14        27.23515
487.58        26.37167
488.02        26.84961
488.46        26.40317
488.90        26.47468
489.34        26.19772
489.79        26.35061
490.23        26.76021
490.67        26.86991
491.11         26.7116
491.55        26.68167
491.99        26.81011
492.43        26.88508
492.88        26.91416
493.32        27.00559
493.76        27.16697
494.20        27.35457
494.64        27.56425
495.08        27.82209
495.52        28.08644
495.96        28.26719
496.41        28.37918
496.85        28.47818
497.29        28.59325
497.73        28.81953
498.17        29.11742
498.61        29.23702
499.05        29.19855
499.49        29.30315
499.93        29.57075
500.37        29.75567
500.82        29.86442
501.26        30.14869
501.70          30.535
502.14        30.61335
502.58        30.43396
503.02          30.424
503.46        30.61142
503.90        30.76766
504.34        30.85205
504.78        30.90287
505.22        30.91162
505.66         30.8784
506.10        30.83889
506.54        30.83598
506.98        30.88413
507.42        30.99496
507.86        31.15398
508.30        31.23627
508.74        31.38358
509.18        31.47396
509.62        31.56804
510.06        31.68457
510.50        31.82724
510.94        31.98768
511.38        32.12487
511.82        32.17988
512.26        32.14326
512.70          32.033
513.14        31.91826
513.58        31.90228
514.02        32.00054
514.46        32.18945
514.90        32.39261
515.34        32.41386
515.78        32.28767
516.22        32.09564
516.66        31.94996
517.10         31.7134
517.54        31.41521
517.98        32.00072
518.42        31.99455
518.86        32.26921
519.30        32.36594
519.74        32.44156
520.18        32.48318
520.62        32.45212
521.06        32.36764
521.50        32.22482
521.93        32.06373
522.37        31.95938
522.81        31.92958
523.25        31.96206
523.69         32.0197
524.13        32.03999
524.57        32.00674
525.01        31.93535
525.45        31.85993
525.89        31.83464
526.32        31.86854
526.76        31.94363
527.20        32.01263
527.64        32.00703
528.08        31.91096
528.52        31.74308
528.96        31.55801
529.40        31.43815
529.83        31.39939
530.27        31.42615
530.71        31.45311
531.15        31.37999
531.59        31.19335
532.03        30.93401
532.46        30.67856
532.90        30.56649
533.34        30.61382
533.78        30.76611
534.22         30.9501
534.66        31.05409
535.09        31.04169
535.53        30.96184
535.97        30.83263
536.41        30.67915
536.85        30.52321
537.28        30.37229
537.72        30.27428
538.16        30.21437
538.60        30.34529
539.04        30.51545
539.47        30.69402
539.91        30.84494
540.35        30.96694
540.79        30.81343
541.22        30.82623
541.66        30.85416
542.10        31.05846
542.54        30.91561
542.97        31.22746
543.41        31.39324
543.85        31.62239
544.29        31.83788
544.72        32.00046
545.16         32.1417
545.60        32.25327
546.04        32.23399
546.47        32.17972
546.91        32.46154
547.35        33.00627
547.79        33.33575
548.22        33.42128
548.66        33.55957
549.10        33.75525
549.53        33.96787
549.97        34.22533
550.41        34.18296
550.84        34.48524
551.28        34.63964
551.72        34.84298
552.15        35.05647
552.59        35.28034
553.03         35.5144
553.46        35.72513
553.90        35.86992
554.34        35.93386
554.77        35.98721
555.21         36.0877
555.65        36.01656
556.08        36.23275
556.52        36.39407
556.96        36.54026
557.39        36.71483
557.83        36.88055
558.27        36.94997
558.70         36.9462
559.14        37.00549
559.57        37.12753
560.01        37.26632
560.45        37.38586
560.88        37.43846
561.32        37.46162
561.75        37.45267
562.19        37.56998
562.63        37.60773
563.06        37.62334
563.50        37.70501
563.93        37.83712
564.37         38.0513
564.80        38.15748
565.24        38.31876
565.68         38.4547
566.11        38.57108
566.55        38.69281
566.98        38.74575
567.42        38.72067
567.85        39.09955
568.29        38.88408
568.72        39.26048
569.16        39.82961
569.60         40.2309
570.03        40.40397
570.47        40.57529
570.90        40.55486
571.34        41.05283
571.77        40.80441
572.21         41.1754
572.64         41.2481
573.08        41.58679
573.51        41.75706
573.95        42.00418
574.38        42.51353
574.82        42.82276
