SpectraSmart Spectrum 2.9.0.0
--------- Device Information -----------
Spectrum Name :  反射率_0
Saving Time :  2024/04/20 00:48:31
Spectro-Module Model Name : SE2030-DUVN
Spectro-Module Serial Number : OS361AC55029948
Wavelength Start : 200
Wavelength End : 1025
Wavelength Unit : Wavelength(nm)
Spectrum Unit : Reflectance(%)
-----------Spectrum Setting ------------
Integration Time : 30ms
Average : 10
Boxcar : 0
Background removal :  enabled
linearity correction :  enabled
SC :  disabled
Intensity correction :  disabled
DWT denoise :  enabled
savitzky-golay :  disabled
FFT :  disabled
Running average :  disabled
Kalman :  disabled
High pass :  disabled
---------------BEGIN--------------------
Wavelength(nm)             Reflectance(%)
200.29               0
200.75        59.05783
201.21        58.45284
201.67        59.28364
202.13        62.27991
202.58        67.66222
203.04        75.71567
203.50        83.91405
203.96        85.70871
204.42        80.73878
204.88        73.11797
205.34        66.25609
205.80        61.53944
206.26        58.12701
206.72         54.7416
207.18        51.12579
207.64        48.71814
208.10        49.36412
208.55        53.18214
209.01        57.15463
209.47        59.31902
209.93        59.69063
210.39        58.83351
210.85        57.48434
211.31        56.50215
211.77        55.95405
212.23        55.56021
212.69        55.00323
213.14        53.98191
213.60        52.53371
214.06        51.75412
214.52        51.67448
214.98        52.22933
215.44         53.3086
215.90        54.61264
216.36        56.48777
216.81        59.29233
217.27        62.49427
217.73        65.81179
218.19        67.58439
218.65        65.59764
219.11        59.54297
219.57        49.54677
220.02        37.81866
220.48        30.81329
220.94        30.95799
221.40        37.40039
221.86        46.25249
222.32        51.20898
222.77        50.73975
223.23        46.86397
223.69        42.81891
224.15        43.11364
224.61        47.50011
225.06        53.28697
225.52         58.0125
225.98        59.78244
226.44        58.68385
226.90        55.70184
227.36        51.90105
227.81        49.11222
228.27        48.32449
228.73        48.79039
229.19        49.81256
229.65        50.57339
230.10        50.84663
230.56        50.90973
231.02        50.96471
231.48        51.25122
231.93         51.7272
232.39        52.29148
232.85        52.58428
233.31        52.11497
233.77        50.84697
234.22         48.9705
234.68        47.02854
235.14        45.87266
235.60        45.77511
236.05        46.52378
236.51        47.70337
236.97        48.66033
237.43        49.24393
237.88        49.76996
238.34         50.2725
238.80         51.1934
239.26         52.5477
239.71        53.84745
240.17        54.84231
240.63        55.85614
241.08        57.01725
241.54        58.35264
242.00         59.0626
242.46        57.45194
242.91        52.58487
243.37        43.15865
243.83        29.86099
244.28        21.38267
244.74        26.45544
245.20        43.54288
245.66        60.58162
246.11        67.01371
246.57        61.94352
247.03        46.12825
247.48        23.16497
247.94        14.69763
248.40        25.11664
248.85        39.55141
249.31        50.42883
249.77        56.18687
250.22        58.31477
250.68        58.62339
251.14        57.86987
251.59        57.07244
252.05        57.08063
252.51        57.64364
252.96         57.9146
253.42        56.96898
253.88        54.90764
254.33         52.3786
254.79        51.58501
255.25        54.35624
255.70        59.98492
256.16        66.92143
256.62        72.57771
257.07        74.08477
257.53        71.74113
257.99        66.89644
258.44        61.36146
258.90        58.14696
259.35        57.02945
259.81        57.26844
260.27         57.4024
260.72        56.22017
261.18        54.04617
261.63        51.04174
262.09        48.42402
262.55        47.35187
263.00        47.76326
263.46        49.14615
263.91        50.24507
264.37        49.85793
264.83        47.99587
265.28        45.18928
265.74        42.64761
266.19        41.61372
266.65        42.24086
267.11        43.84137
267.56        45.53164
268.02        46.06265
268.47        45.20478
268.93        43.40168
269.38        41.15879
269.84        39.52077
270.30         38.7818
270.75        38.64384
271.21        38.74485
271.66        38.54206
272.12        37.88287
272.57        36.96324
273.03         36.0365
273.48        35.38396
273.94        35.11129
274.39         35.0513
274.85        35.02258
275.31        34.74854
275.76        34.15709
276.22        33.36913
276.67        32.53539
277.13        31.98117
277.58        31.70544
278.04        31.63671
278.49        31.52853
278.95        31.10212
279.40        30.29464
279.86         29.3035
280.31        28.29605
280.77        27.63996
281.22        27.33227
281.68         27.2772
282.13        27.29803
282.59        27.17482
283.04        26.84674
283.50        26.42416
283.95        25.96048
284.41        25.56707
284.86        25.25315
285.32        24.99457
285.77        24.78591
286.22        24.68957
286.68        24.69223
287.13        24.75778
287.59        24.80163
288.04        24.67345
288.50        24.37116
288.95        23.91273
289.41        23.42387
289.86        23.02665
290.32        22.80394
290.77        22.71188
291.22        22.71208
291.68        22.70839
292.13        22.68465
292.59        22.68482
293.04        22.76857
293.50         23.0411
293.95        23.49792
294.40        24.07047
294.86        24.66709
295.31        25.16162
295.77        25.51752
296.22        25.77749
296.68        25.96036
297.13        26.07693
297.58        26.16739
298.04        26.24489
298.49        26.38716
298.95        26.74863
299.40        27.33022
299.85        28.07583
300.31        28.86007
300.76        29.48613
301.21        29.90001
301.67         30.1788
302.12        30.35164
302.58        30.51906
303.03        30.69583
303.48        30.86482
303.94        31.07899
304.39        31.38727
304.84        31.79369
305.30         32.2746
305.75        32.72317
306.20        32.98728
306.66        33.06126
307.11        32.98921
307.57        32.87369
308.02        32.80508
308.47        32.83677
308.93        32.92661
309.38        33.07614
309.83         33.3324
310.29        33.67109
310.74        34.07629
311.19        34.41698
311.65        34.48287
312.10        34.24504
312.55        33.77649
313.00        33.25827
313.46         32.9738
313.91        32.97495
314.36        33.19113
314.82        33.49091
315.27        33.67554
315.72         33.6701
316.18        33.54789
316.63        33.35965
317.08           33.19
317.53        33.06515
317.99        32.93961
318.44        32.81392
318.89        32.68773
319.35        32.55731
319.80        32.43561
320.25        32.29704
320.70        32.09465
321.16        31.81931
321.61        31.48736
322.06        31.14471
322.51        30.87161
322.97        30.68155
323.42        30.55916
323.87        30.44611
324.32        30.25152
324.78        29.94826
325.23        29.57218
325.68        29.17014
326.13        28.82613
326.59        28.56987
327.04        28.40119
327.49        28.28325
327.94        28.15933
328.39        28.00946
328.85        27.82731
329.30        27.68248
329.75        27.65022
330.20        27.73567
330.66        27.88445
331.11        28.00795
331.56        27.91521
332.01        27.56622
332.46        27.01556
332.92        26.38681
333.37        25.89964
333.82        25.63371
334.27        25.55392
334.72        25.58242
335.17        25.57512
335.63        25.47488
336.08        25.32656
336.53        25.19697
336.98        25.20463
337.43        25.36588
337.88        25.63058
338.34        25.84885
338.79        25.83127
339.24        25.52276
339.69        24.98556
340.14        24.41241
340.59        24.12507
341.05        24.18932
341.50        24.51582
341.95        24.90624
342.40        25.04908
342.85        24.87363
343.30        24.49386
343.75        24.04507
344.20        23.74666
344.66        23.66024
345.11        23.68084
345.56        23.77459
346.01        23.88904
346.46        23.98175
346.91        24.08392
347.36        24.09944
347.81        23.86859
348.26        23.39718
348.72        22.77201
349.17        22.15604
349.62        21.90114
350.07        22.08631
350.52        22.58628
350.97        23.22933
351.42        23.75711
351.87        24.07681
352.32        24.24651
352.77        24.26566
353.22        24.14032
353.67         23.8975
354.13         23.5482
354.58        23.14707
355.03        22.82596
355.48        22.62655
355.93        22.54085
356.38        22.53374
356.83        22.53241
357.28        22.50882
357.73        22.47157
358.18        22.43617
358.63        22.42923
359.08        22.44832
359.53        22.47525
359.98        22.46001
360.43        22.33232
360.88        22.09073
361.33        21.76973
361.78        21.44892
362.23        21.25683
362.68        21.22092
363.13        21.29132
363.58        21.40458
364.03        21.46216
364.48        21.42824
364.93        21.33013
365.38        21.16368
365.83        20.92666
366.28        20.63664
366.73        20.29982
367.18        19.97276
367.63        19.74492
368.08        19.63407
368.53        19.61962
368.98        19.64991
369.43        19.63584
369.88         19.5567
370.33        19.44354
370.78        19.32196
371.23        19.23836
371.68         19.2083
372.13        19.20288
372.58        19.23067
373.03        19.31131
373.48         19.4286
373.93        19.56549
374.38        19.65486
374.83        19.59428
375.28        19.37138
375.72        19.01727
376.17        18.62712
376.62        18.31563
377.07        18.12827
377.52        18.03588
377.97        18.02205
378.42        18.05577
378.87         18.1116
379.32        18.19038
379.77        18.26055
380.22        18.27193
380.67        18.21507
381.11        18.10381
381.56        17.94675
382.01        17.78441
382.46        17.63268
382.91        17.47653
383.36        17.34021
383.81        17.25574
384.26        17.22343
384.71        17.24735
385.15        17.25801
385.60        17.14777
386.05        16.90794
386.50        16.57613
386.95        16.27071
387.40        16.18056
387.85        16.32984
388.29        16.63692
388.74        16.96709
389.19        17.12999
389.64        17.08299
390.09          16.884
390.54        16.60985
390.98        16.37892
391.43        16.25122
391.88        16.18396
392.33        16.14319
392.78        16.08131
393.23        15.98818
393.67         15.8719
394.12        15.78383
394.57        15.73671
395.02        15.73267
395.47        15.76018
395.91        15.78546
396.36          15.737
396.81        15.61056
397.26        15.42416
397.71        15.24269
398.15        15.14901
398.60        15.17384
399.05        15.27951
399.50        15.38852
399.95        15.38808
400.39        15.25536
400.84        15.02014
401.29        14.76696
401.74        14.65261
402.18        14.72384
402.63        14.92434
403.08        15.14148
403.53        15.19491
403.97        15.04745
404.42        14.76686
404.87          14.468
405.32        14.33891
405.76        14.42052
406.21         14.6442
406.66        14.90363
407.11        15.03486
407.55        14.99559
408.00        14.84123
408.45        14.63405
408.90        14.44578
409.34         14.3309
409.79        14.33255
410.24         14.4013
410.68        14.40227
411.13         14.3222
411.58        14.23383
412.03        14.15743
412.47        14.10518
412.92        14.08319
413.37        14.07565
413.81        14.08994
414.26        14.15271
414.71         14.2543
415.15        14.39427
415.60        14.49917
416.05        14.47403
416.49        14.30141
416.94        14.02066
417.39        13.72086
417.83        13.54654
418.28        13.53946
418.73        13.64915
419.17        13.80707
419.62        13.89212
420.07        13.87441
420.51        13.79025
420.96        13.67412
421.41        13.56287
421.85        13.46905
422.30        13.38966
422.74        13.32574
423.19        13.30465
423.64        13.32046
424.08        13.37682
424.53        13.43593
424.98        13.45378
425.42         13.4208
425.87        13.35138
426.31        13.26371
426.76        13.19598
427.21        13.14977
427.65        13.10695
428.10        13.08352
428.54        13.08478
428.99        13.11281
429.44        13.22637
429.88        13.34882
430.33        13.26815
430.77        13.02992
431.22        12.89456
431.66        12.90483
432.11        12.97904
432.56        13.09876
433.00        13.32385
433.45        13.50255
433.89        13.41252
434.34        13.14081
434.78        12.83507
435.23        12.52252
435.67        13.08396
436.12        12.69577
436.57        12.70756
437.01        12.60223
437.46        12.57307
437.90        12.61655
438.35        12.63468
438.79        12.61942
439.24        12.61679
439.68         12.6263
440.13        12.52982
440.57        12.38177
441.02        12.47205
441.46        12.67805
441.91        12.62438
442.35        12.04627
442.80        11.82506
443.24         11.8393
443.69         11.8174
444.13        11.73485
444.58        11.68977
445.02        11.68113
445.47        11.71539
445.91        11.76218
446.36         11.7457
446.80        11.65336
447.24        11.52155
447.69        11.39156
448.13        11.29988
448.58        11.26505
449.02        11.27434
449.47        11.30064
449.91        11.29434
450.36        11.24866
450.80         11.1768
451.25        11.11445
451.69        11.10247
452.13        11.15224
452.58        11.23954
453.02        11.33673
453.47        11.39921
453.91         11.4176
454.36        11.40515
454.80        11.37307
455.24        11.34171
455.69        11.32393
456.13         11.2987
456.58        11.28253
457.02        11.29434
457.46         11.3332
457.91        11.36871
458.35        11.38503
458.79         11.3816
459.24         11.3547
459.68        11.30581
460.13        11.28841
460.57        11.27384
461.01        11.25876
461.46        11.53986
461.90        11.64744
462.34        11.54823
462.79        11.62015
463.23        11.48345
463.68        11.35256
464.12        11.27052
464.56        11.34752
465.01        11.48109
465.45         11.6171
465.89          11.688
466.34        11.68399
466.78        11.59196
467.22        11.46803
467.67        11.48431
468.11         11.6236
468.55        11.64548
468.99          11.559
469.44        11.56852
469.88        11.67804
470.32        11.77023
470.77        11.81323
471.21        11.81943
471.65        11.78372
472.10        11.70589
472.54         11.6197
472.98         11.6098
473.42        11.68808
473.87        11.79415
474.31        11.89392
474.75        12.00433
475.20        12.08822
475.64        12.03228
476.08        11.89278
476.52        11.86093
476.97        11.95405
477.41        12.08957
477.85        12.21967
478.29        12.30306
478.74        12.32433
479.18        12.27284
479.62        12.21044
480.06         12.2374
480.50        12.35419
480.95        12.47269
481.39         12.5461
481.83         12.5646
482.27        12.52177
482.72        12.42195
483.16        12.31868
483.60        12.30541
484.04        12.39802
484.48         12.6096
484.93        12.92431
485.37        13.10268
485.81         13.1733
486.25        13.54332
486.69        13.58064
487.14        13.30186
487.58        13.23009
488.02        14.14467
488.46        13.63642
488.90        13.72068
489.34        13.65482
489.79        13.84289
490.23        14.20948
490.67        14.43237
491.11        14.47757
491.55        14.39372
491.99        14.24143
492.43         14.1616
492.88        14.19045
493.32        14.23036
493.76        14.28709
494.20        14.41794
494.64        14.61945
495.08        14.86662
495.52        15.12203
495.96         15.3405
496.41        15.50809
496.85         15.6058
497.29         15.6593
497.73         15.7891
498.17        15.98443
498.61        16.07327
499.05        16.07589
499.49        16.18882
499.93        16.42479
500.37        16.63819
500.82        16.81087
501.26        17.05482
501.70        17.31965
502.14        17.37866
502.58        17.27245
503.02        17.26526
503.46        17.37956
503.90        17.48079
504.34        17.53805
504.78        17.55928
505.22        17.54065
505.66        17.49395
506.10        17.45027
506.54        17.45486
506.98        17.52081
507.42        17.63277
507.86        17.77928
508.30        17.94058
508.74        18.10006
509.18        18.25517
509.62        18.38629
510.06        18.46325
510.50        18.48448
510.94        18.46453
511.38        18.41979
511.82        18.38057
512.26        18.36058
512.70        18.35017
513.14        18.37074
513.58        18.44954
514.02        18.57735
514.46        18.74801
514.90        18.90391
515.34         18.8965
515.78        18.73444
516.22        18.53207
516.66        18.39107
517.10        18.12265
517.54        17.75363
517.98        18.43207
518.42        18.39448
518.86        18.69175
519.30        18.77854
519.74        18.84182
520.18        18.87382
520.62        18.84093
521.06        18.76775
521.50         18.6443
521.93        18.50723
522.37        18.42695
522.81        18.41689
523.25        18.46319
523.69        18.52828
524.13        18.54956
524.57        18.51067
525.01        18.42801
525.45        18.33166
525.89        18.27001
526.32        18.25398
526.76        18.26889
527.20        18.28254
527.64         18.2487
528.08         18.1563
528.52        18.01873
528.96        17.87307
529.40        17.77366
529.83        17.73181
530.27        17.73705
530.71        17.74291
531.15        17.67707
531.59        17.53099
532.03        17.33359
532.46        17.14647
532.90        17.08004
533.34        17.14607
533.78        17.30178
534.22        17.48185
534.66        17.58707
535.09        17.58696
535.53        17.51881
535.97        17.40961
536.41        17.30014
536.85        17.21125
537.28        17.14088
537.72        17.10549
538.16        17.07855
538.60        17.14366
539.04        17.22271
539.47        17.31435
539.91        17.42043
540.35        17.54335
540.79        17.53305
541.22        17.62084
541.66        17.68997
542.10        17.82578
542.54         17.7374
542.97        17.89991
543.41        17.99324
543.85        18.14555
544.29        18.30829
544.72        18.44936
545.16        18.57197
545.60        18.66656
546.04        18.67707
546.47        18.67114
546.91        18.87489
547.35        19.24386
547.79        19.52037
548.22        19.65918
548.66         19.7241
549.10        19.74964
549.53        19.87787
549.97        20.11996
550.41        20.12531
550.84        20.26961
551.28        20.35313
551.72        20.50994
552.15        20.70636
552.59        20.94021
553.03         21.2054
553.46        21.45098
553.90        21.62023
554.34        21.70085
554.77        21.71166
555.21        21.69426
555.65        21.70494
556.08        21.75877
556.52        21.83898
556.96        21.93508
557.39        22.05825
557.83        22.19368
558.27        22.28738
558.70        22.33842
559.14        22.38846
559.57        22.43195
560.01        22.46938
560.45        22.49393
560.88        22.46782
561.32        22.44176
561.75        22.47649
562.19        22.64464
562.63        22.73465
563.06        22.76224
563.50        22.79998
563.93        22.85695
564.37        22.98866
564.80        23.09519
565.24        23.24391
565.68        23.36619
566.11        23.49151
566.55        23.63999
566.98        23.55261
567.42        23.61646
567.85        23.84168
568.29         23.7343
568.72        24.00562
569.16        24.39235
569.60        24.63888
570.03        24.70303
570.47        24.75112
570.90        24.70818
571.34        25.01913
571.77        24.87403
572.21        25.26457
572.64        25.47948
573.08        25.55537
573.51        25.74776
573.95        26.29362
574.38        26.42958
574.82        26.58331
