SpectraSmart Spectrum 2.9.0.0
--------- Device Information -----------
Spectrum Name :  反射率_0
Saving Time :  2024/04/20 00:40:38
Spectro-Module Model Name : SE2030-DUVN
Spectro-Module Serial Number : OS361AC55029948
Wavelength Start : 200
Wavelength End : 1025
Wavelength Unit : Wavelength(nm)
Spectrum Unit : Reflectance(%)
-----------Spectrum Setting ------------
Integration Time : 30ms
Average : 10
Boxcar : 0
Background removal :  enabled
linearity correction :  enabled
SC :  disabled
Intensity correction :  disabled
DWT denoise :  enabled
savitzky-golay :  disabled
FFT :  disabled
Running average :  disabled
Kalman :  disabled
High pass :  disabled
---------------BEGIN--------------------
Wavelength(nm)             Reflectance(%)
200.29               0
200.75        60.72206
201.21        59.73861
201.67        60.64962
202.13        64.18033
202.58        70.50096
203.04        79.87353
203.50         89.4017
203.96        91.63165
204.42        86.10774
204.88        77.55564
205.34        69.70918
205.80        63.98037
206.26        59.39017
206.72        54.34142
207.18        48.81957
207.64        46.18853
208.10        49.55276
208.55        57.69979
209.01         65.3886
209.47        69.01939
209.93        68.93186
210.39        66.55483
210.85        63.18597
211.31        60.10615
211.77        57.40554
212.23        54.36828
212.69        51.36132
213.14        50.60553
213.60        52.37341
214.06        55.69939
214.52        58.82414
214.98        60.94317
215.44        62.30215
215.90         62.9812
216.36        63.46899
216.81        64.63392
217.27        66.39027
217.73        68.44701
218.19        69.25552
218.65        66.63221
219.11         60.2291
219.57        50.30136
220.02        39.01708
220.48        32.58874
220.94        33.28878
221.40        40.13913
221.86        49.26545
222.32        54.51686
222.77        54.29673
223.23        50.48295
223.69         46.0615
224.15          45.275
224.61         48.1475
225.06        52.43019
225.52        55.88731
225.98        56.72184
226.44         55.0195
226.90        51.72489
227.36        48.06475
227.81        46.12969
228.27        46.77445
228.73        48.91093
229.19         51.5003
229.65        53.38511
230.10        54.29601
230.56        54.67307
231.02        54.71082
231.48        54.64341
231.93        54.50801
232.39        54.23958
232.85        53.76641
233.31        53.05113
233.77        52.12601
234.22        51.06757
234.68         50.0351
235.14         49.1873
235.60        48.62201
236.05        48.33773
236.51        48.31999
236.97        48.50714
237.43         48.9197
237.88        49.78868
238.34        50.97978
238.80        52.31463
239.26        53.43382
239.71        54.04589
240.17        54.31541
240.63        55.18248
241.08        56.90731
241.54        59.26857
242.00        61.23384
242.46        60.77665
242.91        56.88387
243.37        48.53116
243.83          36.373
244.28        28.44542
244.74        32.92843
245.20        48.45113
245.66        64.31773
246.11        71.37856
246.57         69.0564
247.03         58.3709
247.48        42.22069
247.94        36.87569
248.40        45.16755
248.85        55.97121
249.31        63.85639
249.77        67.62971
250.22        68.40813
250.68        67.54921
251.14         65.6693
251.59        63.89913
252.05        63.14622
252.51        63.10173
252.96        63.21175
253.42        62.81263
253.88         61.9021
254.33        61.06628
254.79        61.37054
255.25        63.44959
255.70        66.89101
256.16        70.76692
256.62        74.14751
257.07        76.07207
257.53        76.52641
257.99        75.72273
258.44        73.50404
258.90        70.65154
259.35        67.46846
259.81        64.89642
260.27        62.70691
260.72        60.62437
261.18        58.77958
261.63        56.73069
262.09        55.18331
262.55        54.60809
263.00        54.83796
263.46        55.71054
263.91        56.21447
264.37        55.44452
264.83        53.43713
265.28         50.5948
265.74          48.054
266.19        46.95041
266.65        47.43484
267.11        48.86478
267.56        50.40054
268.02         50.8543
268.47        49.99629
268.93        48.24254
269.38        46.05558
269.84         44.4147
270.30        43.59621
270.75        43.32264
271.21        43.26527
271.66        42.92486
272.12        42.16126
272.57        41.15212
273.03        40.14294
273.48          39.396
273.94        39.02346
274.39        38.87783
274.85        38.77508
275.31        38.42566
275.76        37.75168
276.22        36.85994
276.67        35.94479
277.13        35.40671
277.58        35.23451
278.04        35.33571
278.49        35.33907
278.95        34.79784
279.40        33.64495
279.86        32.16354
280.31         30.6841
280.77        29.81336
281.22        29.57277
281.68        29.77339
282.13         30.0983
282.59        30.12312
283.04         29.7392
283.50        29.14177
283.95        28.45434
284.41        27.89163
284.86        27.49795
285.32        27.21806
285.77        27.04611
286.22        27.05307
286.68        27.20985
287.13        27.46116
287.59        27.69478
288.04        27.71282
288.50        27.50101
288.95        27.08652
289.41        26.58295
289.86        26.09539
290.32        25.72172
290.77        25.43396
291.22        25.25481
291.68         25.1772
292.13        25.19901
292.59        25.34108
293.04         25.6098
293.50        26.02431
293.95        26.55844
294.40        27.17478
294.86        27.81079
295.31        28.38659
295.77        28.88002
296.22        29.31044
296.68        29.69402
297.13        30.04152
297.58        30.37954
298.04        30.71577
298.49        31.09358
298.95        31.61602
299.40        32.27768
299.85         33.0455
300.31        33.83119
300.76         34.4917
301.21        34.99129
301.67         35.3908
302.12        35.71161
302.58        36.05247
303.03        36.41187
303.48        36.77103
303.94        37.15454
304.39        37.56113
304.84        37.98975
305.30         38.4342
305.75        38.81239
306.20        39.02008
306.66        39.06697
307.11        38.97841
307.57        38.85714
308.02        38.78353
308.47        38.80584
308.93        38.88763
309.38        39.00683
309.83        39.17875
310.29        39.37849
310.74        39.59918
311.19        39.74367
311.65         39.6571
312.10        39.31899
312.55         38.7824
313.00         38.2024
313.46        37.81826
313.91        37.67056
314.36        37.71121
314.82        37.81204
315.27        37.78381
315.72        37.56437
316.18        37.22476
316.63        36.85389
317.08        36.59422
317.53        36.47492
317.99        36.43584
318.44        36.40429
318.89        36.25785
319.35        35.96639
319.80        35.57454
320.25        35.14876
320.70        34.79322
321.16        34.53291
321.61        34.34021
322.06         34.1642
322.51        33.92668
322.97        33.59925
323.42        33.21455
323.87        32.80487
324.32        32.42662
324.78        32.09285
325.23        31.79734
325.68        31.50648
326.13        31.17166
326.59        30.78681
327.04        30.39707
327.49        30.04309
327.94        29.78951
328.39        29.64971
328.85        29.58077
329.30        29.58768
329.75        29.63126
330.20        29.68204
330.66         29.7212
331.11        29.72071
331.56        29.58523
332.01        29.29852
332.46        28.87897
332.92        28.40207
333.37        28.01042
333.82        27.75774
334.27        27.63838
334.72        27.59467
335.17        27.51783
335.63        27.36564
336.08        27.16389
336.53        26.99897
336.98        27.02438
337.43        27.25667
337.88        27.64422
338.34        27.97007
338.79        27.93278
339.24        27.45999
339.69        26.64695
340.14        25.79124
340.59        25.39374
341.05        25.56184
341.50        26.14689
341.95        26.84087
342.40        27.16344
342.85         27.0011
343.30        26.51949
343.75        25.91928
344.20        25.52803
344.66        25.43904
345.11         25.5048
345.56        25.65937
346.01        25.80367
346.46        25.87955
346.91        25.94328
347.36        25.90116
347.81        25.58999
348.26        25.02228
348.72        24.28473
349.17         23.5669
349.62        23.26751
350.07        23.47282
350.52        24.04047
350.97        24.76464
351.42         25.3342
351.87        25.64233
352.32        25.76227
352.77        25.70795
353.22         25.5104
353.67        25.20738
354.13        24.80271
354.58        24.35394
355.03        23.99867
355.48        23.77846
355.93        23.68639
356.38        23.67808
356.83        23.66434
357.28        23.61171
357.73        23.52933
358.18        23.44212
358.63         23.3935
359.08        23.38647
359.53        23.40222
359.98        23.37511
360.43        23.21004
360.88        22.90357
361.33        22.49747
361.78         22.1012
362.23        21.89263
362.68        21.90253
363.13        22.05642
363.58        22.24906
364.03        22.31767
364.48        22.21315
364.93        21.99033
365.38        21.66651
365.83        21.27732
366.28        20.86291
366.73        20.42009
367.18        20.03267
367.63        19.83069
368.08        19.82651
368.53        19.98067
368.98        20.17764
369.43        20.22975
369.88        20.09381
370.33        19.82433
370.78        19.49805
371.23        19.25407
371.68        19.13843
372.13        19.09903
372.58        19.11402
373.03        19.14956
373.48        19.17724
373.93        19.20771
374.38        19.19648
374.83        19.06884
375.28        18.81939
375.72        18.46442
376.17        18.09254
376.62        17.81083
377.07         17.6579
377.52        17.60596
377.97        17.62687
378.42        17.67193
378.87        17.71378
379.32        17.75709
379.77        17.78957
380.22        17.79067
380.67        17.75832
381.11        17.70199
381.56        17.60995
382.01        17.48706
382.46        17.34035
382.91        17.16303
383.36        17.00861
383.81        16.95412
384.26        17.00563
384.71        17.15017
385.15        17.27513
385.60        17.20922
386.05        16.92997
386.50        16.49237
386.95        16.06158
387.40        15.90018
387.85        16.04908
388.29         16.4067
388.74        16.78699
389.19         16.9257
389.64        16.76968
390.09        16.40215
390.54        15.96124
390.98         15.6624
391.43         15.5825
391.88         15.6418
392.33        15.73799
392.78        15.72562
393.23        15.58125
393.67        15.35429
394.12          15.149
394.57        15.05073
395.02        15.07715
395.47        15.19154
395.91        15.33273
396.36        15.38099
396.81        15.30973
397.26        15.14901
397.71        14.97342
398.15        14.88022
398.60        14.90631
399.05        15.01038
399.50        15.11139
399.95        15.09313
400.39        14.93415
400.84        14.66729
401.29        14.39184
401.74        14.28832
402.18         14.4063
402.63        14.67959
403.08        14.96958
403.53        15.05722
403.97        14.89794
404.42        14.57241
404.87        14.21611
405.32        14.05104
405.76        14.12926
406.21        14.37259
406.66        14.66675
407.11        14.83525
407.55         14.8309
408.00         14.7134
408.45        14.54361
408.90         14.3892
409.34        14.30089
409.79        14.31742
410.24        14.39124
410.68        14.39266
411.13        14.31011
411.58        14.21786
412.03        14.13181
412.47         14.0559
412.92        13.99903
413.37        13.95284
413.81        13.93974
414.26        14.00831
414.71        14.15211
415.15         14.3611
415.60        14.54897
416.05        14.59834
416.49        14.48092
416.94        14.23958
417.39        13.95845
417.83        13.77683
418.28        13.73857
418.73        13.79451
419.17         13.8935
419.62        13.94194
420.07        13.91675
420.51        13.85045
420.96        13.76057
421.41        13.65469
421.85        13.54095
422.30        13.42713
422.74        13.33291
423.19         13.3144
423.64        13.36913
424.08        13.48685
424.53        13.61365
424.98        13.67608
425.42        13.65466
425.87        13.57782
426.31        13.46391
426.76        13.35139
427.21        13.24751
427.65        13.13095
428.10         13.0514
428.54        13.07092
428.99        13.19396
429.44        13.45613
429.88        13.72036
430.33        13.68139
430.77        13.37723
431.22        13.11187
431.66        12.97561
432.11        12.96213
432.56        13.07721
433.00        13.35694
433.45        13.63218
433.89        13.63845
434.34        13.43718
434.78        13.18728
435.23        12.90304
435.67        13.47324
436.12        13.02024
436.57        12.93676
437.01        12.72024
437.46        12.61766
437.90        12.63908
438.35        12.67666
438.79        12.69893
439.24        12.71052
439.68        12.70092
440.13        12.56599
440.57        12.37962
441.02        12.45963
441.46        12.68889
441.91        12.67795
442.35        12.14362
442.80        11.95377
443.24        11.98383
443.69        11.96689
444.13        11.87948
444.58        11.82263
445.02         11.7983
445.47        11.81161
445.91         11.8409
446.36        11.82502
446.80        11.75218
447.24        11.65323
447.69        11.55535
448.13        11.47207
448.58        11.41779
449.02        11.38877
449.47          11.368
449.91         11.3225
450.36        11.25217
450.80        11.16488
451.25        11.09763
451.69        11.09376
452.13        11.16097
452.58        11.27174
453.02        11.38782
453.47        11.44761
453.91         11.4386
454.36        11.38087
454.80        11.29248
455.24        11.20652
455.69        11.14505
456.13        11.08788
456.58        11.05892
457.02        11.08675
457.46        11.16799
457.91        11.26468
458.35        11.34808
458.79        11.39839
459.24        11.40464
459.68        11.37186
460.13         11.3516
460.57        11.31298
461.01        11.25705
461.46        11.48371
461.90        11.53674
462.34        11.40404
462.79        11.46403
463.23        11.33827
463.68        11.23282
464.12        11.17782
464.56        11.27577
465.01        11.42587
465.45        11.57286
465.89        11.64827
466.34        11.64319
466.78        11.54526
467.22        11.41086
467.67        11.41316
468.11        11.53652
468.55        11.54183
468.99        11.44521
469.44        11.45901
469.88         11.5875
470.32        11.71113
470.77        11.78436
471.21        11.79774
471.65        11.74211
472.10        11.62425
472.54        11.49214
472.98        11.45362
473.42        11.52701
473.87        11.64533
474.31        11.76508
474.75        11.88799
475.20        11.97281
475.64        11.91188
476.08        11.76496
476.52        11.72708
476.97        11.81643
477.41        11.94816
477.85        12.07254
478.29        12.14542
478.74        12.15194
479.18        12.08506
479.62        12.00654
480.06        12.01715
480.50        12.11589
480.95        12.21004
481.39        12.26068
481.83        12.26909
482.27        12.23166
482.72        12.15455
483.16        12.06441
483.60        12.02369
484.04        12.04373
484.48        12.11812
484.93        12.30595
485.37        12.49733
485.81        12.68879
486.25        13.18799
486.69         13.3474
487.14        12.83712
487.58          12.996
488.02        13.78129
488.46        13.15575
488.90        13.18537
489.34        13.18085
489.79        13.36799
490.23        13.64831
490.67          13.743
491.11        13.66537
491.55        13.61172
491.99        13.60961
492.43        13.57926
492.88        13.53841
493.32         13.5247
493.76        13.56645
494.20        13.69213
494.64        13.90409
495.08        14.18302
495.52        14.48109
495.96        14.73568
496.41        14.92559
496.85        15.03447
497.29        15.08574
497.73        15.19508
498.17        15.35364
498.61        15.39705
499.05        15.35033
499.49        15.41165
499.93        15.59768
500.37         15.7696
500.82        15.91523
501.26        16.14542
501.70        16.41213
502.14        16.50102
502.58        16.43661
503.02        16.44853
503.46         16.5543
503.90        16.62884
504.34        16.66144
504.78        16.69239
505.22        16.72183
505.66        16.74712
506.10        16.77229
506.54        16.79867
506.98        16.83158
507.42        16.87728
507.86        16.94228
508.30        17.03593
508.74        17.15463
509.18        17.28374
509.62        17.42022
510.06        17.56003
510.50        17.69752
510.94        17.83841
511.38         17.9446
511.82        17.95578
512.26        17.86876
512.70        17.70196
513.14        17.54218
513.58        17.52428
514.02        17.66589
514.46        17.92632
514.90        18.20342
515.34        18.27579
515.78        18.12621
516.22        17.89636
516.66         17.7007
517.10        17.36712
517.54        16.93363
517.98        17.55307
518.42        17.45589
518.86        17.72683
519.30        17.81683
519.74        17.90923
520.18        17.98068
520.62         17.9692
521.06        17.89174
521.50        17.74688
521.93        17.57545
522.37        17.45631
522.81        17.40876
523.25        17.41619
523.69         17.4521
524.13         17.4715
524.57        17.45916
525.01        17.42682
525.45        17.38597
525.89        17.35341
526.32         17.3338
526.76        17.32291
527.20        17.30535
527.64         17.2631
528.08        17.19168
528.52        17.09191
528.96        16.99304
529.40         16.9381
529.83        16.93245
530.27        16.96975
530.71        16.99422
531.15        16.91828
531.59         16.7335
532.03        16.47376
532.46        16.22207
532.90        16.12296
533.34         16.1953
533.78        16.38647
534.22        16.61014
534.66        16.73326
535.09        16.71762
535.53        16.61165
535.97        16.45746
536.41        16.32004
536.85        16.22689
537.28        16.16645
537.72        16.14712
538.16        16.13313
538.60        16.19933
539.04        16.27655
539.47        16.36347
539.91        16.46067
540.35         16.5709
540.79        16.55145
541.22        16.62461
541.66        16.68665
542.10        16.81958
542.54        16.74813
542.97        16.91511
543.41        17.00919
543.85        17.14972
544.29        17.29328
544.72        17.41736
545.16        17.53736
545.60        17.64547
546.04        17.68315
546.47        17.70475
546.91        17.90915
547.35        18.25199
547.79        18.49788
548.22        18.61073
548.66        18.66018
549.10         18.6832
549.53        18.80975
549.97        19.05903
550.41        19.11221
550.84        19.32302
551.28        19.49525
551.72        19.73232
552.15        19.96276
552.59        20.17756
553.03         20.3854
553.46        20.56249
553.90          20.693
554.34        20.77592
554.77        20.81717
555.21        20.84836
555.65        20.90904
556.08        21.00599
556.52        21.12736
556.96        21.25641
557.39        21.39339
557.83        21.52333
558.27        21.59597
558.70        21.62189
559.14        21.66026
559.57        21.71139
560.01        21.77298
560.45         21.8295
560.88        21.82851
561.32        21.81429
561.75        21.85089
562.19        22.01891
562.63        22.11875
563.06         22.1712
563.50        22.26291
563.93        22.37594
564.37        22.50217
564.80        22.53397
565.24        22.58203
565.68        22.62424
566.11        22.69604
566.55        22.81899
566.98         22.9436
567.42        23.04263
567.85        23.34296
568.29        23.26897
568.72         23.5172
569.16        23.86856
569.60        24.11985
570.03        24.23854
570.47        24.38039
570.90        24.43538
571.34        24.77398
571.77        24.60373
572.21        25.02173
572.64        25.10964
573.08        25.35966
573.51        25.51815
573.95        25.98963
574.38         26.1516
574.82        26.32779
