SpectraSmart Spectrum 2.9.0.0
--------- Device Information -----------
Spectrum Name :  反射率_0
Saving Time :  2024/04/20 00:35:20
Spectro-Module Model Name : SE2030-DUVN
Spectro-Module Serial Number : OS361AC55029948
Wavelength Start : 200
Wavelength End : 1025
Wavelength Unit : Wavelength(nm)
Spectrum Unit : Reflectance(%)
-----------Spectrum Setting ------------
Integration Time : 30ms
Average : 10
Boxcar : 0
Background removal :  enabled
linearity correction :  enabled
SC :  disabled
Intensity correction :  disabled
DWT denoise :  enabled
savitzky-golay :  disabled
FFT :  disabled
Running average :  disabled
Kalman :  disabled
High pass :  disabled
---------------BEGIN--------------------
Wavelength(nm)             Reflectance(%)
200.29               0
200.75        48.24204
201.21        48.42667
201.67        50.96716
202.13        56.11946
202.58        63.82141
203.04         74.2631
203.50         85.0657
203.96        89.74413
204.42        87.13518
204.88        80.84636
205.34        74.38132
205.80        69.35137
206.26        64.93535
206.72        59.51047
207.18        52.60195
207.64        46.85967
208.10        46.00141
208.55        50.35873
209.01        55.35003
209.47        56.96752
209.93        55.36377
210.39        52.21719
210.85         48.9086
211.31        46.89208
211.77        46.35137
212.23        46.59132
212.69        48.00047
213.14        51.06172
213.60         54.2009
214.06        57.04507
214.52        58.76661
214.98        59.13228
215.44        58.44079
215.90        56.53942
216.36        54.37595
216.81        54.24652
217.27        56.76496
217.73         61.2463
218.19        65.18381
218.65        65.17464
219.11        60.61642
219.57        51.92782
220.02        41.59839
220.48         36.4948
220.94        38.92774
221.40        47.50294
221.86        57.50856
222.32        61.68794
222.77        58.56562
223.23        50.89429
223.69        42.96702
224.15         40.7947
224.61        44.44285
225.06          50.603
225.52        56.28019
225.98         59.1392
226.44        59.20333
226.90        57.63924
227.36        55.37893
227.81        53.88039
228.27        53.92203
228.73        54.70664
229.19        55.80557
229.65        56.80083
230.10        57.48905
230.56        58.06776
231.02        58.45712
231.48        58.54978
231.93        58.32643
232.39         57.8632
232.85         57.1808
233.31         56.3736
233.77        55.50864
234.22        54.59384
234.68        53.74508
235.14        53.06431
235.60        52.61768
236.05        52.41933
236.51        52.45155
236.97        52.65188
237.43         53.0279
237.88         53.7716
238.34        54.70612
238.80         55.6829
239.26        56.38491
239.71        56.59136
240.17        56.37921
240.63        56.47586
241.08        57.09668
241.54        58.08612
242.00        58.63517
242.46        57.06053
242.91        52.40912
243.37         43.5551
243.83        30.92193
244.28        22.00957
244.74         24.9257
245.20        38.89627
245.66        53.65104
246.11        59.89592
246.57        56.84632
247.03        45.42723
247.48        28.90463
247.94        24.52429
248.40        34.47561
248.85        46.69056
249.31        55.43386
249.77        59.67896
250.22        60.69246
250.68        59.88463
251.14        57.90288
251.59         55.8836
252.05        54.83438
252.51         54.5707
252.96        54.45834
253.42        53.73301
253.88        52.38468
254.33        50.94958
254.79        51.05033
255.25        53.91904
255.70        59.02469
256.16        65.19941
256.62        70.42054
257.07        72.48559
257.53        71.59075
257.99        68.60195
258.44        64.85181
258.90        62.75328
259.35        62.00212
259.81        62.23009
260.27         62.1514
260.72        60.67417
261.18        58.20932
261.63        54.90378
262.09        52.05697
262.55        50.92987
263.00        51.45728
263.46        53.07974
263.91        54.47732
264.37        54.40527
264.83        52.84045
265.28        50.30579
265.74        47.98837
266.19        47.07482
266.65        47.72604
267.11        49.26316
267.56        50.84103
268.02        51.27555
268.47        50.35024
268.93         48.5127
269.38        46.23656
269.84        44.51297
270.30        43.63337
270.75        43.31322
271.21        43.27153
271.66         43.0789
272.12         42.5839
272.57        41.92603
273.03         41.2286
273.48        40.56409
273.94        40.02014
274.39          39.528
274.85        39.03564
275.31        38.43987
275.76        37.70882
276.22        36.89306
276.67        36.12807
277.13        35.72621
277.58        35.64368
278.04        35.80978
278.49        35.86459
278.95        35.37672
279.40        34.27762
279.86        32.83826
280.31        31.37054
280.77        30.46041
281.22        30.13696
281.68        30.23597
282.13        30.46974
282.59         30.4578
283.04        30.09646
283.50        29.55291
283.95        28.94462
284.41         28.4798
284.86        28.18608
285.32         28.0078
285.77        27.88539
286.22        27.80909
286.68        27.75535
287.13        27.71273
287.59         27.6579
288.04        27.51939
288.50        27.30489
288.95        26.99609
289.41        26.65293
289.86        26.29266
290.32        25.98001
290.77        25.71147
291.22        25.50941
291.68        25.36711
292.13        25.29139
292.59        25.30113
293.04        25.43254
293.50        25.75569
293.95         26.2548
294.40        26.88109
294.86        27.54356
295.31        28.11336
295.77        28.55523
296.22        28.90286
296.68        29.19226
297.13        29.46589
297.58        29.76222
298.04        30.08151
298.49        30.45349
298.95         30.9615
299.40        31.59389
299.85          32.319
300.31        33.06821
300.76         33.7281
301.21        34.26372
301.67        34.72594
302.12        35.09565
302.58        35.41054
303.03        35.66679
303.48        35.87174
303.94        36.10929
304.39        36.46945
304.84        36.96741
305.30          37.564
305.75        38.12561
306.20        38.46605
306.66         38.5741
307.11        38.50437
307.57        38.38426
308.02        38.33286
308.47        38.41045
308.93        38.56217
309.38        38.76897
309.83        39.05306
310.29        39.38551
310.74        39.76046
311.19        40.05353
311.65        40.06435
312.10        39.76592
312.55        39.22363
313.00        38.63177
313.46        38.29383
313.91        38.26192
314.36        38.46542
314.82          38.736
315.27        38.81621
315.72        38.62617
316.18        38.26413
316.63        37.84465
317.08        37.54995
317.53        37.42408
317.99        37.39225
318.44        37.38958
318.89        37.30626
319.35        37.10809
319.80        36.83751
320.25        36.52615
320.70        36.22125
321.16         35.9357
321.61        35.65466
322.06        35.37094
322.51        35.08049
322.97        34.77643
323.42        34.47768
323.87        34.17338
324.32        33.84691
324.78        33.49442
325.23        33.13137
325.68        32.77766
326.13        32.47405
326.59         32.2304
327.04        32.05572
327.49        31.92171
327.94        31.78568
328.39        31.63142
328.85        31.44725
329.30        31.28644
329.75        31.19366
330.20        31.17432
330.66        31.18823
331.11        31.19587
331.56        31.07964
332.01        30.81318
332.46        30.42748
332.92        29.98841
333.37         29.6201
333.82        29.36824
334.27        29.22033
334.72        29.13327
335.17        29.02917
335.63        28.87372
336.08        28.69222
336.53        28.53983
336.98        28.51734
337.43        28.63614
337.88        28.86418
338.34        29.04613
338.79        28.97841
339.24        28.60712
339.69        27.99526
340.14         27.3665
340.59        27.09635
341.05        27.25609
341.50        27.73377
341.95        28.27809
342.40        28.49816
342.85        28.30578
343.30        27.83751
343.75        27.26882
344.20         26.8879
344.66        26.77582
345.11        26.80471
345.56        26.91855
346.01        27.02829
346.46        27.08295
346.91         27.1357
347.36        27.09394
347.81        26.79958
348.26         26.2623
348.72        25.56038
349.17        24.88326
349.62         24.6283
350.07        24.87539
350.52        25.48174
350.97        26.21676
351.42        26.73315
351.87        26.92509
352.32        26.88206
352.77        26.66762
353.22        26.39094
353.67        26.10818
354.13        25.80191
354.58        25.48147
355.03        25.20774
355.48         25.0004
355.93         24.8704
356.38         24.8098
356.83        24.78752
357.28        24.78303
357.73        24.78695
358.18        24.78153
358.63        24.74311
359.08        24.66234
359.53        24.54501
359.98        24.38118
360.43        24.15866
360.88        23.88741
361.33        23.57843
361.78        23.28721
362.23        23.10414
362.68        23.04107
363.13        23.06019
363.58        23.09379
364.03        23.03494
364.48        22.85249
364.93        22.57929
365.38        22.23804
365.83        21.87315
366.28        21.51893
366.73        21.17448
367.18        20.87837
367.63        20.68801
368.08        20.60568
368.53        20.60981
368.98        20.65219
369.43        20.65171
369.88        20.58506
370.33        20.47649
370.78         20.3289
371.23        20.15481
371.68         19.9686
372.13        19.75916
372.58        19.57993
373.03        19.52328
373.48        19.59497
373.93        19.75978
374.38        19.91611
374.83        19.90575
375.28        19.69668
375.72        19.33112
376.17         18.9153
376.62        18.58224
377.07        18.38486
377.52        18.28968
377.97        18.26823
378.42        18.27492
378.87        18.28365
379.32        18.29868
379.77        18.31986
380.22        18.34185
380.67        18.35989
381.11        18.37708
381.56        18.34509
382.01        18.20956
382.46        17.96802
382.91        17.63412
383.36        17.31311
383.81        17.16174
384.26         17.2036
384.71        17.40224
385.15        17.60405
385.60         17.5722
386.05        17.26931
386.50        16.77524
386.95        16.28285
387.40        16.09697
387.85        16.26929
388.29        16.67832
388.74        17.12504
389.19        17.33053
389.64         17.2338
390.09        16.92047
390.54          16.522
390.98         16.2418
391.43        16.15587
391.88        16.18963
392.33        16.24817
392.78        16.19754
393.23        16.02108
393.67        15.76874
394.12        15.54991
394.57        15.45523
395.02        15.50152
395.47        15.64877
395.91        15.83072
396.36        15.91582
396.81        15.87184
397.26        15.73192
397.71        15.56575
398.15        15.46479
398.60         15.4696
399.05        15.54127
399.50        15.61635
399.95        15.60446
400.39        15.48799
400.84         15.2935
401.29        15.09839
401.74        15.04221
402.18        15.16136
402.63        15.39901
403.08        15.64029
403.53        15.70369
403.97        15.55302
404.42        15.25758
404.87        14.93178
405.32        14.76445
405.76        14.80138
406.21        14.97856
406.66        15.20467
407.11        15.33632
407.55        15.33626
408.00        15.25734
408.45        15.14393
408.90        15.03209
409.34        14.96268
409.79        14.98431
410.24        15.06687
410.68        15.10491
411.13        15.09038
411.58        15.08857
412.03        15.08884
412.47        15.05005
412.92        14.96994
413.37        14.85506
413.81        14.75934
414.26        14.77926
414.71        14.92118
415.15        15.16401
415.60        15.39641
416.05        15.45945
416.49        15.31338
416.94        15.01283
417.39        14.67018
417.83        14.46781
418.28        14.45954
418.73         14.5845
419.17         14.7564
419.62        14.82849
420.07        14.76914
420.51        14.62868
420.96        14.47007
421.41        14.37021
421.85        14.34665
422.30        14.37922
422.74        14.43754
423.19        14.50663
423.64        14.56871
424.08        14.63691
424.53        14.68933
424.98        14.71207
425.42        14.70499
425.87        14.67398
426.31        14.61849
426.76        14.54945
427.21        14.46362
427.65        14.35185
428.10        14.26033
428.54        14.24236
428.99        14.30898
429.44        14.50675
429.88        14.71643
430.33        14.65373
430.77        14.36299
431.22        14.15427
431.66        14.10097
432.11        14.15578
432.56        14.31178
433.00        14.61907
433.45         14.9032
433.89        14.89636
434.34        14.67558
434.78         14.4068
435.23         14.1043
435.67        14.74105
436.12        14.26302
436.57        14.19677
437.01        13.99007
437.46        13.90829
437.90         13.9604
438.35        14.02622
438.79        14.07247
439.24        14.10739
439.68        14.12024
440.13        13.99515
440.57        13.80791
441.02        13.90496
441.46        14.15553
441.91        14.12724
442.35         13.5195
442.80        13.31723
443.24        13.38383
443.69        13.41465
444.13        13.36551
444.58        13.31989
445.02        13.27423
445.47        13.24382
445.91        13.22221
446.36        13.16919
446.80        13.08101
447.24        12.98571
447.69        12.90193
448.13        12.82767
448.58        12.77385
449.02        12.74085
449.47        12.72034
449.91        12.69187
450.36         12.6564
450.80        12.61524
451.25        12.59136
451.69        12.60605
452.13        12.66442
452.58        12.74802
453.02        12.83344
453.47        12.88353
453.91        12.89074
454.36        12.86495
454.80        12.81548
455.24        12.76014
455.69        12.71373
456.13        12.65883
456.58        12.61633
457.02        12.60915
457.46        12.63732
457.91        12.66573
458.35        12.68098
458.79        12.69038
459.24        12.68848
459.68        12.67416
460.13        12.69353
460.57        12.69425
461.01        12.66786
461.46        12.95436
461.90        13.04054
462.34        12.91678
462.79         13.0105
463.23        12.88889
463.68        12.77552
464.12         12.6918
464.56        12.75554
465.01        12.86424
465.45        12.97089
465.89        13.01822
466.34        12.99942
466.78        12.89295
467.22        12.75914
467.67        12.78604
468.11        12.95268
468.55         12.9938
468.99        12.91282
469.44        12.92761
469.88        13.04102
470.32        13.12281
470.77         13.1504
471.21         13.1579
471.65        13.14363
472.10        13.10155
472.54        13.05176
472.98        13.05878
473.42         13.1304
473.87        13.20945
474.31        13.27903
474.75        13.39144
475.20        13.51054
475.64        13.49617
476.08         13.3907
476.52        13.37913
476.97        13.47363
477.41        13.59108
477.85        13.68728
478.29        13.73204
478.74        13.71597
479.18        13.62445
479.62        13.52824
480.06        13.54067
480.50        13.66143
480.95        13.79394
481.39        13.88253
481.83        13.90697
482.27        13.85805
482.72        13.74537
483.16        13.62788
483.60        13.59883
484.04        13.66961
484.48         13.8796
484.93        14.23638
485.37        14.37642
485.81        14.35588
486.25        14.87675
486.69        15.24945
487.14        14.63737
487.58        14.50072
488.02        15.41152
488.46        14.99031
488.90        15.09213
489.34        14.87462
489.79        14.97229
490.23        15.32369
490.67        15.56901
491.11        15.66111
491.55        15.60359
491.99        15.45151
492.43        15.39163
492.88        15.45733
493.32        15.50821
493.76        15.55833
494.20        15.70377
494.64         15.9443
495.08        16.24211
495.52        16.54123
495.96        16.76977
496.41        16.90964
496.85        16.94973
497.29        16.94045
497.73        17.04525
498.17        17.25928
498.61        17.38625
499.05        17.42646
499.49        17.55684
499.93         17.7814
500.37        17.95497
500.82        18.07372
501.26        18.28023
501.70        18.52863
502.14        18.57146
502.58        18.44997
503.02        18.44259
503.46        18.57056
503.90        18.69004
504.34        18.76834
504.78         18.8142
505.22        18.81983
505.66        18.79334
506.10        18.75834
506.54        18.74891
506.98        18.77909
507.42         18.8426
507.86        18.93785
508.30        19.06077
508.74        19.20154
509.18        19.35237
509.62        19.50134
510.06        19.62954
510.50         19.7313
510.94        19.81481
511.38        19.86623
511.82        19.86657
512.26        19.81985
512.70         19.7318
513.14        19.65664
513.58          19.676
514.02        19.79557
514.46        19.99252
514.90        20.19315
515.34        20.21985
515.78        20.07451
516.22        19.87799
516.66        19.72882
517.10        19.43559
517.54        19.02712
517.98        19.63347
518.42        19.53667
518.86        19.80431
519.30        19.90335
519.74        20.00815
520.18        20.08692
520.62        20.06639
521.06        19.96243
521.50        19.78041
521.93        19.57469
522.37        19.44463
522.81        19.41407
523.25        19.45879
523.69        19.53975
524.13        19.59286
524.57        19.59592
525.01        19.56377
525.45        19.51195
525.89        19.46484
526.32        19.42918
526.76        19.39838
527.20        19.35393
527.64        19.27332
528.08        19.15448
528.52        19.00547
528.96        18.86376
529.40        18.78269
529.83        18.77069
530.27        18.81831
530.71        18.86837
531.15        18.83107
531.59        18.69323
532.03        18.48519
532.46        18.27979
532.90        18.20797
533.34        18.28441
533.78        18.45888
534.22         18.6518
534.66        18.74178
535.09        18.69514
535.53        18.56006
535.97        18.37746
536.41        18.20949
536.85        18.08398
537.28        17.99298
537.72        17.95025
538.16        17.92152
538.60        17.99163
539.04        18.08265
539.47        18.18728
539.91         18.2979
540.35        18.41675
540.79        18.38773
541.22        18.46724
541.66        18.55573
542.10        18.74484
542.54        18.71858
542.97         18.9577
543.41          19.093
543.85        19.25241
544.29        19.39486
544.72        19.50091
545.16        19.59658
545.60        19.67932
546.04        19.68441
546.47        19.68048
546.91        19.90085
547.35        20.29712
547.79        20.60133
548.22        20.76451
548.66        20.85153
549.10        20.89826
549.53        21.05395
549.97        21.33237
550.41        21.36602
550.84        21.55232
551.28        21.67569
551.72        21.87308
552.15        22.09947
552.59        22.35159
553.03        22.62819
553.46        22.87896
553.90        23.04996
554.34        23.13118
554.77        23.14086
555.21        23.12876
555.65        23.16355
556.08        23.25993
556.52        23.39498
556.96        23.54356
557.39        23.69613
557.83        23.83285
558.27        23.90325
558.70        23.91868
559.14        23.94378
559.57        23.98005
560.01        24.02432
560.45        24.06601
560.88        24.05936
561.32        24.05486
561.75        24.11611
562.19        24.32205
562.63         24.4487
563.06        24.50921
563.50        24.57545
563.93        24.64868
564.37        24.77534
564.80        24.84193
565.24        24.94986
565.68         25.0503
566.11        25.13127
566.55        25.21014
566.98        25.28661
567.42        25.36542
567.85        25.59525
568.29        25.58323
568.72        25.89739
569.16           26.34
569.60        26.63872
570.03        26.75525
570.47        26.86428
570.90        26.85777
571.34        27.17788
571.77        26.97268
572.21         27.2751
572.64        27.65963
573.08        27.70739
573.51        27.82608
573.95        28.54758
574.38        28.45658
574.82        28.68091
