SpectraSmart Spectrum 2.9.0.0
--------- Device Information -----------
Spectrum Name :  反射率_0
Saving Time :  2024/04/20 00:49:56
Spectro-Module Model Name : SE2030-DUVN
Spectro-Module Serial Number : OS361AC55029948
Wavelength Start : 200
Wavelength End : 1025
Wavelength Unit : Wavelength(nm)
Spectrum Unit : Reflectance(%)
-----------Spectrum Setting ------------
Integration Time : 30ms
Average : 10
Boxcar : 0
Background removal :  enabled
linearity correction :  enabled
SC :  disabled
Intensity correction :  disabled
DWT denoise :  enabled
savitzky-golay :  disabled
FFT :  disabled
Running average :  disabled
Kalman :  disabled
High pass :  disabled
---------------BEGIN--------------------
Wavelength(nm)             Reflectance(%)
200.29               0
200.75         59.4922
201.21        63.46043
201.67         70.7156
202.13        79.96816
202.58        90.00565
203.04        100.9969
203.50        109.4212
203.96        108.2379
204.42        98.84232
204.88        86.73793
205.34        76.68161
205.80        70.55372
206.26        67.12044
206.72        65.06436
207.18        64.27162
207.64        64.75364
208.10        66.36769
208.55        69.37347
209.01        71.40332
209.47        71.30581
209.93        69.40073
210.39        66.11366
210.85        62.69352
211.31        60.50007
211.77          59.597
212.23        59.77623
212.69        60.39376
213.14        59.82571
213.60        57.68515
214.06        55.74203
214.52         55.0996
214.98        56.52698
215.44         59.8414
215.90        64.58505
216.36        70.35034
216.81        75.28904
217.27        77.89281
217.73        78.77294
218.19        77.71496
218.65         74.3975
219.11        69.00432
219.57        61.23609
220.02        52.93541
220.48        49.47077
220.94        52.49369
221.40        61.14044
221.86        71.45207
222.32        77.19472
222.77        76.87217
223.23         72.5023
223.69        67.10598
224.15        65.10051
224.61        66.82725
225.06        70.11748
225.52        73.14379
225.98        74.38918
226.44         73.8247
226.90        72.17241
227.36        70.16528
227.81        68.92055
228.27        69.06383
228.73        69.98492
229.19        71.04464
229.65        71.53127
230.10         71.3398
230.56        70.87353
231.02        70.44617
231.48        70.50901
231.93        70.98892
232.39        71.66061
232.85        72.14483
233.31        71.93399
233.77        70.92278
234.22        69.34539
234.68        67.37042
235.14        65.23625
235.60         63.2071
236.05        61.34467
236.51        59.92289
236.97        59.26207
237.43        59.43742
237.88          60.674
238.34        62.67274
238.80        64.69852
239.26        65.92991
239.71        66.14564
240.17        65.44434
240.63        64.76543
241.08        64.48245
241.54        64.42204
242.00        63.94126
242.46         61.6726
242.91        56.79234
243.37        48.10597
243.83        36.53719
244.28        30.39115
244.74        37.42922
245.20        55.65231
245.66        72.82059
246.11          78.824
246.57        72.87464
247.03        55.12719
247.48        29.67512
247.94        20.59647
248.40        32.47862
248.85        48.83329
249.31        60.83704
249.77        66.12438
250.22        66.42499
250.68        63.80373
251.14        59.60261
251.59        56.73225
252.05        57.09534
252.51        59.91188
252.96        63.53773
253.42        65.31497
253.88        64.56155
254.33        62.51262
254.79        61.29103
255.25           62.61
255.70        66.14812
256.16        70.63064
256.62        74.54067
257.07        76.25874
257.53        75.89212
257.99        74.06663
258.44        71.31107
258.90        69.11726
259.35        67.42498
259.81        66.50579
260.27         65.6715
260.72        64.34041
261.18        62.77078
261.63        60.72749
262.09         59.0843
262.55        58.49003
263.00        58.81248
263.46        59.83079
263.91        60.48606
264.37        59.85988
264.83        57.97248
265.28        55.23325
265.74        52.79477
266.19        51.78058
266.65        52.34898
267.11        53.85432
267.56        55.43808
268.02         55.8989
268.47        55.00952
268.93         53.2043
269.38        50.98367
269.84        49.38902
270.30        48.70732
270.75        48.62919
271.21        48.79328
271.66         48.6488
272.12        48.03901
272.57        47.14682
273.03        46.19994
273.48        45.43383
273.94        44.96269
274.39        44.63384
274.85        44.32295
275.31        43.81047
275.76        43.03553
276.22         42.1163
276.67        41.16996
277.13        40.49144
277.58        40.06385
278.04        39.83944
278.49        39.58397
278.95        39.05949
279.40        38.19307
279.86        37.17533
280.31        36.13411
280.77        35.40962
281.22         34.9816
281.68        34.77345
282.13        34.62439
282.59        34.35729
283.04        33.91373
283.50        33.40314
283.95        32.85155
284.41        32.34469
284.86        31.88436
285.32        31.46852
285.77        31.11595
286.22        30.93437
286.68        30.91898
287.13        31.00484
287.59        31.08821
288.04        30.97679
288.50        30.66241
288.95          30.172
289.41        29.63114
289.86        29.15817
290.32        28.84263
290.77        28.63383
291.22        28.52487
291.68        28.46684
292.13        28.44721
292.59        28.50991
293.04        28.66327
293.50        28.93446
293.95        29.31249
294.40        29.76444
294.86        30.27969
295.31        30.85649
295.77        31.48257
296.22        32.15436
296.68        32.80991
297.13         33.3302
297.58         33.7059
298.04        33.97531
298.49        34.25184
298.95        34.75515
299.40        35.50736
299.85        36.44085
300.31        37.40767
300.76        38.17068
301.21        38.68067
301.67        39.04147
302.12        39.33543
302.58        39.75271
303.03        40.30794
303.48        40.95318
303.94        41.66047
304.39        42.34698
304.84        42.98861
305.30        43.59486
305.75        44.12004
306.20        44.52236
306.66        44.81769
307.11        44.99858
307.57        45.11149
308.02        45.14825
308.47        45.14942
308.93        45.11753
309.38        45.09597
309.83        45.20389
310.29        45.44388
310.74         45.7795
311.19        46.06863
311.65        46.08157
312.10        45.77694
312.55        45.23448
313.00        44.64344
313.46        44.29449
313.91        44.23828
314.36        44.40409
314.82         44.6333
315.27        44.69242
315.72        44.50339
316.18         44.1536
316.63        43.74653
317.08        43.45195
317.53        43.30744
317.99        43.24293
318.44        43.18427
318.89        43.00473
319.35        42.67495
319.80        42.25087
320.25        41.79435
320.70        41.39995
321.16        41.09236
321.61        40.84398
322.06        40.62762
322.51        40.40573
322.97        40.15131
323.42        39.88311
323.87        39.58381
324.32        39.22953
324.78        38.81617
325.23        38.36893
325.68        37.90289
326.13        37.45599
326.59        37.04868
327.04         36.6987
327.49         36.4257
327.94        36.26182
328.39        36.19985
328.85         36.2026
329.30         36.2506
329.75        36.24957
330.20        36.16481
330.66        35.99486
331.11        35.76783
331.56        35.47595
332.01        35.13185
332.46        34.73785
332.92        34.33982
333.37        34.03285
333.82        33.84254
334.27        33.76546
334.72        33.75273
335.17        33.70988
335.63        33.59679
336.08        33.44466
336.53        33.29458
336.98          33.236
337.43        33.28314
337.88        33.40193
338.34        33.49019
338.79          33.431
339.24        33.18087
339.69        32.78092
340.14        32.35564
340.59        32.11203
341.05        32.09059
341.50        32.23922
341.95        32.43087
342.40        32.46467
342.85        32.29651
343.30        32.00394
343.75        31.67643
344.20        31.45864
344.66        31.38906
345.11        31.39004
345.56        31.44643
346.01        31.53345
346.46        31.61933
346.91        31.72049
347.36         31.7422
347.81         31.5318
348.26         31.0893
348.72        30.49374
349.17        29.89149
349.62        29.60407
350.07        29.70302
350.52        30.07478
350.97        30.55816
351.42        30.90877
351.87        31.04523
352.32        31.03173
352.77        30.88459
353.22        30.63432
353.67        30.31659
354.13        29.93955
354.58        29.54809
355.03        29.25913
355.48        29.10372
355.93        29.06964
356.38        29.11319
356.83        29.15174
357.28        29.15138
357.73        29.11763
358.18        29.06228
358.63        29.00992
359.08        28.96213
359.53        28.90676
359.98        28.80379
360.43        28.59661
360.88        28.28614
361.33        27.90044
361.78        27.51993
362.23        27.27408
362.68         27.1869
363.13        27.20906
363.58        27.25741
364.03        27.20084
364.48        27.00126
364.93        26.69901
365.38        26.32456
365.83        25.93643
366.28        25.56912
366.73        25.20887
367.18        24.88823
367.63         24.6563
368.08        24.51486
368.53        24.45546
368.98        24.41875
369.43        24.30372
369.88        24.09043
370.33        23.80836
370.78        23.51082
371.23        23.29509
371.68        23.19032
372.13        23.15934
372.58        23.17585
373.03        23.19791
373.48        23.19613
373.93        23.17434
374.38        23.10626
374.83        22.94893
375.28        22.70195
375.72         22.3775
376.17        22.03301
376.62        21.72344
377.07        21.48123
377.52        21.29765
377.97         21.1938
378.42         21.1964
378.87        21.28898
379.32        21.44605
379.77         21.6018
380.22        21.65698
380.67        21.58934
381.11        21.43051
381.56        21.20216
382.01         20.9686
382.46        20.75816
382.91        20.55055
383.36        20.37777
383.81        20.28176
384.26        20.26489
384.71         20.3337
385.15        20.39995
385.60        20.32949
386.05        20.10131
386.50        19.74483
386.95        19.40405
387.40        19.31089
387.85        19.49168
388.29        19.85342
388.74         20.2009
389.19        20.24837
389.64        19.95053
390.09        19.40448
390.54        18.79672
390.98        18.41966
391.43        18.36795
391.88         18.5343
392.33        18.77186
392.78        18.86861
393.23        18.78155
393.67        18.57424
394.12        18.37142
394.57        18.27946
395.02        18.32245
395.47        18.45416
395.91        18.60704
396.36        18.64903
396.81        18.55537
397.26        18.36767
397.71        18.17098
398.15        18.07305
398.60        18.11621
399.05        18.24969
399.50        18.39186
399.95        18.42746
400.39        18.33153
400.84        18.13449
401.29        17.91742
401.74        17.82836
402.18        17.91008
402.63        18.10725
403.08        18.30726
403.53        18.33002
403.97        18.14237
404.42        17.81728
404.87        17.47877
405.32        17.32917
405.76        17.41261
406.21        17.65575
406.66        17.94828
407.11        18.11949
407.55         18.1223
408.00         18.0129
408.45        17.84291
408.90        17.65748
409.34        17.51192
409.79         17.4751
410.24        17.50808
410.68        17.47806
411.13          17.379
411.58        17.28899
412.03        17.23117
412.47        17.21675
412.92        17.24747
413.37         17.3059
413.81         17.3882
414.26        17.50513
414.71        17.64316
415.15        17.80593
415.60        17.92281
416.05        17.90885
416.49         17.7492
416.94        17.47595
417.39        17.18361
417.83        17.02486
418.28        17.04173
418.73        17.18538
419.17        17.36797
419.62        17.43825
420.07        17.36658
420.51        17.20405
420.96         17.0229
421.41        16.91532
421.85        16.90129
422.30        16.95629
422.74        17.04683
423.19        17.15596
423.64        17.26297
424.08        17.38459
424.53        17.48539
424.98        17.53037
425.42        17.51558
425.87        17.45083
426.31        17.35891
426.76        17.28797
427.21        17.24065
427.65        17.19619
428.10        17.17467
428.54        17.18184
428.99        17.21901
429.44        17.36377
429.88        17.51212
430.33        17.38248
430.77        17.03898
431.22        16.83388
431.66        16.82582
432.11        16.91225
432.56        17.06997
433.00        17.36897
433.45        17.63568
433.89        17.59605
434.34        17.35284
434.78        17.13733
435.23        16.90881
435.67        17.63895
436.12          16.915
436.57        16.86309
437.01        16.80697
437.46        16.78396
437.90        16.79325
438.35        16.85252
438.79        16.93024
439.24        16.97243
439.68        16.96846
440.13        16.79779
440.57        16.55976
441.02        16.68196
441.46        17.01031
441.91        17.01986
442.35        16.33139
442.80        16.11167
443.24        16.19547
443.69          16.216
444.13        16.13814
444.58        16.08992
445.02         16.0731
445.47        16.09904
445.91        16.13542
446.36        16.09329
446.80        15.96213
447.24        15.78979
447.69        15.63173
448.13         15.5384
448.58        15.52966
449.02        15.58404
449.47        15.65693
449.91        15.66818
450.36        15.60536
450.80        15.49363
451.25        15.37754
451.69        15.30959
452.13        15.30875
452.58        15.34519
453.02        15.40528
453.47        15.46965
453.91        15.52795
454.36        15.58622
454.80        15.61949
455.24        15.58487
455.69        15.48707
456.13        15.32675
456.58        15.16984
457.02        15.10516
457.46        15.14569
457.91        15.22857
458.35        15.31304
458.79        15.37431
459.24        15.39375
459.68        15.38185
460.13        15.39839
460.57        15.38731
461.01         15.3412
461.46        15.67103
461.90        15.75546
462.34        15.58891
462.79        15.68908
463.23         15.5357
463.68        15.40129
464.12        15.31679
464.56        15.42115
465.01         15.5859
465.45        15.74651
465.89        15.82641
466.34        15.81452
466.78        15.68477
467.22        15.50898
467.67        15.51334
468.11        15.67344
468.55          15.671
468.99         15.5181
469.44        15.48706
469.88        15.58475
470.32         15.6559
470.77        15.67486
471.21        15.68067
471.65        15.66955
472.10        15.63078
472.54        15.58635
472.98        15.60776
473.42         15.7012
473.87        15.79962
474.31        15.87775
474.75        15.99275
475.20        16.10333
475.64        16.04874
476.08        15.89454
476.52        15.87107
476.97        15.99417
477.41        16.17865
477.85        16.37071
478.29        16.42272
478.74        16.48679
479.18        16.41058
479.62        16.32067
480.06        16.33628
480.50        16.45841
480.95        16.57362
481.39        16.63306
481.83        16.64277
482.27        16.59838
482.72        16.50826
483.16         16.4216
483.60        16.40483
484.04        16.45875
484.48        16.65508
484.93        17.01982
485.37        17.13324
485.81        17.14696
486.25        17.86912
486.69        18.45932
487.14        17.90797
487.58        17.46461
488.02        18.20735
488.46        17.89253
488.90        18.10259
489.34        17.97332
489.79        18.07302
490.23        18.34922
490.67        18.54842
491.11        18.64713
491.55          18.618
491.99        18.50672
492.43        18.47428
492.88        18.54902
493.32        18.62374
493.76        18.70826
494.20         18.8581
494.64        19.06942
495.08        19.35252
495.52        19.65693
495.96        19.83712
496.41        19.91822
496.85        20.06261
497.29        20.27113
497.73        20.48553
498.17        20.67366
498.61        20.72663
499.05        20.68826
499.49        20.78844
499.93        21.05009
500.37        21.29324
500.82        21.48936
501.26        21.77057
501.70        22.07225
502.14        22.11096
502.58        21.94862
503.02        21.93556
503.46        22.10232
503.90         22.2701
504.34        22.39047
504.78        22.46125
505.22        22.46873
505.66        22.42444
506.10        22.36655
506.54        22.35146
506.98        22.39814
507.42        22.49452
507.86        22.62094
508.30        22.74398
508.74         22.8492
509.18         22.9402
509.62        23.02873
510.06        23.13264
510.50        23.25471
510.94        23.39087
511.38        23.50702
511.82        23.55062
512.26        23.51528
512.70          23.417
513.14         23.3209
513.58        23.32576
514.02          23.443
514.46        23.64371
514.90        23.85218
515.34        23.88416
515.78        23.75006
516.22        23.56133
516.66        23.41499
517.10        23.12614
517.54        22.72359
517.98        23.28598
518.42        23.18087
518.86        23.43968
519.30        23.55453
519.74        23.68689
520.18         23.7956
520.62        23.79342
521.06        23.69121
521.50        23.49966
521.93        23.27715
522.37        23.12989
522.81        23.08495
523.25        23.11557
523.69        23.18503
524.13        23.23282
524.57        23.23682
525.01        23.21208
525.45        23.16773
525.89        23.11709
526.32        23.06503
526.76        23.00784
527.20        22.93621
527.64        22.84315
528.08        22.72894
528.52        22.59543
528.96        22.46964
529.40        22.38873
529.83        22.35739
530.27        22.37361
530.71        22.38616
531.15        22.31532
531.59        22.15225
532.03         21.9243
532.46        21.70597
532.90        21.63222
533.34        21.71622
533.78        21.90664
534.22        22.11635
534.66        22.21161
535.09        22.15633
535.53        22.00361
535.97        21.80105
536.41        21.62182
536.85        21.49675
537.28        21.41516
537.72        21.38904
538.16        21.37103
538.60        21.45984
539.04         21.5631
539.47        21.67289
539.91        21.78279
540.35        21.89687
540.79        21.82998
541.22        21.88971
541.66        21.96221
542.10        22.15806
542.54        22.10575
542.97        22.37134
543.41        22.51443
543.85        22.68541
544.29        22.83535
544.72        22.94791
545.16        23.06369
545.60        23.17975
546.04         23.2168
546.47         23.2405
546.91        23.50162
547.35        23.94014
547.79        24.24911
548.22        24.39278
548.66        24.48113
549.10        24.56065
549.53        24.79383
549.97        25.17951
550.41        25.25562
550.84        25.48079
551.28        25.60775
551.72        25.80201
552.15        26.01589
552.59        26.25291
553.03        26.51337
553.46        26.74668
553.90        26.90363
554.34        26.97453
554.77        26.97743
555.21        26.96743
555.65        27.01913
556.08        27.14564
556.52        27.32001
556.96        27.50448
557.39        27.67491
557.83        27.80763
558.27        27.84866
558.70        27.82475
559.14        27.83411
559.57        27.88273
560.01        27.95875
560.45        28.04065
560.88        28.05853
561.32        28.06468
561.75        28.14408
562.19        28.38708
562.63        28.51687
563.06        28.55687
563.50        28.62036
563.93        28.70864
564.37        28.85255
564.80        28.92054
565.24        29.04304
565.68        29.15656
566.11        29.25544
566.55        29.35914
566.98        29.41758
567.42         29.4347
567.85        29.78714
568.29        29.71137
568.72        30.10739
569.16        30.64567
569.60        31.00325
570.03        31.11644
570.47        31.21589
570.90        31.19447
571.34        31.53486
571.77        31.24308
572.21        31.87332
572.64        31.94881
573.08        32.32435
573.51        32.20834
573.95        32.75819
574.38        32.90256
574.82        33.24239
