SpectraSmart Spectrum 2.9.0.0
--------- Device Information -----------
Spectrum Name :  反射率_0
Saving Time :  2024/04/19 23:51:27
Spectro-Module Model Name : SE2030-DUVN
Spectro-Module Serial Number : OS361AC55029948
Wavelength Start : 200
Wavelength End : 1025
Wavelength Unit : Wavelength(nm)
Spectrum Unit : Reflectance(%)
-----------Spectrum Setting ------------
Integration Time : 30ms
Average : 10
Boxcar : 0
Background removal :  enabled
linearity correction :  enabled
SC :  disabled
Intensity correction :  disabled
DWT denoise :  enabled
savitzky-golay :  disabled
FFT :  disabled
Running average :  disabled
Kalman :  disabled
High pass :  disabled
---------------BEGIN--------------------
Wavelength(nm)             Reflectance(%)
200.29               0
200.75        62.07716
201.21        63.13951
201.67        66.57513
202.13        72.78078
202.58        81.59261
203.04        93.08605
203.50        103.4925
203.96        104.2568
204.42        95.76997
204.88         84.0694
205.34        73.94886
205.80        67.21968
206.26        62.62872
206.72        58.45918
207.18        54.75556
207.64        53.88358
208.10        57.73515
208.55        65.51191
209.01          72.273
209.47        74.76037
209.93        73.59396
210.39        70.07449
210.85         66.2576
211.31        64.52654
211.77        65.20937
212.23        67.86896
212.69        71.90475
213.14        74.30049
213.60        73.17294
214.06        70.98734
214.52        69.12296
214.98        68.30834
215.44        68.35418
215.90         68.5032
216.36        69.28191
216.81        71.67554
217.27        75.41151
217.73        80.29193
218.19        83.86076
218.65         82.7702
219.11        76.62972
219.57         65.7385
220.02        53.57246
220.48        49.09335
220.94         55.2738
221.40        70.00621
221.86         86.8174
222.32        95.81141
222.77        94.77421
223.23        87.28284
223.69        78.03734
224.15        73.82761
224.61        75.46249
225.06        79.63845
225.52        84.07817
225.98        86.93577
226.44        88.10034
226.90        88.49997
227.36        88.44264
227.81        88.10099
228.27        87.89142
228.73        87.51647
229.19        87.06261
229.65        86.71821
230.10        86.42384
230.56        86.32152
231.02        86.28575
231.48        86.24124
231.93        86.08434
232.39        85.86777
232.85        85.51622
233.31        84.99316
233.77        84.29768
234.22        83.47472
234.68         82.4809
235.14        81.19865
235.60        79.71408
236.05        78.14266
236.51        76.79428
236.97        76.06351
237.43         76.0387
237.88        76.90398
238.34        78.17065
238.80        79.08169
239.26        78.95296
239.71        77.78323
240.17        75.95656
240.63        74.64571
241.08        74.18842
241.54        74.34451
242.00        74.21961
242.46        71.94844
242.91        66.51344
243.37        56.61607
243.83        42.92894
244.28        34.12337
244.74        38.93826
245.20        55.85011
245.66        73.04581
246.11        80.37133
246.57        77.01787
247.03        63.79593
247.48        43.53733
247.94        34.82856
248.40        42.38637
248.85         53.8791
249.31        62.62458
249.77         66.8659
250.22        67.78924
250.68        66.92292
251.14        65.29922
251.59        64.82394
252.05        66.62811
252.51         70.1706
252.96        73.66919
253.42        74.41665
253.88         72.0986
254.33        68.17384
254.79        65.50261
255.25        66.50715
255.70        70.76786
256.16        76.66606
256.62        82.19598
257.07        85.17764
257.53        85.66148
257.99        84.43063
258.44        82.04775
258.90        80.09609
259.35        78.50392
259.81        77.65017
260.27        76.88705
260.72        75.68185
261.18        74.37675
261.63        72.69881
262.09         71.5059
262.55        71.34888
263.00        72.02352
263.46        73.31329
263.91        74.19955
264.37         73.9231
264.83        72.45515
265.28        70.14307
265.74        67.97719
266.19        66.77835
266.65        66.76738
267.11        67.43784
267.56          68.204
268.02        68.26357
268.47        67.43394
268.93        66.03053
269.38        64.34412
269.84        63.05331
270.30        62.33108
270.75        61.97036
271.21          61.762
271.66        61.36463
272.12        60.68481
272.57        59.82957
273.03        58.93504
273.48         58.0905
273.94         57.4006
274.39        56.76568
274.85        56.18301
275.31        55.57502
275.76        54.87561
276.22         54.1248
276.67        53.31628
277.13        52.59866
277.58        51.91567
278.04        51.31794
278.49        50.59696
278.95        49.58213
279.40        48.23371
279.86        46.75458
280.31         45.3499
280.77        44.49709
281.22        44.16063
281.68        44.22361
282.13         44.3722
282.59        44.22005
283.04        43.65594
283.50        42.85868
283.95        41.96625
284.41         41.2585
284.86        40.75769
285.32        40.39539
285.77         40.0843
286.22        39.78657
286.68        39.48215
287.13        39.17649
287.59        38.84704
288.04        38.38651
288.50        37.82013
288.95         37.1363
289.41        36.46591
289.86        35.93155
290.32        35.61178
290.77        35.44585
291.22        35.37333
291.68        35.26394
292.13        35.08329
292.59        34.89528
293.04        34.75788
293.50        34.78795
293.95        34.99454
294.40        35.32494
294.86        35.71978
295.31        36.09888
295.77         36.4325
296.22        36.73845
296.68        37.01579
297.13         37.2434
297.58        37.43232
298.04        37.59179
298.49        37.74964
298.95        37.99613
299.40        38.32592
299.85        38.71065
300.31        39.10516
300.76        39.42693
301.21        39.65781
301.67        39.85538
302.12        39.99191
302.58        40.09288
303.03        40.15078
303.48        40.18533
303.94        40.28679
304.39        40.55198
304.84        40.99223
305.30         41.5476
305.75        42.07985
306.20        42.40539
306.66        42.49952
307.11        42.40411
307.57        42.20535
308.02        41.95651
308.47         41.7197
308.93        41.47611
309.38        41.26804
309.83        41.21329
310.29        41.31124
310.74         41.5318
311.19         41.7304
311.65        41.66884
312.10        41.30424
312.55        40.71619
313.00        40.08428
313.46        39.68811
313.91         39.5733
314.36        39.66178
314.82        39.81379
315.27        39.82735
315.72        39.63003
316.18        39.30426
316.63        38.91083
317.08        38.54797
317.53        38.24865
317.99          37.971
318.44        37.71555
318.89         37.4798
319.35        37.25956
319.80        37.06415
320.25        36.87901
320.70        36.67453
321.16        36.43788
321.61        36.17795
322.06        35.89786
322.51        35.61187
322.97        35.31901
323.42        35.01999
323.87        34.71525
324.32        34.41241
324.78        34.10939
325.23        33.82322
325.68        33.53467
326.13        33.21487
326.59         32.8654
327.04        32.52056
327.49         32.2215
327.94        32.03875
328.39         31.9821
328.85        32.00495
329.30        32.09576
329.75        32.18023
330.20        32.22138
330.66        32.21277
331.11        32.14662
331.56        31.95996
332.01        31.64927
332.46        31.22414
332.92         30.7631
333.37        30.41571
333.82        30.22956
334.27        30.19626
334.72        30.23315
335.17        30.18634
335.63        30.00454
336.08        29.73297
336.53        29.48274
336.98        29.45205
337.43        29.67639
337.88        30.09196
338.34        30.48955
338.79        30.58026
339.24        30.28168
339.69        29.67739
340.14        29.01948
340.59        28.73208
341.05        28.90298
341.50          29.406
341.95        29.96873
342.40        30.17002
342.85        29.91946
343.30        29.37104
343.75        28.73428
344.20        28.34671
344.66        28.30175
345.11        28.45749
345.56        28.72043
346.01        28.94257
346.46         29.0541
346.91        29.11619
347.36         29.0707
347.81        28.81531
348.26        28.36843
348.72        27.79034
349.17        27.21784
349.62        26.96268
350.07        27.09222
350.52         27.4991
350.97        28.02724
351.42        28.43772
351.87        28.64645
352.32        28.70861
352.77        28.62779
353.22        28.41622
353.67        28.10514
354.13        27.71075
354.58        27.28307
355.03        26.94657
355.48        26.73908
355.93        26.64829
356.38          26.646
356.83          26.672
357.28        26.69595
357.73        26.71978
358.18        26.73046
358.63        26.71039
359.08        26.65019
359.53        26.54654
359.98         26.3906
360.43        26.17359
360.88        25.90733
361.33        25.60955
361.78        25.32216
362.23        25.11346
362.68        24.99467
363.13        24.93147
363.58        24.89684
364.03        24.84582
364.48         24.7544
364.93        24.63818
365.38        24.44977
365.83        24.11704
366.28        23.64858
366.73        23.07725
367.18        22.53076
367.63        22.20755
368.08        22.14003
368.53        22.26294
368.98          22.444
369.43        22.47152
369.88        22.29477
370.33        21.98429
370.78        21.61519
371.23        21.31951
371.68        21.14805
372.13        21.05046
372.58        21.03017
373.03        21.09653
373.48        21.22423
373.93         21.4026
374.38        21.54815
374.83        21.52956
375.28        21.32502
375.72        20.96431
376.17        20.55094
376.62        20.21843
377.07        20.01901
377.52        19.92214
377.97        19.90169
378.42        19.91182
378.87        19.92676
379.32        19.95234
379.77        19.98096
380.22        19.99712
380.67        19.99398
381.11        19.97387
381.56        19.90551
382.01        19.76347
382.46        19.55082
382.91        19.27653
383.36         19.0108
383.81        18.85666
384.26         18.8306
384.71        18.91164
385.15         19.0002
385.60        18.94386
386.05        18.71773
386.50         18.3734
386.95        18.03599
387.40        17.90337
387.85        18.00874
388.29        18.27147
388.74        18.56149
389.19        18.69346
389.64         18.6248
390.09        18.40713
390.54        18.12951
390.98        17.92702
391.43        17.85674
391.88        17.86929
392.33        17.88855
392.78        17.80655
393.23         17.6145
393.67        17.34758
394.12        17.11874
394.57        17.02194
395.02         17.0715
395.47        17.22833
395.91        17.41244
396.36        17.46492
396.81        17.35341
397.26        17.12594
397.71        16.87701
398.15        16.73223
398.60        16.74052
399.05        16.84945
399.50        16.98306
399.95         17.0344
400.39        16.97799
400.84        16.84141
401.29        16.69637
401.74        16.67128
402.18        16.79872
402.63         17.0243
403.08        17.23575
403.53        17.25713
403.97        17.05857
404.42        16.71238
404.87        16.34721
405.32        16.17366
405.76        16.23891
406.21        16.46932
406.66         16.7552
407.11        16.92381
407.55        16.92903
408.00        16.83217
408.45        16.67999
408.90        16.51179
409.34        16.37903
409.79        16.33984
410.24        16.37561
410.68        16.39159
411.13        16.38177
411.58        16.41029
412.03         16.4546
412.47        16.44925
412.92        16.38296
413.37         16.2679
413.81         16.1615
414.26        16.16743
414.71        16.29555
415.15        16.52265
415.60         16.7402
416.05        16.79617
416.49        16.65184
416.94        16.35939
417.39          16.028
417.83        15.83368
418.28        15.82731
418.73         15.9495
419.17        16.11104
419.62         16.1612
420.07        16.07063
420.51         15.8943
420.96        15.70385
421.41        15.58908
421.85         15.5694
422.30        15.61848
422.74        15.70367
423.19        15.80819
423.64        15.91094
424.08        16.02733
424.53        16.11913
424.98        16.14578
425.42        16.10276
425.87        16.00258
426.31        15.87504
426.76        15.77803
427.21        15.71725
427.65         15.6712
428.10        15.65397
428.54        15.66149
428.99        15.69277
429.44        15.82182
429.88        15.95646
430.33        15.84395
430.77        15.54152
431.22        15.36363
431.66        15.36468
432.11        15.45397
432.56        15.61157
433.00         15.9035
433.45        16.15518
433.89        16.10604
434.34        15.85252
434.78        15.56464
435.23        15.24674
435.67        15.93714
436.12        15.41085
436.57        15.32326
437.01        15.08453
437.46        14.99089
437.90         15.0542
438.35         15.1406
438.79        15.20432
439.24        15.23991
439.68        15.23216
440.13        15.05948
440.57          14.817
441.02        14.89599
441.46        15.16054
441.91        15.14488
442.35        14.50918
442.80        14.28412
443.24         14.3218
443.69        14.30331
444.13        14.20786
444.58        14.16468
445.02         14.1764
445.47        14.24408
445.91         14.3291
446.36        14.33708
446.80        14.25086
447.24        14.11602
447.69        13.97702
448.13        13.87116
448.58        13.81904
449.02        13.80561
449.47        13.80791
449.91        13.78208
450.36        13.72344
450.80        13.64639
451.25         13.5776
451.69        13.54115
452.13        13.54778
452.58         13.5784
453.02        13.62434
453.47        13.67229
453.91        13.71643
454.36        13.75892
454.80        13.78447
455.24         13.7682
455.69        13.71402
456.13        13.61603
456.58        13.51851
457.02        13.47924
457.46        13.50673
457.91        13.55346
458.35        13.59352
458.79        13.61869
459.24        13.61873
459.68        13.59906
460.13        13.61524
460.57        13.62061
461.01        13.60648
461.46        13.93294
461.90         14.0418
462.34        13.91413
462.79        14.00856
463.23        13.86415
463.68        13.72324
464.12        13.61275
464.56        13.66249
465.01        13.76203
465.45          13.868
465.89        13.92942
466.34        13.93756
466.78        13.86359
467.22        13.75765
467.67        13.79879
468.11        13.95763
468.55        13.95422
468.99        13.80493
469.44        13.76285
469.88        13.83769
470.32        13.88874
470.77         13.8895
471.21        13.86987
471.65        13.82662
472.10        13.75534
472.54        13.68396
472.98        13.68895
473.42        13.77823
473.87        13.88752
474.31        13.98446
474.75        14.10335
475.20        14.20372
475.64        14.14613
476.08        13.99233
476.52        13.96205
476.97        14.07197
477.41        14.22367
477.85        14.36025
478.29        14.43153
478.74        14.42122
479.18        14.32364
479.62        14.20787
480.06        14.18362
480.50        14.25456
480.95        14.32288
481.39        14.35678
481.83        14.37703
482.27        14.37425
482.72        14.33814
483.16        14.29976
483.60        14.29284
484.04        14.30382
484.48         14.4619
484.93        14.78402
485.37        14.75698
485.81        14.50101
486.25          15.241
486.69        15.39748
487.14        15.08119
487.58        15.09666
488.02        15.70674
488.46         15.3047
488.90        15.28134
489.34        15.12404
489.79        15.19034
490.23        15.43108
490.67         15.6147
491.11        15.69254
491.55        15.64303
491.99        15.50214
492.43        15.42097
492.88        15.42659
493.32        15.40387
493.76        15.37906
494.20        15.45518
494.64        15.63837
495.08        15.89152
495.52        16.15821
495.96        16.36313
496.41        16.48524
496.85        16.51455
497.29        16.49564
497.73        16.57962
498.17        16.76038
498.61        16.85048
499.05        16.85385
499.49        16.94838
499.93        17.14135
500.37        17.29074
500.82        17.39981
501.26        17.61599
501.70        17.89433
502.14        17.99171
502.58        17.92847
503.02        17.94576
503.46        18.05836
503.90        18.13319
504.34        18.15687
504.78        18.16949
505.22        18.17108
505.66        18.15916
506.10        18.14152
506.54        18.12633
506.98        18.12119
507.42        18.13124
507.86        18.16394
508.30        18.22877
508.74        18.32282
509.18        18.43475
509.62        18.55692
510.06        18.67722
510.50        18.78915
510.94        18.89856
511.38        18.98066
511.82        18.99747
512.26        18.94759
512.70        18.84066
513.14        18.73821
513.58        18.73557
514.02        18.84209
514.46        19.02952
514.90        19.22189
515.34         19.2391
515.78        19.07917
516.22        18.87024
516.66        18.70785
517.10        18.39148
517.54        17.95095
517.98        18.53459
518.42        18.41155
518.86        18.68054
519.30        18.80266
519.74        18.94639
520.18        19.06891
520.62        19.07891
521.06        18.98753
521.50        18.80754
521.93        18.59251
522.37        18.44165
522.81        18.38234
523.25        18.38924
523.69         18.4421
524.13        18.50596
524.57        18.56168
525.01        18.61677
525.45         18.6545
525.89        18.64644
526.32        18.58924
526.76        18.49216
527.20        18.37446
527.64         18.2751
528.08         18.2048
528.52        18.14909
528.96        18.11053
529.40        18.08941
529.83         18.0805
530.27        18.09204
530.71         18.0871
531.15        18.00752
531.59        17.85077
532.03        17.63694
532.46        17.43291
532.90        17.36012
533.34        17.43164
533.78         17.6055
534.22        17.80254
534.66        17.90015
535.09        17.86449
535.53        17.73898
535.97        17.57227
536.41        17.44002
536.85        17.36911
537.28        17.34639
537.72        17.36128
538.16        17.34314
538.60        17.36875
539.04        17.37539
539.47        17.38897
539.91        17.45269
540.35        17.57829
540.79        17.59938
541.22        17.73127
541.66         17.8317
542.10        17.97695
542.54         17.8814
542.97        18.02468
543.41        18.08471
543.85        18.19423
544.29        18.30532
544.72          18.394
545.16        18.47636
545.60        18.54611
546.04        18.54564
546.47        18.54008
546.91        18.74827
547.35        19.12433
547.79        19.41533
548.22        19.57164
548.66        19.65053
549.10        19.68518
549.53        19.81482
549.97        20.06062
550.41        20.09061
550.84        20.27987
551.28        20.42205
551.72        20.62786
552.15        20.82628
552.59        21.01027
553.03        21.18924
553.46        21.34113
553.90         21.4522
554.34        21.52025
554.77        21.55055
555.21        21.56876
555.65         21.6045
556.08        21.66473
556.52        21.74323
556.96        21.83223
557.39        21.94661
557.83          22.074
558.27        22.15571
558.70        22.19983
559.14        22.26329
559.57        22.34136
560.01        22.43093
560.45        22.50461
560.88        22.49221
561.32        22.44002
561.75        22.41829
562.19        22.52571
562.63          22.595
563.06        22.64845
563.50        22.73974
563.93        22.85302
564.37        23.00415
564.80        23.07919
565.24        23.17747
565.68        23.25392
566.11        23.31913
566.55        23.39246
566.98        23.42732
567.42        23.42992
567.85        23.70581
568.29        23.64803
568.72        23.97209
569.16        24.40805
569.60        24.69868
570.03         24.8062
570.47        24.86864
570.90        24.80376
571.34        25.11872
571.77        25.02169
572.21        25.22853
572.64        25.51289
573.08        25.54714
573.51         25.7251
573.95        26.18818
574.38        26.48895
574.82        26.71342
