SpectraSmart Spectrum 2.9.0.0
--------- Device Information -----------
Spectrum Name :  反射率_0
Saving Time :  2024/04/20 00:49:16
Spectro-Module Model Name : SE2030-DUVN
Spectro-Module Serial Number : OS361AC55029948
Wavelength Start : 200
Wavelength End : 1025
Wavelength Unit : Wavelength(nm)
Spectrum Unit : Reflectance(%)
-----------Spectrum Setting ------------
Integration Time : 30ms
Average : 10
Boxcar : 0
Background removal :  enabled
linearity correction :  enabled
SC :  disabled
Intensity correction :  disabled
DWT denoise :  enabled
savitzky-golay :  disabled
FFT :  disabled
Running average :  disabled
Kalman :  disabled
High pass :  disabled
---------------BEGIN--------------------
Wavelength(nm)             Reflectance(%)
200.29               0
200.75        64.27319
201.21        64.59207
201.67        67.09447
202.13        72.00498
202.58        79.27864
203.04        89.04025
203.50        98.74007
203.96        101.8608
204.42        97.80376
204.88        90.53291
205.34        83.76463
205.80        79.22279
206.26        76.20821
206.72        73.61186
207.18        71.40313
207.64        70.78148
208.10        72.80496
208.55        77.19881
209.01        81.18344
209.47        83.26337
209.93        83.55711
210.39        82.47645
210.85        80.72764
211.31        79.07872
211.77        77.52055
212.23        75.73695
212.69        73.38579
213.14        70.86217
213.60        68.83632
214.06        68.10345
214.52        68.38506
214.98        69.39857
215.44        70.98792
215.90        73.02054
216.36        75.50801
216.81         77.9973
217.27          79.864
217.73        81.33998
218.19        81.73937
218.65        80.15582
219.11        76.62388
219.57        71.09105
220.02        65.42883
220.48        64.73705
220.94        70.36279
221.40        81.16468
221.86        92.96835
222.32        99.50052
222.77        99.37344
223.23        94.80077
223.69        89.01003
224.15        86.70496
224.61        88.38651
225.06         91.8058
225.52        95.34305
225.98        97.56803
226.44        98.46178
226.90        98.71828
227.36        98.76833
227.81        99.03149
228.27        99.84381
228.73        100.7384
229.19        101.4054
229.65        101.5712
230.10        101.1829
230.56        100.6456
231.02        100.0847
231.48         99.7759
231.93        99.63136
232.39         99.5592
232.85        99.36671
233.31         98.8531
233.77        97.97296
234.22        96.89219
234.68        95.49841
235.14        93.56136
235.60        91.22429
236.05        88.65886
236.51        86.47472
236.97        85.52167
237.43        86.00166
237.88        88.13699
238.34        91.14438
238.80        93.22999
239.26        92.95364
239.71        90.47006
240.17        86.63562
240.63        83.46832
241.08        81.58774
241.54         80.5531
242.00        79.53064
242.46        76.72683
242.91        71.14362
243.37        61.65079
243.83        48.95067
244.28        41.11802
244.74        46.13559
245.20        62.32823
245.66        78.57075
246.11        85.54903
246.57        82.51313
247.03        70.11784
247.48        50.63532
247.94        41.15496
248.40        46.78593
248.85        56.44792
249.31        63.91724
249.77        67.35619
250.22        67.70832
250.68        66.38816
251.14        64.18667
251.59        62.63292
252.05        62.86839
252.51        64.55806
252.96        66.70329
253.42        67.81252
253.88        67.64264
254.33        66.94633
254.79        67.49733
255.25        70.74907
255.70         76.2428
256.16        82.67899
256.62        88.52146
257.07        92.13564
257.53         93.5853
257.99        93.41195
258.44         91.6729
258.90        89.44491
259.35        86.90054
259.81        84.99287
260.27        83.44273
260.72         81.9966
261.18         80.9286
261.63        79.71786
262.09        79.04341
262.55        79.18368
263.00        79.86185
263.46        80.99168
263.91        81.59548
264.37         81.0069
264.83        79.21013
265.28        76.53403
265.74        74.00371
266.19        72.45594
266.65        72.14589
267.11        72.58081
267.56         73.1638
268.02        73.08117
268.47        72.13953
268.93         70.6468
269.38        68.93401
269.84        67.74654
270.30        67.25018
270.75        67.19716
271.21        67.26027
271.66        66.92766
272.12        66.08287
272.57        64.88112
273.03        63.59538
273.48        62.52546
273.94        61.83443
274.39        61.36638
274.85         61.0049
275.31        60.49382
275.76         59.7399
276.22        58.85226
276.67        57.93776
277.13        57.32155
277.58        56.94903
278.04        56.77906
278.49        56.46566
278.95        55.66653
279.40        54.30354
279.86          52.667
280.31        51.02294
280.77        49.94926
281.22        49.44091
281.68        49.36078
282.13        49.40934
282.59        49.23776
283.04        48.71975
283.50        48.02156
283.95        47.22451
284.41        46.53064
284.86        45.94559
285.32        45.44063
285.77        44.94841
286.22         44.4744
286.68        44.02174
287.13        43.57345
287.59        43.14754
288.04        42.68511
288.50        42.20702
288.95        41.67997
289.41        41.14618
289.86        40.58222
290.32        40.04772
290.77        39.53177
291.22        39.08361
291.68        38.73812
292.13        38.49471
292.59          38.368
293.04        38.33624
293.50        38.39651
293.95        38.52333
294.40        38.70282
294.86        38.92845
295.31        39.19747
295.77         39.5045
296.22        39.84917
296.68        40.18693
297.13        40.42936
297.58        40.57813
298.04        40.67085
298.49        40.80846
298.95        41.19048
299.40        41.82614
299.85          42.646
300.31        43.51029
300.76        44.18932
301.21         44.6349
301.67        44.95057
302.12        45.18619
302.58        45.49822
303.03        45.89484
303.48        46.34145
303.94        46.86682
304.39        47.46862
304.84        48.13858
305.30        48.86749
305.75        49.53214
306.20        49.97363
306.66        50.19222
307.11        50.21774
307.57        50.19275
308.02        50.24778
308.47         50.4439
308.93        50.72484
309.38        51.03387
309.83        51.34663
310.29        51.63123
310.74        51.89667
311.19        52.05992
311.65        51.98343
312.10        51.65275
312.55        51.11658
313.00        50.54495
313.46         50.2014
313.91        50.12443
314.36        50.25745
314.82        50.43985
315.27        50.43161
315.72        50.15797
316.18        49.71426
316.63        49.21217
317.08        48.83735
317.53          48.635
317.99        48.53432
318.44        48.46845
318.89        48.31995
319.35        48.05488
319.80        47.71802
320.25        47.35607
320.70        47.04082
321.16        46.78686
321.61        46.57417
322.06        46.36435
322.51        46.10488
322.97        45.77365
323.42        45.39872
323.87         45.0031
324.32        44.63102
324.78        44.28782
325.23        43.97582
325.68        43.66273
326.13         43.3048
326.59         42.8954
327.04        42.48197
327.49        42.09587
327.94         41.7919
328.39        41.58139
328.85        41.41967
329.30        41.33565
329.75        41.30942
330.20        41.32096
330.66         41.3498
331.11        41.35658
331.56        41.21637
332.01        40.90887
332.46         40.4607
332.92        39.96545
333.37        39.61406
333.82        39.46051
334.27        39.47606
334.72        39.57326
335.17        39.59381
335.63        39.47491
336.08        39.27009
336.53        39.05892
336.98        38.99232
337.43        39.10198
337.88         39.3414
338.34        39.55402
338.79        39.53883
339.24        39.23658
339.69        38.71255
340.14        38.17427
340.59        37.96654
341.05        38.15296
341.50        38.62606
341.95        39.14782
342.40        39.35192
342.85        39.15816
343.30        38.69702
343.75        38.13985
344.20        37.76728
344.66         37.6594
345.11        37.69457
345.56        37.81736
346.01         37.9385
346.46        38.00592
346.91        38.06801
347.36        38.03804
347.81        37.76685
348.26        37.26449
348.72        36.60807
349.17         35.9671
349.62        35.70346
350.07        35.89034
350.52        36.39073
350.97        37.01637
351.42        37.48385
351.87        37.69474
352.32        37.72028
352.77        37.56281
353.22         37.2333
353.67        36.77501
354.13        36.21151
354.58        35.62649
355.03        35.20118
355.48        34.98192
355.93        34.93821
356.38        35.00381
356.83        35.05598
357.28        35.04428
357.73        34.98513
358.18        34.87977
358.63         34.7377
359.08        34.56396
359.53        34.35078
359.98        34.09029
360.43        33.77583
360.88        33.41698
361.33        33.02938
361.78        32.66418
362.23        32.39957
362.68        32.25071
363.13        32.19095
363.58        32.15862
364.03        32.05562
364.48         31.8507
364.93        31.56292
365.38        31.22422
365.83        30.89748
366.28        30.60672
366.73        30.33506
367.18        30.06765
367.63        29.78083
368.08        29.47139
368.53        29.15828
368.98        28.85589
369.43        28.57571
369.88        28.32301
370.33        28.09812
370.78        27.89373
371.23        27.70169
371.68        27.52108
372.13         27.3471
372.58        27.20608
373.03        27.14245
373.48        27.15241
373.93        27.21088
374.38        27.24615
374.83        27.15108
375.28        26.90591
375.72        26.53569
376.17        26.13368
376.62        25.81216
377.07        25.61259
377.52         25.5062
377.97        25.45787
378.42        25.40937
378.87        25.33869
379.32        25.26194
379.77        25.18855
380.22        25.12799
380.67        25.08097
381.11        25.04302
381.56         24.9833
382.01        24.87791
382.46        24.72132
382.91         24.5146
383.36        24.30428
383.81        24.15866
384.26        24.08792
384.71        24.08304
385.15        24.06083
385.60        23.89951
386.05        23.58592
386.50        23.16746
386.95        22.77678
387.40         22.6216
387.85        22.73451
388.29        23.03042
388.74        23.36725
389.19        23.53098
389.64        23.47434
390.09        23.25467
390.54        22.97407
390.98        22.78901
391.43         22.7616
391.88        22.82862
392.33        22.90179
392.78        22.85658
393.23        22.68125
393.67        22.41687
394.12         22.1868
394.57        22.08343
395.02        22.12561
395.47        22.27448
395.91        22.46332
396.36        22.55005
396.81        22.50466
397.26        22.36422
397.71        22.20211
398.15        22.11192
398.60        22.14024
399.05        22.23829
399.50        22.34215
399.95        22.36224
400.39        22.27985
400.84        22.12093
401.29         21.9498
401.74        21.88294
402.18        21.95481
402.63        22.11819
403.08        22.28428
403.53        22.30909
403.97        22.16433
404.42        21.90975
404.87        21.64149
405.32         21.5184
405.76        21.57522
406.21        21.75709
406.66        21.97888
407.11         22.1067
407.55        22.10741
408.00        22.03112
408.45        21.92023
408.90        21.79123
409.34        21.69142
409.79        21.71072
410.24        21.80948
410.68        21.83688
411.13        21.78475
411.58        21.73946
412.03         21.7052
412.47        21.65784
412.92        21.59826
413.37        21.52957
413.81         21.4849
414.26         21.5306
414.71        21.66648
415.15        21.88141
415.60        22.08331
416.05        22.15055
416.49        22.05223
416.94        21.82805
417.39        21.56878
417.83        21.42204
418.28        21.43169
418.73        21.54642
419.17        21.69223
419.62        21.74534
420.07        21.67984
420.51        21.53863
420.96        21.38072
421.41        21.27247
421.85        21.22768
422.30         21.2358
422.74        21.27058
423.19         21.3292
423.64        21.39504
424.08        21.48337
424.53        21.56018
424.98        21.59925
425.42        21.59843
425.87        21.56441
426.31        21.51263
426.76        21.47854
427.21        21.45984
427.65        21.43862
428.10        21.43459
428.54        21.45104
428.99        21.49138
429.44        21.64863
429.88        21.81482
430.33        21.67671
430.77        21.31081
431.22        21.14169
431.66          21.209
432.11        21.32593
432.56        21.45359
433.00        21.69854
433.45         21.8758
433.89        21.73553
434.34        21.44028
434.78        21.18333
435.23         20.9108
435.67        21.97971
436.12         21.3049
436.57        21.18639
437.01        20.83594
437.46         20.7037
437.90        20.82043
438.35        20.99131
438.79        21.12746
439.24        21.18179
439.68        21.13024
440.13        20.82106
440.57        20.43602
441.02         20.5897
441.46        21.10517
441.91        21.30186
442.35        20.61937
442.80        20.41401
443.24        20.47207
443.69        20.36622
444.13         20.1168
444.58        19.98352
445.02        19.99547
445.47        20.13142
445.91        20.31382
446.36        20.37069
446.80        20.26712
447.24        20.08395
447.69        19.89506
448.13        19.77065
448.58        19.74143
449.02        19.77496
449.47        19.83043
449.91         19.8356
450.36        19.77889
450.80        19.68591
451.25        19.59072
451.69        19.52323
452.13        19.50072
452.58        19.50177
453.02        19.52678
453.47        19.58192
453.91        19.66179
454.36        19.76353
454.80        19.85175
455.24        19.86347
455.69        19.79734
456.13         19.6558
456.58        19.50923
457.02        19.45256
457.46        19.49963
457.91         19.5728
458.35        19.63938
458.79        19.70173
459.24        19.74174
459.68        19.76855
460.13        19.82942
460.57        19.80883
461.01         19.6893
461.46        20.01265
461.90        20.02343
462.34        19.78615
462.79        19.96803
463.23        19.88804
463.68        19.83544
464.12        19.75613
464.56        19.80955
465.01        19.87008
465.45        19.91576
465.89         19.9319
466.34        19.92071
466.78        19.82216
467.22        19.69371
467.67        19.76965
468.11        20.00208
468.55        19.99999
468.99        19.79521
469.44         19.7617
469.88        19.91431
470.32        20.04233
470.77        20.09892
471.21        20.11404
471.65        20.08015
472.10        19.99142
472.54        19.89148
472.98        19.89048
473.42        20.00226
473.87        20.13685
474.31        20.25177
474.75        20.40747
475.20        20.54715
475.64        20.46698
476.08        20.25265
476.52        20.21433
476.97        20.37496
477.41        20.59433
477.85         20.7901
478.29        20.89004
478.74        20.87127
479.18        20.72473
479.62        20.55555
480.06        20.52982
480.50        20.64901
480.95        20.77438
481.39        20.85532
481.83        20.88736
482.27        20.85527
482.72        20.86175
483.16         20.7593
483.60         20.7549
484.04        20.79287
484.48        20.93729
484.93        21.24758
485.37        21.32602
485.81        21.33311
486.25        22.00429
486.69        22.57135
487.14        21.81942
487.58        21.56629
488.02        22.36948
488.46         22.0624
488.90        22.19043
489.34        21.91387
489.79         21.9714
490.23        22.31141
490.67        22.54218
491.11        22.63473
491.55        22.65677
491.99        22.63489
492.43        22.64486
492.88        22.70306
493.32        22.72686
493.76        22.74499
494.20        22.85371
494.64        23.06217
495.08        23.34338
495.52        23.64073
495.96        23.86127
496.41        23.99779
496.85        24.07816
497.29        24.13784
497.73        24.30027
498.17         24.5405
498.61        24.62693
499.05        24.58113
499.49        24.67377
499.93         24.9226
500.37        25.11609
500.82        25.25318
501.26        25.53463
501.70         25.8942
502.14        25.99032
502.58        25.85736
503.02        25.84301
503.46        25.97156
503.90        26.05629
504.34        26.07837
504.78        26.09418
505.22        26.10433
505.66         26.1037
506.10        26.10996
506.54        26.14585
506.98        26.21857
507.42        26.32541
507.86        26.45525
508.30        26.58787
508.74        26.71226
509.18        26.82512
509.62        26.93066
510.06        27.03724
510.50        27.14541
510.94        27.25471
511.38        27.33955
511.82        27.36051
512.26        27.31479
512.70        27.21577
513.14        27.11966
513.58        27.10969
514.02        27.19537
514.46        27.35575
514.90        27.52714
515.34        27.53962
515.78         27.4183
516.22        27.25564
516.66        27.14214
517.10        26.89277
517.54        26.53195
517.98        27.08706
518.42        27.00601
518.86        27.26995
519.30        27.39541
519.74        27.53176
520.18         27.6418
520.62        27.64699
521.06        27.55729
521.50        27.38279
521.93        27.16951
522.37        27.00277
522.81          26.909
523.25        26.87181
523.69        26.87474
524.13        26.88821
524.57        26.89673
525.01         26.9042
525.45          26.907
525.89        26.89718
526.32        26.87153
526.76        26.83355
527.20        26.77138
527.64        26.67422
528.08        26.54517
528.52        26.38707
528.96        26.24135
529.40        26.16901
529.83        26.17704
530.27        26.25501
530.71        26.33464
531.15        26.30873
531.59        26.16062
532.03          25.927
532.46        25.68766
532.90        25.58831
533.34         25.6478
533.78        25.81216
534.22        26.00313
534.66        26.10092
535.09        26.06979
535.53        25.96032
535.97        25.80486
536.41         25.6506
536.85        25.52253
537.28        25.41925
537.72        25.36642
538.16        25.32788
538.60        25.42687
539.04        25.54546
539.47        25.67203
539.91        25.79716
540.35        25.92399
540.79        25.83658
541.22        25.89416
541.66        25.95364
542.10        26.14464
542.54        26.03072
542.97        26.28982
543.41        26.42012
543.85        26.60203
544.29         26.7739
544.72        26.90227
545.16        27.01219
545.60        27.09603
546.04        27.06843
546.47        27.02349
546.91        27.28007
547.35         27.7739
547.79        28.13853
548.22        28.31516
548.66        28.40616
549.10        28.45847
549.53        28.66979
549.97        29.04857
550.41        29.07115
550.84        29.26752
551.28        29.37837
551.72        29.60051
552.15        29.76858
552.59        29.98459
553.03         30.3706
553.46        30.54388
553.90        30.72996
554.34        30.81061
554.77        30.81211
555.21        30.78995
555.65        30.82829
556.08        30.94542
556.52        31.11108
556.96        31.28584
557.39        31.44384
557.83        31.56128
558.27         31.5817
558.70        31.53893
559.14        31.54352
559.57        31.60176
560.01        31.70391
560.45        31.81152
560.88        31.82338
561.32        31.79722
561.75        31.83126
562.19        32.05041
562.63        32.19317
563.06        32.28414
563.50        32.40366
563.93        32.53696
564.37        32.72295
564.80        32.80404
565.24        32.91663
565.68        32.99549
566.11        33.05447
566.55        33.11914
566.98        33.12608
567.42        33.08104
567.85        33.40999
568.29        33.26136
568.72        33.65036
569.16        34.20213
569.60        34.55825
570.03          34.661
570.47        34.71136
570.90        34.61227
571.34        35.04506
571.77        34.89451
572.21        35.37212
572.64        35.73417
573.08        35.79573
573.51        35.85957
573.95         36.3469
574.38        36.55786
574.82        36.84964
