SpectraSmart Spectrum 2.9.0.0
--------- Device Information -----------
Spectrum Name :  反射率_0
Saving Time :  2024/04/20 00:41:31
Spectro-Module Model Name : SE2030-DUVN
Spectro-Module Serial Number : OS361AC55029948
Wavelength Start : 200
Wavelength End : 1025
Wavelength Unit : Wavelength(nm)
Spectrum Unit : Reflectance(%)
-----------Spectrum Setting ------------
Integration Time : 30ms
Average : 10
Boxcar : 0
Background removal :  enabled
linearity correction :  enabled
SC :  disabled
Intensity correction :  disabled
DWT denoise :  enabled
savitzky-golay :  disabled
FFT :  disabled
Running average :  disabled
Kalman :  disabled
High pass :  disabled
---------------BEGIN--------------------
Wavelength(nm)             Reflectance(%)
200.29               0
200.75        48.25405
201.21        50.24419
201.67        54.89264
202.13        60.83662
202.58        67.05354
203.04        73.89573
203.50        79.75648
203.96        80.87091
204.42        77.44415
204.88        71.97842
205.34        66.95503
205.80        63.48747
206.26        60.94939
206.72         58.4128
207.18        55.85984
207.64        54.63813
208.10        56.06245
208.55        60.03367
209.01        63.25013
209.47        63.61153
209.93         61.4887
210.39        57.84861
210.85         54.1893
211.31        52.09112
211.77        51.70042
212.23        52.71154
212.69        54.58788
213.14        55.45963
213.60        54.28009
214.06        52.70723
214.52        51.86615
214.98        52.55462
215.44        54.57307
215.90        57.30846
216.36        60.52467
216.81        63.17907
217.27        64.39142
217.73        64.80163
218.19        63.53753
218.65        59.19456
219.11        51.66294
219.57        40.73743
220.02        29.28693
220.48         24.9692
220.94        30.23323
221.40        43.67872
221.86        58.98536
222.32        66.44539
222.77        63.99555
223.23        54.77177
223.69        44.51401
224.15        41.45944
224.61        45.85526
225.06        53.52239
225.52        60.25286
225.98        62.44908
226.44        60.12473
226.90        54.86102
227.36         48.7765
227.81        45.55506
228.27        46.46206
228.73          49.759
229.19        53.39194
229.65        55.02542
230.10          54.483
230.56        52.90062
231.02        51.25365
231.48        50.69313
231.93        51.29573
232.39        52.51702
232.85         53.8174
233.31        54.47813
233.77        54.28358
234.22        53.50232
234.68        52.34227
235.14        51.04287
235.60         49.8208
236.05        48.69691
236.51        47.77977
236.97         47.1791
237.43        46.94082
237.88        47.23426
238.34        48.13802
238.80        49.90967
239.26        52.33297
239.71        54.97993
240.17        57.14944
240.63        58.59953
241.08         59.3973
241.54        59.53254
242.00        58.77943
242.46        56.56117
242.91        52.42795
243.37        45.41425
243.83        36.13649
244.28        30.85109
244.74        35.69611
245.20        49.47814
245.66         63.1741
246.11        69.31873
246.57        67.57979
247.03        58.79116
247.48        45.12326
247.94        40.17056
248.40        46.49626
248.85        54.87701
249.31        61.15358
249.77        64.57707
250.22        65.94593
250.68        66.44388
251.14        65.84145
251.59        63.27188
252.05        58.89494
252.51        52.97281
252.96        47.16826
253.42        44.76435
253.88         46.4265
254.33        50.84392
254.79          56.586
255.25        61.87759
255.70        66.17142
256.16        69.58817
256.62        71.84827
257.07        72.65538
257.53        72.27273
257.99        70.78825
258.44        68.23986
258.90        65.63882
259.35        63.10211
259.81        61.24014
260.27        59.69921
260.72        58.11737
261.18        56.62021
261.63        54.84865
262.09        53.38587
262.55         52.5419
263.00        52.23151
263.46        52.42268
263.91        52.36986
264.37        51.44904
264.83        49.68106
265.28        47.32049
265.74        45.29757
266.19        44.48731
266.65        44.99172
267.11        46.27705
267.56        47.60312
268.02        47.90547
268.47        46.99492
268.93        45.24615
269.38        43.10242
269.84        41.51807
270.30        40.75462
270.75        40.54239
271.21        40.56284
271.66        40.32915
272.12        39.69374
272.57        38.82295
273.03        37.90986
273.48        37.14702
273.94        36.63794
274.39        36.26392
274.85        35.92191
275.31        35.43856
275.76        34.76328
276.22         33.9825
276.67        33.20922
277.13        32.71205
277.58         32.4705
278.04        32.43263
278.49        32.34874
278.95        31.93804
279.40        31.13653
279.86        30.13167
280.31        29.10666
280.77        28.46084
281.22        28.18687
281.68        28.17662
282.13        28.21823
282.59        28.03851
283.04        27.57783
283.50        26.98483
283.95         26.3496
284.41        25.83538
284.86        25.46724
285.32        25.20025
285.77        25.03914
286.22         25.0616
286.68        25.23664
287.13        25.50928
287.59        25.73577
288.04         25.6787
288.50        25.33009
288.95        24.74426
289.41        24.10169
289.86        23.61379
290.32        23.39099
290.77        23.35699
291.22        23.46474
291.68        23.60576
292.13        23.74346
292.59        23.91995
293.04        24.15159
293.50        24.47376
293.95         24.8788
294.40         25.3346
294.86         25.7995
295.31        26.22756
295.77        26.61194
296.22        26.97233
296.68        27.33788
297.13        27.73126
297.58        28.17171
298.04        28.65468
298.49        29.18122
298.95        29.78943
299.40        30.45867
299.85        31.17043
300.31        31.86856
300.76        32.46661
301.21        32.94502
301.67        33.35019
302.12         33.6936
302.58        34.05235
303.03        34.42608
303.48        34.81384
303.94        35.24642
304.39        35.72935
304.84        36.26415
305.30        36.83586
305.75         37.3736
306.20        37.79122
306.66        38.08877
307.11         38.2739
307.57        38.40831
308.02        38.51447
308.47        38.63093
308.93        38.74281
309.38        38.86031
309.83         39.0495
310.29        39.30307
310.74        39.60191
311.19        39.84525
311.65        39.87028
312.10        39.64961
312.55        39.23881
313.00        38.78122
313.46        38.49687
313.91        38.42179
314.36        38.50955
314.82        38.64009
315.27        38.64074
315.72        38.45334
316.18        38.14426
316.63        37.79673
317.08         37.5452
317.53         37.4179
317.99        37.35951
318.44         37.3026
318.89        37.13211
319.35         36.8205
319.80        36.41043
320.25        35.96631
320.70        35.58905
321.16        35.30231
321.61        35.08062
322.06        34.87408
322.51        34.60471
322.97        34.24704
323.42        33.83802
323.87        33.41052
324.32        33.02224
324.78        32.68564
325.23        32.38879
325.68        32.10737
326.13        31.80838
326.59        31.48322
327.04        31.17073
327.49        30.87402
327.94         30.5992
328.39        30.34748
328.85         30.0884
329.30        29.88103
329.75         29.7827
330.20        29.79408
330.66        29.87626
331.11          29.943
331.56        29.79935
332.01         29.4051
332.46        28.80951
332.92        28.14696
333.37        27.66024
333.82        27.43082
334.27        27.41861
334.72        27.51307
335.17        27.51545
335.63        27.35382
336.08        27.08368
336.53        26.81796
336.98        26.75557
337.43        26.93024
337.88        27.26877
338.34        27.56217
338.79        27.52376
339.24        27.07862
339.69        26.32596
340.14        25.51954
340.59        25.08414
341.05        25.11644
341.50        25.49045
341.95        25.97318
342.40        26.20011
342.85        26.07846
343.30         25.7389
343.75        25.30391
344.20         24.9714
344.66         24.8048
345.11        24.70223
345.56        24.66825
346.01        24.71569
346.46        24.81626
346.91        24.98488
347.36        25.08327
347.81        24.88496
348.26        24.37733
348.72        23.66075
349.17         22.9328
349.62        22.60406
350.07          22.768
350.52        23.28255
350.97        23.93271
351.42        24.39471
351.87        24.56866
352.32        24.54098
352.77        24.36891
353.22        24.14799
353.67        23.92448
354.13        23.67667
354.58        23.40577
355.03        23.16159
355.48        22.95944
355.93        22.81065
356.38        22.70766
356.83        22.62212
357.28        22.53917
357.73        22.45522
358.18        22.36603
358.63        22.26792
359.08         22.1605
359.53         22.0495
359.98        21.91951
360.43        21.74716
360.88         21.5371
361.33         21.2992
361.78        21.08797
362.23        20.99276
362.68        21.01968
363.13        21.12365
363.58         21.2271
364.03        21.21219
364.48        21.04576
364.93        20.76366
365.38        20.39634
365.83         20.0018
366.28        19.62093
366.73        19.25342
367.18        18.93732
367.63         18.7265
368.08        18.62469
368.53        18.61551
368.98        18.65472
369.43        18.66587
369.88        18.62581
370.33        18.55436
370.78        18.45234
371.23        18.32949
371.68        18.19573
372.13        18.03774
372.58        17.89906
373.03        17.85724
373.48        17.91649
373.93        18.04808
374.38        18.16504
374.83        18.13092
375.28        17.92131
375.72        17.57562
376.17        17.19429
376.62        16.89957
377.07        16.73843
377.52        16.67603
377.97        16.68753
378.42        16.73315
378.87        16.78519
379.32        16.84482
379.77         16.8954
380.22        16.90836
380.67        16.87782
381.11         16.8153
381.56        16.70289
382.01        16.53555
382.46        16.32367
382.91        16.06898
383.36        15.84266
383.81        15.74775
384.26        15.79587
384.71        15.96473
385.15        16.13292
385.60        16.11381
386.05        15.87708
386.50        15.48014
386.95         15.0796
387.40        14.92492
387.85        15.05838
388.29        15.38611
388.74        15.73723
389.19        15.87178
389.64        15.74264
390.09        15.42686
390.54         15.0549
390.98        14.82852
391.43        14.81465
391.88        14.93203
392.33        15.07557
392.78        15.09684
393.23        14.97217
393.67        14.75313
394.12        14.54174
394.57        14.42248
395.02        14.41527
395.47        14.48536
395.91        14.58559
396.36        14.62034
396.81        14.56955
397.26        14.45891
397.71        14.34271
398.15        14.28753
398.60        14.32442
399.05        14.42071
399.50        14.51663
399.95        14.52857
400.39        14.43984
400.84        14.27197
401.29        14.09919
401.74        14.05651
402.18        14.17907
402.63        14.41453
403.08        14.64826
403.53        14.69842
403.97        14.53135
404.42        14.21687
404.87         13.8795
405.32        13.72373
405.76        13.79612
406.21        14.02545
406.66        14.30354
407.11        14.46126
407.55        14.45438
408.00         14.3415
408.45         14.1788
408.90        14.02745
409.34        13.93743
409.79        13.94847
410.24        14.02466
410.68        14.05568
411.13        14.03077
411.58        14.01472
412.03         14.0057
412.47        13.97799
412.92         13.9295
413.37        13.85831
413.81        13.79959
414.26        13.82141
414.71        13.92642
415.15        14.10565
415.60        14.26688
416.05        14.28251
416.49        14.12453
416.94        13.83865
417.39        13.53347
417.83        13.38512
418.28        13.43829
418.73        13.62829
419.17        13.85468
419.62        13.94831
420.07        13.87471
420.51        13.69426
420.96         13.4772
421.41        13.31472
421.85        13.23411
422.30        13.21268
422.74        13.23709
423.19        13.31483
423.64        13.42953
424.08        13.58935
424.53        13.74161
424.98        13.81371
425.42         13.7884
425.87        13.68517
426.31        13.54231
426.76        13.43294
427.21        13.36904
427.65        13.32472
428.10        13.31074
428.54        13.32083
428.99        13.35201
429.44        13.46977
429.88        13.59361
430.33        13.50182
430.77        13.24328
431.22        13.08722
431.66        13.08219
432.11        13.15563
432.56        13.29171
433.00         13.5453
433.45        13.76724
433.89        13.73547
434.34        13.53031
434.78        13.29691
435.23        13.03618
435.67        13.63098
436.12        13.17951
436.57        13.09945
437.01        12.89251
437.46        12.82216
437.90        12.90057
438.35        13.00988
438.79        13.10417
439.24        13.16969
439.68        13.18914
440.13        13.05695
440.57        12.85635
441.02         12.9287
441.46        13.15658
441.91        13.13573
442.35        12.56983
442.80        12.35137
443.24        12.35176
443.69        12.29955
444.13        12.18317
444.58        12.12428
445.02        12.12753
445.47        12.19112
445.91        12.27824
446.36        12.30208
446.80        12.24371
447.24        12.14148
447.69        12.03179
448.13        11.94313
448.58        11.89354
449.02        11.87201
449.47        11.85934
449.91        11.81906
450.36        11.75006
450.80        11.66559
451.25         11.5965
451.69        11.57477
452.13        11.60957
452.58        11.67729
453.02         11.7596
453.47        11.82633
453.91        11.86864
454.36        11.89509
454.80        11.89559
455.24        11.85567
455.69        11.78429
456.13        11.67473
456.58        11.57553
457.02        11.55152
457.46        11.60938
457.91        11.70125
458.35        11.78711
458.79        11.83087
459.24        11.81927
459.68        11.76667
460.13        11.73627
460.57        11.71052
461.01         11.6907
461.46        11.97845
461.90        12.09012
462.34         12.0001
462.79         12.1001
463.23        11.99321
463.68        11.88775
464.12        11.80293
464.56        11.85027
465.01        11.93423
465.45        12.01543
465.89         12.0465
466.34        12.02228
466.78        11.92246
467.22        11.80068
467.67        11.82689
468.11         11.9804
468.55        12.01649
468.99        11.94016
469.44        11.95579
469.88        12.06606
470.32        12.14846
470.77        12.17785
471.21        12.18047
471.65         12.1531
472.10        12.09186
472.54        12.01919
472.98        12.00186
473.42        12.04971
473.87        12.10979
474.31        12.16392
474.75         12.2537
475.20        12.34669
475.64        12.31953
476.08        12.21676
476.52        12.21599
476.97        12.32845
477.41        12.47117
477.85        12.60148
478.29         12.6877
478.74        12.71687
479.18        12.67662
479.62        12.61669
480.06        12.62085
480.50        12.68804
480.95        12.73312
481.39         12.7394
481.83        12.74309
482.27         12.7458
482.72        12.73976
483.16        12.73363
483.60        12.75694
484.04        12.80842
484.48        12.90367
484.93        13.10244
485.37        13.24268
485.81        13.33622
486.25        13.80774
486.69        13.97889
487.14        13.41773
487.58        13.50544
488.02        14.34635
488.46        13.92856
488.90        13.96468
489.34        13.77559
489.79        13.90442
490.23        14.27724
490.67        14.50978
491.11        14.55351
491.55         14.4629
491.99        14.30091
492.43        14.23303
492.88        14.29578
493.32        14.36403
493.76        14.44637
494.20        14.62154
494.64        14.88402
495.08        15.19697
495.52        15.50599
495.96        15.74221
496.41        15.88765
496.85        15.93252
497.29        15.92016
497.73        15.99852
498.17        16.16577
498.61        16.24401
499.05        16.24957
499.49        16.37238
499.93        16.62038
500.37        16.84646
500.82        17.03354
501.26        17.29625
501.70        17.58283
502.14        17.66298
502.58        17.56539
503.02        17.54103
503.46        17.61274
503.90        17.65029
504.34        17.64951
504.78        17.66217
505.22        17.69163
505.66        17.73418
506.10        17.78959
506.54        17.85121
506.98        17.91915
507.42        17.99689
507.86        18.09091
508.30        18.21136
508.74        18.35408
509.18        18.50557
509.62         18.6531
510.06        18.77854
510.50         18.8764
510.94        18.95647
511.38        19.00705
511.82        19.01049
512.26        18.97045
512.70        18.89205
513.14        18.82377
513.58        18.83856
514.02        18.94103
514.46        19.11088
514.90        19.28277
515.34        19.29398
515.78        19.14686
516.22         18.9611
516.66        18.82749
517.10        18.53912
517.54        18.12199
517.98         18.7249
518.42        18.61424
518.86        18.87517
519.30        18.97114
519.74        19.07503
520.18        19.15885
520.62        19.15615
521.06        19.08114
521.50        18.93469
521.93        18.75872
522.37        18.63232
522.81        18.57633
523.25        18.57633
523.69        18.60443
524.13        18.61345
524.57        18.58893
525.01        18.54251
525.45        18.49432
525.89        18.47532
526.32        18.48932
526.76         18.5241
527.20         18.5464
527.64        18.51009
528.08        18.40554
528.52        18.24579
528.96        18.07406
529.40        17.95455
529.83        17.90179
530.27        17.90542
530.71        17.91403
531.15        17.84646
531.59        17.69165
532.03         17.4793
532.46        17.27825
532.90        17.21045
533.34        17.28814
533.78        17.46392
534.22         17.6575
534.66        17.74719
535.09        17.69958
535.53        17.56029
535.97        17.37602
536.41        17.21855
536.85        17.11668
537.28        17.06014
537.72        17.04871
538.16        17.02884
538.60        17.07694
539.04        17.12365
539.47        17.18146
539.91        17.27299
540.35        17.40473
540.79        17.41958
541.22        17.53439
541.66        17.61428
542.10           17.74
542.54         17.6294
542.97        17.76627
543.41        17.84954
543.85        18.01141
544.29        18.19854
544.72        18.37082
545.16        18.51956
545.60        18.63172
546.04        18.65397
546.47        18.65984
546.91        18.88441
547.35        19.28506
547.79        19.60088
548.22        19.77631
548.66        19.86186
549.10        19.89166
549.53        20.01413
549.97        20.25436
550.41        20.28188
550.84        20.47898
551.28        20.63558
551.72        20.87124
552.15        21.12593
552.59        21.39028
553.03        21.66666
553.46        21.91292
553.90        22.08674
554.34        22.18112
554.77        22.21062
555.21        22.21741
555.65        22.25867
556.08        22.34782
556.52        22.46742
556.96        22.60201
557.39        22.75548
557.83        22.91052
558.27        23.01229
558.70        23.06312
559.14        23.11206
559.57        23.15632
560.01        23.19718
560.45        23.22593
560.88        23.20085
561.32        23.17428
561.75        23.20868
562.19        23.38619
562.63        23.50075
563.06        23.56745
563.50        23.65341
563.93          23.755
564.37        23.90914
564.80        24.00366
565.24        24.13342
565.68        24.24765
566.11        24.35345
566.55        24.46625
566.98        24.53534
567.42        24.56161
567.85        24.85721
568.29        24.78428
568.72        25.09676
569.16         25.5132
569.60        25.76832
570.03         25.8304
570.47        25.84654
570.90        25.74605
571.34        26.07744
571.77        26.01188
572.21        26.28585
572.64        26.66226
573.08        26.73716
573.51        26.94941
573.95        27.54647
574.38        27.41583
574.82        27.60604
