SpectraSmart Spectrum 2.9.0.0
--------- Device Information -----------
Spectrum Name :  反射率_0
Saving Time :  2024/04/20 00:57:02
Spectro-Module Model Name : SE2030-DUVN
Spectro-Module Serial Number : OS361AC55029948
Wavelength Start : 200
Wavelength End : 1025
Wavelength Unit : Wavelength(nm)
Spectrum Unit : Reflectance(%)
-----------Spectrum Setting ------------
Integration Time : 30ms
Average : 10
Boxcar : 0
Background removal :  enabled
linearity correction :  enabled
SC :  disabled
Intensity correction :  disabled
DWT denoise :  enabled
savitzky-golay :  disabled
FFT :  disabled
Running average :  disabled
Kalman :  disabled
High pass :  disabled
---------------BEGIN--------------------
Wavelength(nm)             Reflectance(%)
200.29               0
200.75        51.13973
201.21        52.70397
201.67        56.52545
202.13        62.05819
202.58         68.7187
203.04        76.84888
203.50        83.87152
203.96        84.04723
204.42        77.87116
204.88        69.32915
205.34        62.11231
205.80        57.85196
206.26        55.73074
206.72        54.86322
207.18        54.94686
207.64        54.97622
208.10        54.31787
208.55        53.97598
209.01        53.55249
209.47        53.39254
209.93         53.4311
210.39        53.44543
210.85         53.3153
211.31        52.99607
211.77        52.40884
212.23         51.4618
212.69        50.34181
213.14        50.05353
213.60        50.57699
214.06         51.8064
214.52        52.95924
214.98        53.66044
215.44        53.98729
215.90        53.83523
216.36        53.82516
216.81        55.16433
217.27        57.86465
217.73         61.4492
218.19        63.96285
218.65        62.77658
219.11        57.47118
219.57        48.32321
220.02        37.56967
220.48        31.61583
220.94        32.75368
221.40        39.93862
221.86        49.13744
222.32        53.97331
222.77        52.95567
223.23        48.23186
223.69        43.18972
224.15        42.57412
224.61        46.28993
225.06        51.64438
225.52        56.15532
225.98         57.8956
226.44        56.92046
226.90        54.21999
227.36        50.79339
227.81        48.33799
228.27        47.76612
228.73        48.31973
229.19         49.4081
229.65        50.34274
230.10        50.92403
230.56        51.43275
231.02        51.90258
231.48        52.37888
231.93        52.82223
232.39        53.14978
232.85         53.3272
233.31        53.36867
233.77         53.2656
234.22         53.0523
234.68        52.63951
235.14        51.77691
235.60        50.52553
236.05        49.05965
236.51        47.77227
236.97        47.19844
237.43        47.51817
237.88        48.87016
238.34        51.02353
238.80        53.23231
239.26        54.67174
239.71        55.17129
240.17        54.83296
240.63        54.55169
241.08        54.67756
241.54        54.97231
242.00        54.84522
242.46         53.0542
242.91        48.84319
243.37        41.30942
243.83        31.10062
244.28        25.07638
244.74        30.01134
245.20         44.4106
245.66         58.5225
246.11        64.17604
246.57        60.78557
247.03        49.03511
247.48        31.54025
247.94        24.89167
248.40        32.50968
248.85         43.1496
249.31        51.19588
249.77        55.56266
250.22        57.31738
250.68        57.88118
251.14        57.48076
251.59        56.09589
252.05        54.15941
252.51        51.63501
252.96        49.00225
253.42        47.57219
253.88        47.72828
254.33        49.11023
254.79        51.86684
255.25        55.80094
255.70        60.41486
256.16        65.18732
256.62        69.06174
257.07        70.87471
257.53        70.82352
257.99        69.34819
258.44        66.91286
258.90        64.93909
259.35        63.37725
259.81        62.51143
260.27        61.73613
260.72        60.52829
261.18        59.11904
261.63        57.27371
262.09         55.7732
262.55         55.1573
263.00        55.31646
263.46        56.08926
263.91        56.54084
264.37        55.86802
264.83        54.08891
265.28        51.54757
265.74        49.30386
266.19        48.37825
266.65        48.90644
267.11        50.29633
267.56        51.73315
268.02        52.06119
268.47        51.07429
268.93        49.19114
269.38         46.9179
269.84        45.30807
270.30        44.65008
270.75        44.63602
271.21         44.8899
271.66        44.84085
272.12        44.32014
272.57        43.50933
273.03        42.63439
273.48        41.93453
273.94        41.52163
274.39         41.2484
274.85        40.97905
275.31        40.48555
275.76        39.71361
276.22        38.78408
276.67        37.84332
277.13        37.22195
277.58        36.90211
278.04        36.80508
278.49        36.66559
278.95        36.19217
279.40        35.30902
279.86        34.23177
280.31        33.10141
280.77        32.26446
281.22        31.72192
281.68        31.39869
282.13        31.17932
282.59        30.94584
283.04        30.64339
283.50        30.34737
283.95        30.02864
284.41        29.68612
284.86        29.30255
285.32        28.89628
285.77        28.51495
286.22        28.30813
286.68        28.28829
287.13        28.38756
287.59        28.49312
288.04        28.40795
288.50        28.12012
288.95        27.65775
289.41        27.16817
289.86        26.79995
290.32        26.64093
290.77        26.63335
291.22        26.70597
291.68        26.71858
292.13         26.6461
292.59        26.54848
293.04        26.53418
293.50         26.7845
293.95        27.31332
294.40        28.04467
294.86        28.82537
295.31        29.42992
295.77        29.80672
296.22        30.02402
296.68        30.20299
297.13        30.51884
297.58        31.03426
298.04        31.70149
298.49         32.4433
298.95        33.18015
299.40        33.86431
299.85        34.51831
300.31        35.16895
300.76        35.84684
301.21        36.55154
301.67        37.28571
302.12        37.96277
302.58        38.52715
303.03        38.95319
303.48        39.28827
303.94        39.65989
304.39        40.21643
304.84        40.98672
305.30         41.9035
305.75        42.80031
306.20        43.45005
306.66        43.82451
307.11         43.9813
307.57        44.06082
308.02        44.19357
308.47        44.44917
308.93         44.7776
309.38        45.14319
309.83        45.55025
310.29         45.9752
310.74         46.4188
311.19        46.80246
311.65        46.99424
312.10        46.96652
312.55        46.75154
313.00         46.4755
313.46        46.33836
313.91        46.36839
314.36        46.53075
314.82        46.69759
315.27        46.68498
315.72        46.44157
316.18        46.04805
316.63        45.62405
317.08        45.36272
317.53        45.30489
317.99        45.38076
318.44        45.48927
318.89        45.45376
319.35        45.22531
319.80        44.85927
320.25        44.44098
320.70        44.10875
321.16        43.89423
321.61        43.75877
322.06        43.62809
322.51        43.38947
322.97        43.00747
323.42        42.53204
323.87        42.02383
324.32        41.58499
324.78        41.23872
325.23        40.96914
325.68        40.71549
326.13        40.38635
326.59        39.95837
327.04        39.48766
327.49        39.02774
327.94        38.66835
328.39        38.42823
328.85        38.25246
329.30        38.13756
329.75        38.01674
330.20        37.86353
330.66        37.68048
331.11        37.47305
331.56        37.18565
332.01        36.81627
332.46        36.37409
332.92        35.92064
333.37        35.58442
333.82        35.39959
334.27        35.35146
334.72        35.37268
335.17        35.34041
335.63        35.20462
336.08        35.00379
336.53        34.80067
336.98        34.71923
337.43        34.78359
337.88        34.95469
338.34        35.09663
338.79        35.03934
339.24        34.72763
339.69        34.21214
340.14        33.67152
340.59        33.40455
341.05        33.46564
341.50        33.76909
341.95        34.10364
342.40        34.13972
342.85         33.8117
343.30        33.24522
343.75        32.61359
344.20        32.19812
344.66        32.07821
345.11        32.13418
345.56        32.30389
346.01        32.48546
346.46        32.61771
346.91        32.74059
347.36        32.76469
347.81        32.54303
348.26        32.08189
348.72        31.45411
349.17        30.81499
349.62        30.50716
350.07        30.60699
350.52         30.9948
350.97        31.50647
351.42        31.89073
351.87        32.06086
352.32        32.08302
352.77        31.95967
353.22        31.69823
353.67        31.33547
354.13        30.89189
354.58        30.43589
355.03        30.12338
355.48        29.99204
355.93        30.01037
356.38         30.1242
356.83        30.23431
357.28        30.29538
357.73         30.3191
358.18        30.28993
358.63        30.18795
359.08        30.01689
359.53        29.78613
359.98        29.51514
360.43        29.23796
360.88        28.97187
361.33        28.71376
361.78        28.49859
362.23        28.37762
362.68        28.34956
363.13        28.39132
363.58        28.42709
364.03        28.33902
364.48        28.09837
364.93        27.73314
365.38        27.30552
365.83        26.93012
366.28        26.64845
366.73        26.43456
367.18        26.25625
367.63        26.05785
368.08        25.82486
368.53        25.58375
368.98        25.35388
369.43        25.15537
369.88        24.99507
370.33        24.86648
370.78        24.75578
371.23        24.64609
371.68          24.533
372.13        24.41412
372.58        24.31794
373.03        24.29329
373.48        24.33685
373.93        24.41936
374.38        24.47218
374.83        24.39308
375.28        24.16404
375.72        23.81431
376.17        23.42728
376.62        23.09697
377.07        22.86648
377.52        22.71613
377.97        22.63735
378.42        22.61321
378.87        22.62373
379.32        22.66265
379.77        22.71017
380.22        22.73304
380.67        22.72062
381.11        22.68485
381.56         22.5974
382.01        22.43845
382.46        22.21417
382.91         21.9283
383.36        21.65986
383.81        21.52648
384.26        21.54273
384.71        21.68123
385.15        21.81592
385.60        21.75613
386.05        21.46984
386.50        21.02096
386.95        20.56658
387.40        20.35534
387.85        20.43501
388.29        20.71325
388.74        21.03399
389.19        21.16781
389.64        21.06507
390.09        20.79028
390.54        20.46564
390.98        20.27711
391.43        20.28765
391.88        20.42186
392.33        20.55694
392.78        20.52104
393.23        20.29567
393.67        19.93817
394.12        19.60474
394.57        19.43913
395.02        19.46802
395.47        19.64101
395.91        19.85266
396.36        19.89768
396.81        19.73527
397.26        19.42929
397.71         19.1134
398.15        18.96758
398.60        19.04485
399.05         19.2639
399.50        19.49958
399.95        19.57603
400.39        19.45474
400.84        19.18535
401.29        18.87557
401.74        18.72095
402.18         18.7824
402.63        18.99103
403.08        19.21687
403.53        19.25347
403.97        19.05988
404.42        18.71808
404.87        18.36358
405.32        18.21534
405.76        18.31977
406.21        18.59544
406.66         18.9163
407.11         19.0891
407.55        19.06186
408.00        18.89733
408.45        18.66334
408.90        18.43256
409.34        18.26991
409.79        18.23952
410.24        18.28534
410.68        18.24465
411.13        18.10577
411.58        17.95872
412.03         17.8387
412.47        17.77655
412.92        17.78235
413.37        17.83362
413.81        17.92137
414.26        18.04891
414.71        18.19865
415.15        18.37483
415.60        18.50762
416.05        18.51296
416.49        18.37479
416.94        18.12367
417.39        17.84508
417.83        17.67924
418.28        17.66691
418.73        17.76222
419.17        17.89487
419.62        17.94104
420.07        17.87516
420.51         17.7401
420.96        17.58516
421.41        17.46598
421.85        17.39677
422.30        17.36727
422.74        17.36769
423.19        17.41584
423.64        17.49761
424.08        17.61766
424.53        17.72438
424.98        17.75567
425.42        17.69943
425.87        17.57683
426.31        17.42097
426.76        17.29243
427.21        17.20041
427.65        17.12411
428.10        17.08576
428.54        17.09471
428.99        17.15179
429.44        17.32885
429.88        17.52232
430.33        17.45323
430.77        17.17563
431.22        17.03192
431.66        17.06838
432.11        17.15919
432.56        17.27836
433.00        17.50956
433.45        17.67548
433.89        17.52588
434.34        17.18884
434.78        16.84436
435.23        16.50549
435.67        17.30974
436.12        16.83823
436.57        16.88281
437.01        16.76504
437.46        16.75112
437.90        16.84097
438.35        16.90105
438.79        16.91443
439.24        16.93328
439.68        16.95659
440.13        16.82854
440.57        16.63713
441.02        16.79667
441.46        17.14488
441.91        17.16238
442.35        16.45727
442.80        16.18917
443.24        16.19347
443.69        16.11047
444.13        15.93193
444.58        15.82717
445.02        15.80774
445.47        15.87157
445.91        15.96802
446.36        15.97753
446.80        15.87625
447.24        15.71788
447.69         15.5581
448.13        15.44786
448.58        15.41139
449.02        15.43005
449.47          15.464
449.91        15.44354
450.36        15.35942
450.80        15.23078
451.25         15.1125
451.69        15.07161
452.13        15.12372
452.58        15.23447
453.02        15.35353
453.47        15.40447
453.91        15.37055
454.36        15.27684
454.80        15.15253
455.24        15.04731
455.69        14.98719
456.13         14.9403
456.58           14.92
457.02        14.93829
457.46        14.98816
457.91        15.03122
458.35        15.04935
458.79        15.05027
459.24        15.02784
459.68        14.98276
460.13        14.96995
460.57        14.93216
461.01        14.86205
461.46        15.16035
461.90        15.23075
462.34        15.07288
462.79        15.18634
463.23        15.06504
463.68        14.95821
464.12        14.87292
464.56        14.94054
465.01        15.04415
465.45        15.14194
465.89        15.18741
466.34        15.17484
466.78        15.07324
467.22        14.93414
467.67          14.947
468.11        15.08175
468.55        15.03969
468.99        14.85625
469.44        14.82872
469.88        14.96972
470.32        15.11728
470.77         15.2162
471.21        15.25826
471.65        15.22948
472.10        15.13429
472.54        15.02062
472.98        15.00085
473.42        15.09247
473.87        15.21656
474.31        15.32985
474.75        15.45919
475.20        15.55763
475.64        15.47943
476.08        15.29636
476.52        15.25184
476.97        15.36689
477.41        15.53405
477.85        15.69191
478.29        15.78746
478.74        15.80143
479.18        15.72292
479.62        15.62787
480.06        15.63852
480.50        15.75493
480.95         15.8671
481.39        15.92871
481.83        15.94097
482.27        15.90072
482.72        15.82103
483.16        15.73737
483.60         15.7154
484.04        15.76618
484.48        15.91192
484.93        16.17042
485.37        16.42382
485.81        16.48799
486.25        17.20086
486.69        17.92429
487.14        17.53908
487.58        16.91563
488.02        17.59724
488.46        17.38918
488.90        17.52249
489.34        17.20101
489.79        17.21037
490.23        17.51871
490.67        17.76947
491.11        17.90613
491.55         17.8613
491.99        17.68982
492.43        17.64639
492.88        17.76562
493.32        17.86664
493.76        17.96268
494.20        18.15656
494.64        18.44383
495.08        18.81003
495.52         19.1807
495.96        19.39358
496.41        19.45878
496.85        19.51101
497.29        19.59305
497.73        19.74447
498.17        19.95196
498.61        20.07576
499.05        20.12547
499.49        20.27864
499.93        20.54261
500.37        20.75569
500.82        20.91493
501.26        21.18785
501.70        21.51979
502.14        21.61797
502.58         21.5206
503.02        21.53909
503.46        21.69658
503.90        21.83159
504.34        21.90835
504.78        21.94258
505.22        21.92858
505.66         21.8711
506.10         21.8132
506.54        21.81902
506.98        21.90619
507.42        22.06237
507.86        22.24788
508.30        22.39578
508.74        22.48535
509.18        22.52795
509.62        22.56318
510.06        22.65509
510.50        22.81581
510.94        23.02638
511.38        23.22214
511.82         23.3004
512.26        23.24154
512.70        23.07769
513.14         22.8997
513.58        22.84675
514.02        22.94256
514.46        23.14693
514.90        23.36858
515.34        23.39912
515.78        23.24112
516.22        23.01693
516.66        22.83721
517.10        22.53512
517.54        22.14404
517.98        22.74355
518.42         22.6742
518.86        22.95208
519.30        23.06078
519.74        23.16944
520.18        23.25219
520.62        23.24607
521.06        23.16647
521.50        23.01448
521.93         22.8326
522.37        22.70169
522.81        22.64308
523.25        22.64073
523.69        22.66944
524.13        22.68584
524.57        22.67417
525.01         22.6442
525.45        22.60545
525.89        22.57203
526.32        22.54619
526.76        22.52328
527.20        22.48547
527.64        22.41123
528.08        22.29792
528.52        22.15156
528.96        22.00592
529.40        21.90999
529.83        21.87174
530.27        21.88416
530.71        21.89632
531.15        21.82887
531.59        21.67102
532.03        21.45065
532.46        21.23382
532.90        21.14108
533.34        21.18562
533.78        21.32323
534.22        21.48076
534.66        21.54622
535.09        21.48839
535.53        21.35231
535.97        21.17841
536.41        21.02771
536.85        20.92576
537.28        20.86561
537.72        20.85351
538.16        20.83525
538.60        20.90657
539.04        20.97748
539.47        21.05444
539.91        21.15391
540.35        21.28312
540.79        21.25641
541.22        21.35251
541.66        21.42744
542.10        21.58423
542.54         21.4742
542.97        21.67304
543.41        21.79232
543.85        21.98668
544.29        22.19424
544.72         22.3784
545.16        22.54806
545.60        22.69036
546.04        22.73515
546.47        22.75351
546.91        23.00204
547.35        23.42627
547.79        23.72261
548.22        23.85309
548.66         23.9216
549.10        23.97434
549.53        24.17313
549.97        24.52536
550.41        24.59381
550.84        24.82785
551.28        24.98315
551.72        25.20867
552.15        25.43811
552.59        25.67001
553.03        25.90984
553.46        26.12122
553.90        26.27599
554.34        26.36894
554.77        26.41192
555.21        26.44577
555.65        26.52248
556.08        26.65062
556.52        26.81088
556.96        26.98049
557.39        27.15831
557.83        27.32403
558.27        27.41354
558.70         27.4387
559.14         27.4742
559.57        27.52097
560.01         27.5778
560.45        27.62801
560.88        27.61012
561.32        27.58184
561.75        27.62294
562.19        27.83524
562.63        27.97277
563.06        28.05709
563.50        28.18091
563.93        28.32499
564.37        28.49707
564.80         28.5589
565.24        28.64062
565.68        28.70038
566.11        28.76723
566.55        28.87007
566.98        28.95514
567.42        29.00535
567.85        29.35724
568.29        29.25099
568.72        29.58788
569.16        30.08792
569.60        30.45022
570.03        30.61887
570.47        30.88571
570.90        31.09939
571.34         31.2816
571.77        31.16299
572.21        31.49145
572.64        31.88157
573.08        32.11182
573.51        32.15749
573.95        32.53809
574.38        32.99002
574.82        33.15203
