SpectraSmart Spectrum 2.9.0.0
--------- Device Information -----------
Spectrum Name :  反射率_0
Saving Time :  2024/04/20 00:37:09
Spectro-Module Model Name : SE2030-DUVN
Spectro-Module Serial Number : OS361AC55029948
Wavelength Start : 200
Wavelength End : 1025
Wavelength Unit : Wavelength(nm)
Spectrum Unit : Reflectance(%)
-----------Spectrum Setting ------------
Integration Time : 30ms
Average : 10
Boxcar : 0
Background removal :  enabled
linearity correction :  enabled
SC :  disabled
Intensity correction :  disabled
DWT denoise :  enabled
savitzky-golay :  disabled
FFT :  disabled
Running average :  disabled
Kalman :  disabled
High pass :  disabled
---------------BEGIN--------------------
Wavelength(nm)             Reflectance(%)
200.29               0
200.75        58.49046
201.21        59.34344
201.67        62.95983
202.13        69.04427
202.58        77.14466
203.04        87.52476
203.50        97.56369
203.96        100.6058
204.42        96.15607
204.88         88.3227
205.34        80.82417
205.80        75.20828
206.26        70.51528
206.72        65.14172
207.18        58.82782
207.64        54.51082
208.10        55.65496
208.55        61.90158
209.01        68.36652
209.47         71.2485
209.93        70.72242
210.39        68.19598
210.85        65.07097
211.31        62.83834
211.77        61.64145
212.23        60.84976
212.69        60.41267
213.14        60.58681
213.60        60.95603
214.06        61.96756
214.52        63.07907
214.98        64.02862
215.44        64.93242
215.90        65.65168
216.36        66.80755
216.81        69.44278
217.27        73.30223
217.73        77.87873
218.19        81.29779
218.65        81.16151
219.11         77.1772
219.57        69.59906
220.02         60.5205
220.48         55.8725
220.94         57.7161
221.40        65.01366
221.86        74.07468
222.32        79.07603
222.77        78.64721
223.23        74.86188
223.69        70.57937
224.15        69.82917
224.61        72.65221
225.06        76.73244
225.52        80.35829
225.98        82.15332
226.44        82.12241
226.90        80.99313
227.36        79.16695
227.81        77.23579
228.27         75.8768
228.73        74.81659
229.19        74.16262
229.65        74.01526
230.10        74.22108
230.56        74.85168
231.02        75.55392
231.48        75.95608
231.93        75.95586
232.39        75.65666
232.85        75.26074
233.31        75.16911
233.77        75.42709
234.22        75.91503
234.68        76.23434
235.14        75.62262
235.60         74.0151
236.05        71.77866
236.51        69.56683
236.97        68.28838
237.43        68.21413
237.88        69.39534
238.34        71.50298
238.80         73.8187
239.26         75.4582
239.71        76.33208
240.17        76.18118
240.63        75.39473
241.08        74.26363
241.54        72.63964
242.00        70.41927
242.46         67.1977
242.91        62.58285
243.37        55.64315
243.83        47.09705
244.28        42.94622
244.74         48.7067
245.20        62.83628
245.66        76.43192
246.11        82.55587
246.57        80.88243
247.03        71.88251
247.48         57.2662
247.94        50.24734
248.40        54.64881
248.85        62.06815
249.31        67.83793
249.77        70.59996
250.22        71.05421
250.68        70.25105
251.14         68.7203
251.59        67.41011
252.05        67.11809
252.51        67.71628
252.96        68.36218
253.42        67.92944
253.88        66.38478
254.33        64.34834
254.79        63.74179
255.25        66.11238
255.70        70.83945
256.16        76.54673
256.62        81.24431
257.07        82.74326
257.53        81.27921
257.99        77.83799
258.44        73.40824
258.90         70.1394
259.35        68.00067
259.81        66.94307
260.27        66.09781
260.72        64.71858
261.18        63.05176
261.63        60.96839
262.09        59.26157
262.55        58.47146
263.00        58.50977
263.46        59.18654
263.91        59.67568
264.37        59.34173
264.83        58.14376
265.28         56.3228
265.74        54.71109
266.19        53.98968
266.65         54.3032
267.11        55.21307
267.56        56.13691
268.02        56.25079
268.47        55.40142
268.93        53.89083
269.38         52.0992
269.84        50.85873
270.30        50.37207
270.75        50.40406
271.21        50.60027
271.66        50.41307
272.12        49.70852
272.57        48.65588
273.03        47.55631
273.48        46.76954
273.94        46.43064
274.39        46.35374
274.85        46.32162
275.31        45.97211
275.76        45.21706
276.22        44.21551
276.67         43.1649
277.13        42.48634
277.58        42.17376
278.04        42.12633
278.49        42.01644
278.95        41.48497
279.40         40.4417
279.86        39.13773
280.31        37.78136
280.77        36.82442
281.22         36.2729
281.68        36.02549
282.13         35.8697
282.59        35.55574
283.04        35.00885
283.50        34.35793
283.95        33.68274
284.41        33.14986
284.86          32.757
285.32        32.45749
285.77        32.18139
286.22        31.90732
286.68        31.61952
287.13        31.32005
287.59        30.98684
288.04        30.53744
288.50        29.99532
288.95        29.35356
289.41        28.73251
289.86        28.24192
290.32        27.95242
290.77        27.80957
291.22        27.75478
291.68        27.66178
292.13        27.49801
292.59        27.31228
293.04        27.15761
293.50        27.13926
293.95        27.26232
294.40        27.47198
294.86        27.70596
295.31        27.87935
295.77        27.97112
296.22        28.02105
296.68        28.04117
297.13        28.02627
297.58        28.00767
298.04        27.99799
298.49        28.06836
298.95        28.36559
299.40        28.88094
299.85        29.54994
300.31        30.24106
300.76        30.74989
301.21        31.02884
301.67        31.17155
302.12        31.21118
302.58        31.25425
303.03        31.32275
303.48        31.39795
303.94        31.56545
304.39        31.92171
304.84        32.46873
305.30        33.16155
305.75        33.82191
306.20         34.1903
306.66        34.23964
307.11        34.04228
307.57        33.77372
308.02        33.63692
308.47        33.70879
308.93        33.91234
309.38        34.18433
309.83        34.47297
310.29        34.73694
310.74        35.00005
311.19        35.19108
311.65        35.19085
312.10        34.98963
312.55        34.62266
313.00        34.22904
313.46        34.02901
313.91        34.05545
314.36         34.2632
314.82        34.52597
315.27        34.65378
315.72        34.58236
316.18        34.37896
316.63        34.12668
317.08        33.96186
317.53        33.91574
317.99        33.93113
318.44        33.95291
318.89        33.88569
319.35        33.70456
319.80        33.44943
320.25        33.15997
320.70        32.89587
321.16        32.67493
321.61         32.4828
322.06        32.30546
322.51        32.12556
322.97        31.92778
323.42        31.72328
323.87        31.50687
324.32        31.27287
324.78        31.01816
325.23        30.75819
325.68        30.48245
326.13        30.18061
326.59        29.86145
327.04        29.55468
327.49        29.30353
327.94        29.17923
328.39        29.19065
328.85        29.29348
329.30        29.46372
329.75        29.60907
330.20        29.68531
330.66        29.68674
331.11        29.61748
331.56        29.43752
332.01        29.15042
332.46        28.76416
332.92        28.34149
333.37        28.00105
333.82        27.78562
334.27        27.69434
334.72         27.6785
335.17        27.64066
335.63        27.54279
336.08         27.4133
336.53        27.31277
336.98        27.35461
337.43        27.55298
337.88         27.8664
338.34          28.144
338.79        28.19097
339.24        27.95067
339.69        27.48288
340.14         26.9828
340.59        26.77808
341.05        26.93131
341.50          27.346
341.95         27.8124
342.40        28.00414
342.85         27.8489
343.30        27.46713
343.75        27.00288
344.20        26.68997
344.66          26.596
345.11        26.61279
345.56        26.70804
346.01        26.83067
346.46         26.9364
346.91        27.05654
347.36        27.08645
347.81        26.85189
348.26        26.35695
348.72         25.6925
349.17        25.03053
349.62        24.74007
350.07        24.90167
350.52        25.37778
350.97        25.99512
351.42        26.49171
351.87        26.77279
352.32        26.90688
352.77        26.87182
353.22        26.63828
353.67        26.23788
354.13        25.69695
354.58        25.13319
355.03        24.77771
355.48        24.68366
355.93         24.8045
356.38        25.02307
356.83        25.13792
357.28        25.08679
357.73        24.91422
358.18        24.68924
358.63        24.53107
359.08        24.47087
359.53         24.4654
359.98        24.44094
360.43         24.2916
360.88        24.00278
361.33         23.6196
361.78        23.23597
362.23        22.99948
362.68        22.93909
363.13        22.99621
363.58        23.07727
364.03        23.03876
364.48        22.84113
364.93        22.53111
365.38        22.15232
365.83        21.78295
366.28          21.462
366.73        21.16891
367.18         20.9219
367.63        20.74818
368.08        20.64307
368.53        20.60289
368.98         20.5796
369.43         20.4898
369.88        20.31907
370.33        20.09422
370.78        19.85595
371.23        19.68098
371.68        19.59272
372.13        19.55675
372.58        19.57014
373.03        19.62781
373.48        19.70768
373.93        19.80568
374.38        19.85299
374.83        19.74399
375.28        19.46817
375.72        19.05145
376.17        18.61355
376.62         18.3108
377.07        18.19058
377.52        18.20839
377.97        18.29643
378.42        18.34452
378.87        18.31525
379.32        18.23786
379.77        18.13817
380.22        18.05125
380.67        17.98846
381.11        17.94117
381.56        17.87675
382.01        17.76547
382.46        17.60287
382.91        17.39435
383.36        17.20093
383.81        17.11052
384.26        17.13182
384.71        17.24379
385.15         17.3351
385.60        17.23811
386.05        16.93117
386.50        16.47378
386.95        16.02267
387.40        15.82529
387.85        15.92553
388.29        16.23077
388.74        16.57744
389.19        16.73362
389.64        16.64846
390.09        16.39026
390.54        16.07144
390.98        15.86533
391.43        15.83446
391.88        15.90992
392.33        15.99853
392.78        15.97026
393.23        15.80809
393.67        15.55587
394.12        15.32382
394.57        15.20539
395.02        15.21842
395.47        15.32695
395.91        15.46001
396.36        15.47897
396.81        15.35719
397.26         15.1355
397.71        14.90629
398.15        14.79191
398.60        14.83219
399.05        14.97397
399.50        15.12521
399.95        15.15486
400.39        15.03635
400.84        14.80777
401.29        14.56221
401.74        14.46922
402.18        14.57694
402.63        14.81982
403.08        15.07762
403.53        15.16053
403.97        15.02912
404.42        14.75747
404.87        14.45781
405.32        14.31342
405.76        14.36897
406.21        14.55923
406.66         14.7973
407.11        14.94899
407.55        14.97719
408.00        14.92945
408.45        14.84171
408.90        14.73634
409.34        14.65047
409.79        14.63853
410.24        14.67553
410.68        14.66399
411.13         14.6007
411.58        14.55007
412.03        14.51137
412.47        14.46055
412.92        14.39875
413.37        14.32775
413.81        14.28714
414.26        14.35057
414.71        14.51818
415.15        14.77324
415.60        15.01352
416.05        15.09611
416.49        14.98522
416.94        14.72954
417.39        14.43228
417.83        14.26247
418.28        14.27038
418.73        14.39895
419.17        14.57078
419.62        14.65237
420.07        14.61481
420.51        14.50441
420.96        14.37363
421.41         14.2833
421.85         14.2489
422.30        14.25703
422.74        14.29046
423.19        14.35289
423.64        14.43109
424.08        14.53356
424.53        14.62796
424.98        14.68087
425.42        14.68532
425.87        14.65161
426.31        14.59037
426.76        14.53033
427.21         14.4725
427.65        14.40285
428.10        14.35431
428.54        14.35743
428.99        14.41962
429.44         14.5978
429.88        14.78891
430.33          14.732
430.77        14.47343
431.22        14.31252
431.66        14.31387
432.11        14.41347
432.56        14.59864
433.00        14.92959
433.45        15.22243
433.89        15.19343
434.34        14.92673
434.78        14.59725
435.23        14.24884
435.67        14.90583
436.12        14.49648
436.57        14.55091
437.01         14.4718
437.46        14.46842
437.90        14.53412
438.35         14.5626
438.79        14.54811
439.24        14.54706
439.68         14.5626
440.13        14.45858
440.57         14.3027
441.02        14.43892
441.46        14.72669
441.91        14.72484
442.35        14.11233
442.80        13.90541
443.24        13.96395
443.69        13.97148
444.13        13.89944
444.58        13.86357
445.02        13.86446
445.47        13.90807
445.91        13.96568
446.36        13.95893
446.80        13.87453
447.24        13.75314
447.69         13.6313
448.13        13.53349
448.58        13.47911
449.02        13.46111
449.47        13.46208
449.91          13.447
450.36        13.41282
450.80        13.36586
451.25        13.33693
451.69        13.35766
452.13        13.43478
452.58        13.54523
453.02        13.65534
453.47         13.7138
453.91        13.71025
454.36        13.65898
454.80        13.58037
455.24         13.5106
455.69          13.469
456.13        13.43095
456.58        13.40727
457.02        13.40568
457.46        13.42333
457.91        13.43027
458.35        13.42006
458.79        13.41222
459.24        13.40456
459.68        13.39245
460.13        13.42254
460.57        13.43746
461.01        13.42519
461.46        13.74572
461.90        13.85332
462.34        13.73538
462.79        13.84583
463.23        13.72623
463.68        13.60971
464.12        13.51299
464.56        13.56232
465.01        13.65157
465.45        13.74448
465.89        13.79981
466.34        13.81106
466.78        13.74757
467.22        13.65481
467.67        13.70328
468.11        13.86275
468.55        13.85854
468.99        13.71156
469.44        13.68057
469.88        13.77606
470.32        13.85269
470.77        13.88019
471.21        13.88361
471.65        13.85662
472.10        13.79597
472.54        13.72423
472.98        13.70939
473.42        13.76141
473.87        13.82258
474.31        13.87377
474.75        13.96795
475.20        14.06868
475.64         14.0308
476.08        13.90928
476.52        13.91226
476.97        14.05219
477.41        14.23462
477.85        14.39434
478.29        14.46836
478.74        14.43935
479.18        14.30342
479.62        14.14864
480.06        14.11495
480.50        14.20961
480.95        14.32504
481.39         14.4066
481.83        14.43896
482.27        14.40954
482.72        14.32403
483.16        14.22953
483.60         14.2033
484.04        14.25043
484.48        14.41571
484.93        14.71085
485.37        14.81199
485.81        14.78996
486.25        15.33284
486.69        15.41375
487.14        15.06183
487.58        14.99037
488.02        15.61497
488.46        15.36947
488.90        15.40492
489.34        15.21088
489.79        15.29521
490.23        15.60795
490.67        15.81852
491.11        15.87096
491.55        15.76607
491.99        15.55982
492.43        15.44756
492.88        15.46793
493.32        15.48475
493.76        15.51006
494.20        15.63241
494.64        15.84947
495.08        16.12367
495.52        16.40584
495.96        16.63352
496.41        16.78787
496.85        16.85477
497.29         16.8642
497.73        16.94748
498.17        17.09592
498.61        17.12633
499.05        17.07214
499.49        17.16049
499.93        17.40762
500.37         17.6534
500.82        17.86494
501.26        18.13847
501.70        18.41382
502.14        18.45583
502.58        18.31264
503.02        18.27325
503.46        18.36489
503.90        18.44153
504.34         18.4745
504.78        18.47951
505.22        18.45233
505.66        18.40316
506.10        18.35706
506.54        18.34757
506.98        18.38646
507.42        18.46497
507.86        18.57575
508.30        18.70598
508.74        18.84283
509.18        18.98032
509.62        19.10748
510.06        19.20772
510.50        19.27852
510.94        19.32952
511.38        19.35353
511.82        19.34183
512.26        19.30061
512.70         19.2323
513.14        19.18509
513.58        19.23063
514.02        19.36971
514.46        19.57981
514.90        19.78602
515.34        19.81006
515.78         19.6536
516.22        19.44052
516.66        19.27134
517.10         18.9568
517.54        18.52864
517.98        19.12506
518.42        19.02262
518.86        19.30289
519.30         19.4289
519.74        19.57178
520.18        19.69105
520.62        19.69939
521.06         19.6094
521.50        19.43157
521.93        19.22208
522.37        19.08451
522.81        19.04543
523.25        19.07744
523.69        19.15145
524.13        19.21906
524.57        19.25845
525.01        19.28038
525.45        19.27858
525.89        19.24147
526.32        19.17079
526.76        19.07341
527.20        18.95876
527.64        18.84932
528.08        18.75371
528.52        18.66399
528.96         18.5975
529.40        18.57685
529.83        18.59941
530.27        18.66375
530.71        18.71572
531.15        18.67033
531.59        18.51811
532.03         18.2882
532.46        18.05718
532.90        17.96301
533.34         18.0238
533.78        18.19036
534.22        18.38473
534.66        18.48631
535.09        18.45983
535.53        18.35122
535.97        18.19697
536.41        18.05196
536.85         17.9419
537.28        17.86101
537.72        17.82143
538.16        17.78812
538.60        17.84567
539.04        17.91429
539.47        17.99618
539.91        18.09883
540.35        18.22439
540.79        18.21327
541.22        18.29918
541.66        18.35133
542.10        18.45682
542.54        18.31936
542.97        18.43648
543.41        18.48729
543.85        18.60804
544.29        18.74699
544.72        18.87112
545.16        18.98264
545.60         19.0701
546.04        19.07631
546.47        19.06762
546.91         19.2698
547.35        19.63684
547.79        19.90816
548.22        20.03923
548.66          20.098
549.10         20.1205
549.53        20.24916
549.97        20.49883
550.41        20.51867
550.84        20.69002
551.28         20.8051
551.72        20.98888
552.15        21.18806
552.59        21.39786
553.03        21.62064
553.46         21.8166
553.90        21.94585
554.34        22.00234
554.77        22.00186
555.21        21.98661
555.65        22.01192
556.08        22.08903
556.52        22.20467
556.96        22.34414
557.39        22.49676
557.83        22.64064
558.27        22.78477
558.70        22.81584
559.14        22.86979
559.57         22.9097
560.01        22.93644
560.45        22.94253
560.88        22.90051
561.32        22.86049
561.75        22.86239
562.19        22.99386
562.63        23.08096
563.06        23.14009
563.50        23.22044
563.93        23.31497
564.37        23.45982
564.80        23.54162
565.24        23.65454
565.68         23.7453
566.11        23.80547
566.55        23.85058
566.98        23.85617
567.42        23.84138
567.85         24.0482
568.29        24.00443
568.72        24.31839
569.16        24.75405
569.60        25.03543
570.03        25.11579
570.47        25.17012
570.90        25.11903
571.34        25.40082
571.77        25.20317
572.21        25.59462
572.64        25.66725
573.08         25.7901
573.51        26.11836
573.95        26.43416
574.38        26.68413
574.82        26.83179
