SpectraSmart Spectrum 2.9.0.0
--------- Device Information -----------
Spectrum Name :  反射率_0
Saving Time :  2024/04/20 00:33:20
Spectro-Module Model Name : SE2030-DUVN
Spectro-Module Serial Number : OS361AC55029948
Wavelength Start : 200
Wavelength End : 1025
Wavelength Unit : Wavelength(nm)
Spectrum Unit : Reflectance(%)
-----------Spectrum Setting ------------
Integration Time : 30ms
Average : 10
Boxcar : 0
Background removal :  enabled
linearity correction :  enabled
SC :  disabled
Intensity correction :  disabled
DWT denoise :  enabled
savitzky-golay :  disabled
FFT :  disabled
Running average :  disabled
Kalman :  disabled
High pass :  disabled
---------------BEGIN--------------------
Wavelength(nm)             Reflectance(%)
200.29               0
200.75        62.10166
201.21        62.10227
201.67        64.17809
202.13        68.76086
202.58        75.84888
203.04        86.09199
203.50        95.68354
203.96        95.74084
204.42         86.7442
204.88        74.60661
205.34        64.82928
205.80        60.10865
206.26        59.55637
206.72        62.45785
207.18         68.5158
207.64        73.26593
208.10        72.15331
208.55        67.23125
209.01        61.65105
209.47        59.12529
209.93        59.48033
210.39         61.0775
210.85        62.81208
211.31         63.6768
211.77        63.46452
212.23        62.65232
212.69        61.31929
213.14        60.22822
213.60        59.69361
214.06        59.75612
214.52        60.34838
214.98        61.64252
215.44        63.56916
215.90        65.98999
216.36        68.68078
216.81        70.63802
217.27        71.12434
217.73        70.61098
218.19        68.82889
218.65        65.26787
219.11         59.8961
219.57        52.48455
220.02        44.54824
220.48        40.73526
220.94        42.44735
221.40         49.0597
221.86        56.97981
222.32        60.54822
222.77        58.58327
223.23        53.01545
223.69        47.24519
224.15        46.14603
224.61        49.60536
225.06         54.8524
225.52        59.38693
225.98         61.2157
226.44        60.33647
226.90        57.73687
227.36        54.20153
227.81        51.09638
228.27        49.41017
228.73        48.64802
229.19        48.62462
229.65        49.10107
230.10         49.8332
230.56        50.82933
231.02        51.89418
231.48        52.79425
231.93         53.4404
232.39        53.88503
232.85        54.05504
233.31        53.89788
233.77        53.43865
234.22        52.70483
234.68        51.88008
235.14        51.19824
235.60        50.78891
236.05        50.67031
236.51        50.82514
236.97        51.18089
237.43        51.79096
237.88        52.93857
238.34        54.61041
238.80        56.83738
239.26        59.22733
239.71        61.28112
240.17        62.80606
240.63        64.41226
241.08        66.33997
241.54        68.45148
242.00        69.87679
242.46         68.8665
242.91        64.56104
243.37        55.85075
243.83        43.61178
244.28        36.46596
244.74        42.66158
245.20        60.21874
245.66        77.67542
246.11         85.6715
246.57        83.75336
247.03        73.02817
247.48        55.45464
247.94        46.41296
248.40        50.89681
248.85        58.97799
249.31        65.51179
249.77        69.15456
250.22        70.64829
250.68        71.28682
251.14        71.17329
251.59        70.02813
252.05        68.08097
252.51        65.36356
252.96        62.40196
253.42        60.61789
253.88        60.50996
254.33        61.72109
254.79        64.44511
255.25        68.45792
255.70        73.21412
256.16        78.18334
256.62         82.3193
257.07        84.49104
257.53        84.86592
257.99        83.76211
258.44        81.42183
258.90        79.13531
259.35        76.91661
259.81        75.37985
260.27        74.00297
260.72          72.297
261.18        70.54053
261.63        68.42065
262.09        66.72871
262.55        65.98688
263.00        66.04289
263.46        66.71599
263.91        67.07639
264.37        66.40106
264.83         64.6666
265.28        62.20342
265.74        59.93164
266.19        58.62468
266.65        58.47367
267.11        58.98915
267.56        59.62795
268.02        59.62844
268.47        58.81081
268.93        57.45646
269.38        55.79121
269.84         54.3906
270.30         53.4123
270.75        52.70112
271.21        52.11382
271.66        51.41371
272.12        50.52344
272.57        49.51474
273.03        48.51493
273.48        47.60721
273.94         46.8796
274.39        46.26687
274.85        45.69288
275.31        44.98783
275.76        44.10257
276.22        43.10927
276.67        42.14735
277.13        41.55835
277.58        41.30103
278.04        41.29986
278.49        41.20675
278.95        40.62355
279.40        39.47523
279.86        38.03709
280.31        36.56946
280.77        35.60125
281.22        35.14805
281.68        35.06507
282.13        35.12579
282.59        35.05495
283.04        34.75388
283.50        34.35845
283.95        33.89049
284.41        33.42809
284.86        32.98333
285.32        32.56522
285.77        32.21009
286.22        32.05976
286.68        32.12069
287.13        32.31133
287.59        32.54702
288.04        32.66247
288.50        32.63792
288.95        32.47866
289.41        32.24131
289.86        31.92971
290.32        31.62114
290.77        31.31817
291.22         31.0852
291.68         30.9816
292.13        31.03016
292.59        31.24515
293.04        31.64191
293.50        32.25629
293.95        33.06005
294.40        34.01706
294.86        35.04391
295.31        36.02399
295.77        36.91923
296.22        37.74204
296.68        38.51606
297.13        39.26856
297.58        40.02332
298.04        40.78399
298.49        41.55155
298.95        42.37512
299.40        43.24385
299.85        44.14308
300.31        45.07113
300.76         46.0043
301.21         46.9234
301.67        47.85199
302.12        48.69311
302.58        49.39196
303.03        49.91662
303.48        50.31843
303.94        50.73204
304.39        51.31157
304.84        52.09256
305.30        53.00632
305.75        53.88767
306.20        54.52093
306.66        54.87968
307.11        55.01267
307.57        55.04819
308.02        55.08136
308.47        55.18346
308.93        55.32041
309.38        55.47733
309.83        55.70144
310.29        55.98244
310.74         56.3094
311.19        56.59216
311.65        56.67572
312.10         56.5275
312.55        56.19611
313.00        55.82053
313.46        55.61703
313.91        55.61674
314.36        55.77497
314.82        55.96221
315.27        55.99691
315.72         55.8175
316.18         55.4992
316.63        55.13464
317.08        54.88565
317.53        54.78649
317.99        54.77341
318.44        54.77006
318.89        54.63924
319.35        54.34842
319.80        53.95381
320.25         53.5238
320.70        53.16757
321.16        52.91051
321.61        52.72225
322.06        52.56356
322.51        52.37798
322.97          52.134
323.42         51.8622
323.87        51.55421
324.32        51.20407
324.78        50.80888
325.23        50.38869
325.68        49.95713
326.13         49.5525
326.59        49.19004
327.04        48.89625
327.49        48.66241
327.94        48.47905
328.39        48.33377
328.85        48.19264
329.30        48.10308
329.75         48.0659
330.20        48.07039
330.66          48.088
331.11        48.07154
331.56        47.88191
332.01        47.49961
332.46        46.95995
332.92        46.38078
333.37        45.99924
333.82        45.87644
334.27         45.9726
334.72        46.16438
335.17        46.22994
335.63         46.0873
336.08        45.81261
336.53        45.51434
336.98        45.39837
337.43        45.51123
337.88        45.78234
338.34        46.04055
338.79        46.06576
339.24        45.78503
339.69        45.27148
340.14        44.71273
340.59        44.41878
341.05        44.45977
341.50        44.75167
341.95         45.1013
342.40        45.20987
342.85        45.01318
343.30        44.61782
343.75        44.17949
344.20        43.95049
344.66        43.98782
345.11        44.16915
345.56        44.40115
346.01        44.53734
346.46        44.52024
346.91        44.41699
347.36        44.19204
347.81        43.77895
348.26        43.20636
348.72        42.52444
349.17        41.88155
349.62        41.59742
350.07        41.73262
350.52         42.1764
350.97        42.72804
351.42        43.08057
351.87        43.14168
352.32        42.98731
352.77        42.68087
353.22        42.33383
353.67        41.99992
354.13        41.66442
354.58        41.31982
355.03        41.00663
355.48        40.73837
355.93        40.52838
356.38        40.37854
356.83        40.27568
357.28        40.20215
357.73        40.14069
358.18         40.0618
358.63        39.92577
359.08        39.71891
359.53        39.45166
359.98        39.12477
360.43        38.73928
360.88        38.30749
361.33        37.83936
361.78        37.37943
362.23         37.0014
362.68        36.72254
363.13        36.51987
363.58        36.34764
364.03        36.12914
364.48        35.83426
364.93        35.47559
365.38        35.06337
365.83        34.62452
366.28        34.18005
366.73        33.73215
367.18         33.2949
367.63         32.8871
368.08        32.51858
368.53        32.19608
368.98        31.92048
369.43        31.68323
369.88        31.47694
370.33        31.29865
370.78        31.13727
371.23        30.97893
371.68        30.81808
372.13         30.6495
372.58        30.48138
373.03        30.33487
373.48        30.20752
373.93        30.08252
374.38        29.93749
374.83        29.73635
375.28        29.47018
375.72        29.14862
376.17        28.80037
376.62        28.42987
377.07        28.06262
377.52        27.71065
377.97        27.41999
378.42        27.25925
378.87        27.22625
379.32        27.28053
379.77        27.36486
380.22        27.39052
380.67        27.32994
381.11        27.21644
381.56        27.02666
382.01        26.75119
382.46        26.40871
382.91        26.00135
383.36        25.63083
383.81        25.45035
384.26        25.47661
384.71        25.67007
385.15        25.87354
385.60        25.84768
386.05        25.54848
386.50        25.05736
386.95         24.5465
387.40        24.29115
387.85        24.34812
388.29        24.60899
388.74        24.92842
389.19        25.08698
389.64        25.02917
390.09        24.81352
390.54         24.5306
390.98        24.31344
391.43        24.22431
391.88        24.21408
392.33        24.19953
392.78        24.06473
393.23        23.80592
393.67        23.46018
394.12        23.17494
394.57        23.07346
395.02        23.17274
395.47        23.42291
395.91        23.71221
396.36        23.81623
396.81        23.68876
397.26        23.39881
397.71        23.07503
398.15        22.89198
398.60        22.91462
399.05        23.06387
399.50        23.24879
399.95        23.34261
400.39        23.31249
400.84        23.19487
401.29        23.04919
401.74        22.98086
402.18        23.02542
402.63           23.14
403.08        23.24856
403.53        23.22872
403.97        23.05987
404.42         22.7975
404.87        22.54369
405.32         22.4641
405.76        22.58891
406.21        22.85842
406.66        23.16298
407.11        23.33132
407.55        23.32179
408.00        23.19143
408.45        23.00602
408.90        22.82436
409.34        22.70928
409.79         22.7459
410.24        22.87172
410.68        22.89451
411.13        22.80117
411.58        22.69742
412.03        22.61028
412.47         22.5515
412.92        22.53063
413.37        22.53354
413.81          22.577
414.26        22.70543
414.71         22.9074
415.15        23.17502
415.60        23.40662
416.05         23.4669
416.49        23.32472
416.94        23.02439
417.39        22.67499
417.83        22.45416
418.28         22.4171
418.73        22.51047
419.17        22.65369
419.62        22.70914
420.07        22.64714
420.51        22.51548
420.96        22.37765
421.41        22.30533
421.85        22.31003
422.30        22.37367
422.74          22.462
423.19        22.56549
423.64        22.66361
424.08        22.77175
424.53        22.85369
424.98        22.88156
425.42         22.8555
425.87        22.78735
426.31        22.69557
426.76        22.61813
427.21        22.55648
427.65        22.49507
428.10        22.46841
428.54        22.50111
428.99        22.59711
429.44        22.84316
429.88        23.10403
430.33        23.01764
430.77        22.65823
431.22         22.4865
431.66        22.55564
432.11        22.68448
432.56        22.83344
433.00        23.10931
433.45        23.32969
433.89        23.17619
434.34          22.797
434.78        22.55754
435.23        22.42316
435.67        23.14555
436.12         22.5699
436.57        22.48667
437.01        22.33223
437.46        22.28297
437.90        22.35377
438.35        22.47099
438.79         22.5669
439.24        22.59934
439.68        22.55338
440.13        22.26749
440.57        21.90648
441.02        22.07899
441.46        22.58663
441.91        22.73328
442.35        21.95838
442.80        21.71694
443.24        21.80414
443.69        21.82893
444.13        21.75689
444.58        21.70328
445.02        21.67801
445.47        21.73393
445.91        21.82876
446.36        21.82202
446.80        21.69529
447.24        21.51814
447.69        21.35494
448.13        21.25838
448.58        21.25365
449.02        21.31969
449.47        21.40423
449.91        21.41389
450.36        21.33681
450.80        21.20061
451.25        21.07191
451.69        21.03281
452.13        21.10468
452.58        21.24442
453.02        21.40444
453.47        21.51898
453.91        21.56624
454.36        21.56579
454.80        21.51861
455.24        21.42456
455.69        21.30488
456.13        21.14277
456.58        20.99354
457.02        20.92771
457.46         20.9508
457.91        20.99306
458.35        21.02378
458.79        21.05033
459.24        21.05562
459.68        21.04555
460.13        21.07368
460.57        21.02553
461.01        20.88407
461.46        21.22422
461.90        21.23736
462.34        20.98032
462.79        21.15831
463.23        21.05215
463.68        20.97831
464.12        20.89723
464.56        20.97835
465.01        21.07896
465.45        21.16098
465.89        21.19022
466.34        21.16472
466.78         21.0262
467.22        20.84262
467.67        20.87253
468.11        21.07053
468.55        21.02529
468.99        20.77113
469.44        20.69974
469.88        20.82633
470.32        20.93069
470.77        20.97289
471.21         20.9956
471.65        20.99047
472.10        20.94643
472.54        20.88626
472.98        20.88992
473.42        20.96496
473.87        21.02627
474.31        21.06061
474.75        21.17801
475.20        21.32854
475.64        21.28849
476.08        21.11266
476.52        21.07163
476.97        21.18035
477.41         21.3095
477.85        21.41227
478.29        21.47731
478.74        21.49396
479.18        21.42844
479.62        21.34861
480.06        21.36731
480.50         21.4758
480.95        21.54524
481.39        21.54394
481.83        21.52546
482.27        21.49083
482.72        21.41973
483.16        21.34431
483.60        21.34385
484.04        21.42568
484.48        21.59427
484.93        21.84775
485.37        22.06838
485.81        21.97027
486.25        22.49948
486.69        23.26073
487.14        22.74632
487.58        22.18103
488.02         22.9147
488.46        22.40188
488.90        22.61833
489.34        22.60014
489.79        22.71068
490.23        22.88706
490.67         22.9939
491.11         23.0437
491.55        23.03648
491.99        22.99748
492.43        22.97965
492.88        23.00155
493.32        23.03456
493.76        23.09447
494.20        23.21039
494.64        23.38281
495.08        23.61942
495.52        23.87901
495.96        24.06117
496.41         24.1778
496.85        24.30981
497.29        24.46087
497.73        24.65478
498.17        24.85364
498.61        24.86835
499.05        24.75238
499.49        24.81363
499.93        25.08073
500.37        25.32686
500.82        25.51978
501.26        25.81684
501.70        26.13906
502.14        26.15339
502.58        25.92204
503.02        25.83884
503.46        25.93939
503.90        26.02239
504.34         26.0569
504.78        26.08109
505.22        26.08852
505.66        26.08008
506.10        26.07804
506.54        26.11144
506.98        26.18843
507.42        26.30176
507.86        26.43524
508.30        26.56203
508.74        26.67067
509.18         26.7626
509.62        26.84745
510.06         26.9413
510.50        27.04766
510.94        27.16351
511.38        27.26382
511.82        27.30985
512.26         27.2958
512.70        27.23211
513.14        27.16672
513.58        27.17031
514.02        27.24961
514.46         27.3875
514.90        27.52542
515.34        27.50274
515.78         27.3488
516.22        27.15413
516.66        27.01266
517.10        26.74399
517.54        26.37169
517.98        26.92387
518.42        26.83785
518.86        27.08375
519.30        27.17642
519.74        27.27441
520.18        27.34626
520.62        27.32205
521.06        27.21691
521.50        27.03724
521.93        26.83969
522.37        26.72683
522.81        26.72101
523.25        26.79381
523.69        26.89986
524.13        26.96572
524.57        26.96716
525.01        26.92343
525.45         26.8511
525.89        26.77614
526.32        26.70924
526.76        26.64594
527.20        26.57801
527.64        26.49922
528.08         26.4084
528.52        26.30555
528.96         26.2144
529.40        26.16714
529.83        26.16444
530.27        26.20345
530.71        26.22817
531.15        26.15326
531.59        25.97038
532.03        25.71111
532.46        25.45555
532.90        25.34879
533.34        25.40841
533.78        25.58244
534.22        25.78645
534.66        25.88998
535.09        25.85433
535.53        25.72987
535.97        25.55643
536.41        25.39425
536.85        25.27059
537.28        25.18091
537.72        25.13821
538.16        25.08694
538.60        25.14709
539.04        25.20959
539.47        25.28204
539.91        25.38378
540.35         25.5222
540.79        25.47343
541.22        25.57257
541.66        25.64877
542.10        25.82334
542.54        25.67774
542.97        25.89128
543.41        25.98516
543.85        26.14368
544.29        26.29887
544.72        26.42278
545.16        26.54868
545.60        26.66574
546.04        26.68527
546.47        26.67966
546.91        26.93066
547.35        27.36978
547.79        27.64971
548.22        27.73501
548.66        27.75817
549.10        27.77541
549.53        27.97083
549.97        28.34969
550.41        28.40421
550.84        28.65152
551.28        28.81128
551.72        29.05711
552.15        29.30421
552.59        29.54762
553.03        29.83252
553.46        30.03931
553.90        30.18352
554.34         30.2367
554.77        30.21771
555.21        30.18172
555.65        30.20426
556.08        30.30106
556.52        30.44654
556.96        30.60902
557.39        30.77587
557.83         30.9225
558.27        30.98226
558.70        30.97463
559.14        30.99414
559.57        31.04236
560.01        31.10947
560.45        31.17348
560.88          31.163
561.32        31.13813
561.75        31.18511
562.19        31.40842
562.63        31.52273
563.06        31.55029
563.50         31.5877
563.93        31.63745
564.37        31.76283
564.80        31.81941
565.24        31.92824
565.68        32.03234
566.11        32.15299
566.55        32.31078
566.98        32.44292
567.42        32.51319
567.85        32.87603
568.29        32.67955
568.72        32.93487
569.16        33.33622
569.60        33.61773
570.03        33.74327
570.47        33.92382
570.90        33.95645
571.34        34.32824
571.77        34.01234
572.21        34.24735
572.64        34.51086
573.08        34.91669
573.51        34.76843
573.95        35.32719
574.38        35.73773
574.82        36.06492
