SpectraSmart Spectrum 2.9.0.0
--------- Device Information -----------
Spectrum Name :  反射率_0
Saving Time :  2024/04/20 00:06:16
Spectro-Module Model Name : SE2030-DUVN
Spectro-Module Serial Number : OS361AC55029948
Wavelength Start : 200
Wavelength End : 1025
Wavelength Unit : Wavelength(nm)
Spectrum Unit : Reflectance(%)
-----------Spectrum Setting ------------
Integration Time : 30ms
Average : 10
Boxcar : 0
Background removal :  enabled
linearity correction :  enabled
SC :  disabled
Intensity correction :  disabled
DWT denoise :  enabled
savitzky-golay :  disabled
FFT :  disabled
Running average :  disabled
Kalman :  disabled
High pass :  disabled
---------------BEGIN--------------------
Wavelength(nm)             Reflectance(%)
200.29               0
200.75         57.9963
201.21         57.5502
201.67        59.50852
202.13         65.1713
202.58        74.93381
203.04        89.13273
203.50        103.2389
203.96        106.2144
204.42        97.65986
204.88        84.66531
205.34        73.39072
205.80        66.67091
206.26        63.36866
206.72        61.86909
207.18        62.24749
207.64          64.587
208.10        68.06071
208.55        72.55158
209.01        75.36251
209.47        75.27176
209.93        72.95549
210.39        69.10748
210.85        65.19669
211.31        62.87678
211.77        62.29825
212.23        63.12362
212.69        65.28418
213.14        67.66037
213.60        68.71296
214.06        69.26693
214.52        69.66967
214.98        70.41037
215.44        71.53341
215.90        72.54552
216.36        73.76894
216.81        75.65056
217.27        77.84599
217.73        80.44941
218.19        81.64317
218.65        78.80792
219.11        71.60982
219.57        60.19353
220.02        47.73355
220.48        42.53953
220.94        47.39529
221.40        60.53681
221.86        75.73875
222.32        83.42047
222.77        81.47218
223.23        73.23305
223.69         63.6848
224.15        60.00141
224.61        62.70832
225.06        68.18269
225.52        73.43054
225.98        75.97163
226.44        75.73405
226.90        73.87832
227.36        71.35702
227.81        69.62759
228.27        69.47397
228.73        70.13047
229.19        70.96461
229.65         71.2986
230.10        71.01328
230.56        70.54071
231.02        70.11655
231.48         70.0686
231.93        70.32637
232.39        70.70283
232.85        70.92529
233.31        70.65995
233.77        69.82814
234.22        68.59998
234.68        67.03663
235.14        65.17931
235.60        63.23587
236.05        61.34085
236.51        59.84005
236.97        59.17232
237.43        59.46658
237.88        60.92039
238.34        63.31509
238.80         66.0125
239.26        68.15534
239.71        69.47697
240.17        69.74623
240.63         69.5331
241.08         69.1744
241.54        68.47869
242.00        67.26388
242.46        65.01613
242.91        61.31673
243.37        55.34523
243.83        47.74549
244.28        43.89363
244.74        48.74881
245.20        61.10827
245.66        72.68089
246.11        76.63014
246.57        72.35732
247.03        59.93307
247.48        42.27473
247.94        36.53067
248.40        45.48524
248.85        57.33855
249.31        65.96667
249.77         69.8307
250.22         70.1238
250.68         68.2129
251.14        64.92553
251.59        62.05938
252.05        60.99086
252.51        61.52484
252.96        62.51397
253.42        62.15984
253.88        60.30797
254.33        57.93828
254.79        57.41422
255.25        60.74281
255.70        67.16486
256.16        74.87377
256.62        81.35063
257.07        83.85615
257.53        82.63541
257.99        78.98174
258.44        74.17802
258.90        70.70184
259.35        68.60112
259.81        67.73926
260.27        67.13152
260.72        65.96581
261.18        64.48318
261.63        62.51957
262.09        60.98495
262.55        60.54629
263.00        61.05056
263.46        62.24328
263.91         63.0217
264.37        62.44718
264.83         60.5416
265.28        57.73183
265.74        55.20967
266.19        54.13605
266.65        54.68298
267.11        56.19205
267.56        57.78314
268.02        58.22864
268.47        57.29652
268.93        55.43585
269.38        53.16888
269.84        51.57223
270.30        50.93998
270.75         50.9441
271.21        51.20183
271.66        51.13184
272.12        50.56615
272.57        49.68954
273.03        48.73197
273.48        47.93027
273.94        47.40709
274.39        47.01503
274.85        46.63381
275.31        46.04416
275.76        45.18919
276.22        44.19053
276.67        43.18774
277.13        42.51118
277.58        42.14059
278.04        42.01609
278.49         41.8531
278.95        41.34977
279.40        40.42113
279.86        39.28109
280.31          38.108
280.77         37.3199
281.22         36.9061
281.68        36.77122
282.13        36.69664
282.59        36.42392
283.04        35.88303
283.50        35.21653
283.95        34.51871
284.41        33.97731
284.86        33.60455
285.32        33.35952
285.77        33.18267
286.22         33.0678
286.68        32.98796
287.13        32.91601
287.59        32.81869
288.04        32.59792
288.50        32.27024
288.95        31.83939
289.41        31.38258
289.86         30.9387
290.32        30.58869
290.77        30.31548
291.22        30.17609
291.68        30.21638
292.13        30.42913
292.59        30.80662
293.04        31.29136
293.50        31.81406
293.95        32.33549
294.40        32.86245
294.86        33.39472
295.31        33.94683
295.77        34.52854
296.22        35.13193
296.68        35.75924
297.13        36.39572
297.58        37.04324
298.04        37.70772
298.49        38.39591
298.95        39.15953
299.40        39.98089
299.85        40.84046
300.31         41.6838
300.76        42.41708
301.21        43.02853
301.67        43.57963
302.12        44.08534
302.58         44.6453
303.03        45.25367
303.48        45.90355
303.94        46.62253
304.39        47.40287
304.84        48.23499
305.30        49.09486
305.75        49.88416
306.20        50.48857
306.66        50.90722
307.11        51.15521
307.57        51.31255
308.02        51.41281
308.47        51.51211
308.93        51.59806
309.38        51.70216
309.83        51.93417
310.29        52.29181
310.74        52.74047
311.19        53.13252
311.65        53.22693
312.10        52.97614
312.55          52.459
313.00        51.87565
313.46        51.53474
313.91        51.49272
314.36        51.68247
314.82        51.92839
315.27        51.97037
315.72        51.72898
316.18        51.30442
316.63        50.83982
317.08          50.569
317.53        50.53737
317.99        50.65212
318.44        50.78239
318.89        50.70598
319.35        50.36868
319.80        49.85467
320.25        49.27919
320.70        48.82531
321.16         48.5425
321.61        48.38006
322.06        48.27385
322.51        48.12556
322.97        47.89096
323.42        47.61409
323.87         47.3046
324.32        46.98173
324.78         46.6502
325.23        46.31844
325.68        45.97974
326.13        45.64071
326.59        45.30676
327.04        45.00739
327.49        44.76115
327.94         44.6017
328.39        44.52687
328.85        44.49568
329.30        44.50894
329.75        44.49463
330.20        44.42312
330.66        44.28333
331.11        44.09413
331.56        43.82476
332.01        43.48022
332.46        43.07169
332.92         42.6352
333.37        42.26018
333.82        41.97596
334.27        41.78893
334.72        41.68354
335.17         41.6226
335.63        41.57676
336.08        41.56091
336.53        41.58759
336.98        41.69875
337.43         41.8874
337.88        42.13296
338.34        42.31036
338.79        42.27393
339.24        41.98099
339.69        41.47475
340.14        40.94613
340.59         40.7167
341.05        40.84733
341.50        41.25025
341.95        41.70089
342.40        41.84689
342.85        41.61479
343.30         41.1305
343.75        40.57188
344.20        40.22958
344.66        40.18222
345.11        40.30482
345.56         40.5193
346.01        40.70051
346.46        40.78772
346.91        40.83509
347.36        40.78185
347.81        40.52187
348.26        40.07203
348.72        39.49397
349.17        38.92665
349.62        38.68045
350.07        38.81794
350.52        39.22404
350.97        39.74138
351.42        40.13021
351.87        40.30583
352.32        40.32868
352.77        40.18993
353.22         39.8828
353.67        39.44265
354.13         38.8962
354.58         38.3315
355.03        37.93624
355.48        37.75706
355.93        37.76176
356.38        37.86766
356.83        37.92859
357.28        37.89227
357.73        37.78103
358.18        37.62881
358.63        37.49943
359.08        37.40421
359.53        37.31294
359.98        37.17133
360.43        36.90154
360.88        36.50055
361.33        36.01255
361.78        35.52057
362.23        35.15639
362.68        34.95308
363.13         34.8619
363.58        34.82321
364.03        34.74265
364.48        34.58006
364.93        34.35575
365.38        34.05876
365.83        33.67873
366.28        33.23148
366.73        32.72769
367.18        32.22189
367.63        31.79957
368.08        31.48367
368.53        31.26099
368.98        31.09388
369.43        30.91221
369.88        30.69604
370.33        30.46563
370.78        30.23641
371.23        30.03979
371.68        29.88327
372.13        29.74067
372.58         29.6156
373.03        29.52036
373.48        29.44698
373.93        29.39301
374.38         29.3059
374.83        29.10155
375.28         28.7712
375.72        28.33417
376.17        27.89489
376.62        27.58341
377.07        27.43659
377.52        27.41355
377.97        27.44672
378.42        27.42798
378.87        27.32433
379.32        27.16721
379.77        26.98687
380.22         26.8258
380.67        26.69604
381.11        26.58443
381.56        26.46318
382.01        26.31457
382.46        26.13345
382.91        25.92402
383.36        25.72157
383.81        25.57175
384.26        25.48405
384.71        25.46112
385.15        25.43112
385.60         25.2927
386.05        25.03436
386.50        24.68546
386.95         24.3805
387.40        24.33163
387.85        24.55768
388.29        24.96288
388.74        25.36566
389.19        25.49245
389.64        25.29465
390.09        24.85623
390.54        24.33595
390.98        23.98344
391.43        23.88885
391.88        23.96034
392.33        24.07816
392.78        24.06951
393.23        23.90423
393.67        23.63566
394.12        23.38785
394.57        23.24708
395.02        23.23601
395.47        23.31996
395.91        23.44073
396.36        23.47582
396.81        23.40609
397.26        23.26183
397.71        23.12925
398.15        23.11886
398.60        23.26707
399.05        23.50731
399.50        23.73227
399.95         23.7908
400.39        23.65521
400.84        23.37204
401.29        23.03921
401.74        22.83828
402.18        22.83329
402.63        22.96454
403.08        23.13836
403.53        23.19806
403.97        23.10594
404.42        22.92616
404.87        22.73932
405.32        22.67647
405.76        22.76441
406.21        22.95073
406.66        23.16231
407.11        23.28912
407.55        23.30373
408.00         23.2482
408.45        23.15786
408.90        23.03304
409.34        22.91917
409.79        22.92265
410.24        23.00323
410.68        23.00103
411.13        22.91191
411.58          22.828
412.03        22.76997
412.47        22.74005
412.92        22.74243
413.37        22.76924
413.81        22.83129
414.26        22.96172
414.71        23.15071
415.15        23.39513
415.60        23.61065
416.05        23.69152
416.49        23.61295
416.94        23.40878
417.39        23.17053
417.83         23.0477
418.28        23.08391
418.73        23.22917
419.17        23.40652
419.62        23.48603
420.07        23.44209
420.51        23.32266
420.96        23.18939
421.41        23.11104
421.85        23.10227
422.30           23.15
422.74        23.23461
423.19          23.368
423.64        23.53212
424.08        23.73649
424.53        23.92321
424.98        24.02486
425.42        24.02762
425.87        23.95114
426.31        23.83376
426.76        23.74656
427.21        23.70029
427.65        23.67135
428.10        23.68114
428.54        23.73011
428.99         23.8191
429.44        24.05285
429.88        24.30785
430.33        24.22965
430.77        23.89794
431.22        23.78456
431.66        23.93493
432.11        24.13924
432.56        24.35059
433.00        24.69012
433.45        24.94453
433.89        24.79643
434.34        24.42671
434.78        24.12005
435.23        23.82963
435.67        24.93456
436.12        24.17613
436.57        24.11374
437.01        23.89051
437.46        23.86057
437.90        24.04243
438.35         24.2842
438.79        24.49327
439.24        24.60406
439.68        24.59297
440.13         24.2877
440.57        23.88097
441.02        24.06586
441.46        24.63572
441.91        24.80534
442.35        23.96725
442.80         23.7548
443.24        23.92582
443.69         23.9635
444.13        23.84069
444.58        23.78014
445.02        23.79694
445.47        23.88941
445.91         24.0125
446.36        24.03835
446.80        23.94652
447.24        23.81052
447.69         23.6803
448.13        23.58323
448.58         23.5434
449.02        23.54321
449.47        23.56841
449.91        23.58586
450.36        23.59096
450.80        23.59149
451.25        23.59299
451.69        23.57929
452.13        23.55931
452.58        23.52976
453.02        23.51142
453.47        23.54561
453.91        23.63538
454.36        23.76258
454.80        23.88698
455.24        23.93635
455.69        23.90233
456.13        23.78709
456.58        23.64786
457.02        23.55671
457.46        23.52992
457.91        23.49451
458.35        23.44906
458.79        23.45646
459.24         23.5061
459.68        23.58676
460.13        23.73277
460.57        23.77309
461.01        23.66959
461.46        24.08459
461.90        24.09996
462.34        23.78194
462.79        23.93494
463.23        23.74648
463.68        23.58797
464.12        23.44076
464.56        23.50666
465.01        23.62542
465.45        23.75167
465.89         23.8415
466.34        23.88754
466.78        23.82088
467.22        23.71104
467.67        23.83776
468.11        24.14434
468.55        24.16451
468.99        23.92327
469.44        23.84888
469.88        23.95994
470.32        24.01569
470.77        23.99237
471.21        23.97041
471.65        23.95058
472.10        23.91196
472.54        23.87525
472.98        23.91792
473.42        24.04166
473.87        24.15439
474.31        24.22898
474.75        24.37581
475.20        24.53692
475.64        24.45805
476.08        24.22527
476.52        24.18527
476.97        24.36127
477.41        24.59424
477.85        24.80408
478.29        24.93258
478.74        24.95657
479.18        24.85309
479.62        24.72437
480.06        24.73599
480.50        24.88768
480.95        25.01818
481.39        25.07892
481.83        25.11517
482.27        25.11703
482.72        25.06602
483.16        25.01216
483.60        25.01164
484.04         25.0685
484.48        25.31557
484.93        25.74325
485.37        25.77669
485.81        25.76941
486.25        26.43026
486.69         27.2126
487.14        26.95551
487.58        26.47813
488.02        27.26313
488.46        26.84042
488.90        26.98804
489.34         26.8483
489.79        26.95306
490.23        27.23993
490.67         27.3531
491.11        27.32947
491.55        27.40538
491.99        27.58137
492.43        27.69667
492.88        27.74585
493.32        27.79736
493.76        27.88643
494.20        28.03587
494.64        28.25398
495.08        28.56005
495.52        28.89396
495.96        29.10149
496.41        29.20752
496.85        29.36003
497.29        29.57491
497.73        29.85897
498.17        30.16448
498.61        30.27667
499.05        30.23968
499.49         30.3701
499.93        30.69036
500.37        30.98179
500.82        31.21205
501.26        31.48586
501.70        31.76184
502.14        31.85248
502.58        31.79183
503.02        31.80036
503.46        31.90217
503.90        31.99058
504.34        32.04137
504.78        32.06189
505.22        32.05025
505.66        32.01666
506.10        31.99329
506.54        32.02461
506.98        32.12218
507.42        32.27555
507.86        32.45903
508.30        32.62074
508.74        32.75795
509.18        32.86444
509.62        32.95801
510.06        33.06168
510.50        33.18176
510.94        33.31213
511.38        33.42876
511.82        33.49532
512.26        33.50665
512.70        33.47509
513.14        33.44545
513.58         33.4814
514.02        33.58891
514.46        33.75346
514.90        33.92308
515.34        33.94128
515.78        33.85417
516.22        33.72205
516.66        33.63085
517.10        33.40652
517.54           33.07
517.98        33.56297
518.42        33.46502
518.86         33.6597
519.30        33.70951
519.74        33.75688
520.18        33.79322
520.62        33.78571
521.06        33.74998
521.50        33.68312
521.93        33.59628
522.37        33.51649
522.81         33.4535
523.25        33.40517
523.69         33.3794
524.13        33.38673
524.57        33.42208
525.01        33.47525
525.45        33.52634
525.89        33.54287
526.32        33.51515
526.76        33.45725
527.20        33.36893
527.64         33.2564
528.08        33.12734
528.52        32.97779
528.96        32.84184
529.40        32.76974
529.83        32.76503
530.27        32.82344
530.71        32.87896
531.15        32.82882
531.59        32.65849
532.03        32.40279
532.46        32.14299
532.90        32.02993
533.34        32.08218
533.78        32.24614
534.22        32.43866
534.66        32.53109
535.09        32.48699
535.53        32.36312
535.97        32.19874
536.41        32.05185
536.85        31.94843
537.28        31.88243
537.72        31.87656
538.16        31.87121
538.60        32.01566
539.04        32.16375
539.47        32.29949
539.91        32.41144
540.35          32.508
540.79        32.32312
541.22        32.32129
541.66        32.34543
542.10        32.56304
542.54        32.42687
542.97        32.77066
543.41           32.95
543.85        33.18268
544.29        33.39283
544.72        33.54578
545.16        33.68521
545.60        33.80374
546.04        33.79064
546.47        33.74765
546.91        34.05579
547.35        34.63496
547.79        35.01515
548.22        35.15214
548.66        35.26898
549.10        35.40332
549.53        35.66911
549.97        36.07782
550.41        36.09974
550.84        36.40216
551.28        36.55776
551.72         36.7861
552.15        37.02308
552.59        37.27322
553.03        37.53974
553.46        37.77209
553.90        37.93513
554.34        38.01817
554.77         38.0356
555.21        38.04424
555.65        38.11791
556.08        38.26748
556.52        38.46547
556.96        38.67042
557.39        38.86439
557.83        39.02239
558.27         39.0655
558.70        39.03078
559.14         39.0637
559.57        39.16921
560.01        39.30832
560.45        39.44972
560.88        39.52541
561.32        39.58061
561.75        39.67134
562.19        39.93474
562.63        40.01575
563.06        39.98433
563.50        40.08003
563.93        40.26957
564.37         40.4537
564.80        40.43958
565.24        40.49104
565.68        40.55519
566.11        40.65426
566.55        40.82436
566.98         40.9562
567.42        41.00768
567.85        41.52475
568.29        41.40739
568.72        41.73726
569.16        42.11359
569.60        42.59922
570.03        42.63587
570.47        42.82546
570.90        42.82542
571.34        43.26156
571.77        42.91064
572.21        43.47255
572.64        43.43926
573.08        43.80075
573.51        43.85075
573.95        44.28695
574.38         44.8525
574.82        45.14737
