SpectraSmart Spectrum 2.9.0.0
--------- Device Information -----------
Spectrum Name :  反射率_0
Saving Time :  2024/04/20 00:45:01
Spectro-Module Model Name : SE2030-DUVN
Spectro-Module Serial Number : OS361AC55029948
Wavelength Start : 200
Wavelength End : 1025
Wavelength Unit : Wavelength(nm)
Spectrum Unit : Reflectance(%)
-----------Spectrum Setting ------------
Integration Time : 30ms
Average : 10
Boxcar : 0
Background removal :  enabled
linearity correction :  enabled
SC :  disabled
Intensity correction :  disabled
DWT denoise :  enabled
savitzky-golay :  disabled
FFT :  disabled
Running average :  disabled
Kalman :  disabled
High pass :  disabled
---------------BEGIN--------------------
Wavelength(nm)             Reflectance(%)
200.29               0
200.75        55.87944
201.21        58.77827
201.67        64.18906
202.13        71.70406
202.58        80.65121
203.04        91.20155
203.50        99.90025
203.96        99.42072
204.42        90.69648
204.88        79.17313
205.34        69.50843
205.80        63.52154
206.26        60.07056
206.72        57.96381
207.18        56.93913
207.64        56.79398
208.10        57.51109
208.55        59.44179
209.01        61.37779
209.47        63.19061
209.93        64.75432
210.39        65.85568
210.85        66.15469
211.31        65.35076
211.77        63.27886
212.23        59.63594
212.69        54.90947
213.14        52.29796
213.60        53.07938
214.06        56.09767
214.52        58.97301
214.98        60.28379
215.44        60.20103
215.90        58.90726
216.36        57.47513
216.81        58.22953
217.27        61.59436
217.73        66.63602
218.19        70.58504
218.65        69.77672
219.11        63.58387
219.57        52.52203
220.02        39.42029
220.48        32.00481
220.94        33.18262
221.40         41.5793
221.86        52.39897
222.32        58.09449
222.77        56.84314
223.23        51.14255
223.69        44.91804
224.15        43.66197
224.61        47.38671
225.06        53.10434
225.52        57.89088
225.98        59.36948
226.44        57.60798
226.90         53.7595
227.36        49.34433
227.81        46.96019
228.27        47.63544
228.73        50.15203
229.19        53.13215
229.65        55.01138
230.10        55.56765
230.56        55.45216
231.02        55.22188
231.48        55.57954
231.93        56.51298
232.39         57.6621
232.85        58.58463
233.31        58.67377
233.77        57.81069
234.22        56.30427
234.68        54.37677
235.14        52.32964
235.60        50.45244
236.05        48.76527
236.51        47.59266
236.97        47.35786
237.43        48.20364
237.88        50.43997
238.34        53.72305
238.80        56.74206
239.26        58.28774
239.71        58.15482
240.17        56.96368
240.63         56.5667
241.08        57.53929
241.54        59.40127
242.00        61.16595
242.46        60.91962
242.91        57.71079
243.37        50.83519
243.83        41.00423
244.28        35.14395
244.74        39.93169
245.20        53.67175
245.66        66.94966
246.11        71.90877
246.57        67.83222
247.03        55.25323
247.48        36.66314
247.94         28.8755
248.40        35.86781
248.85        46.36311
249.31        54.35207
249.77        58.39883
250.22        59.59264
250.68        59.44341
251.14        58.47057
251.59        57.42112
252.05        57.06314
252.51        57.07292
252.96        57.48378
253.42        58.67589
253.88         60.5136
254.33        62.74577
254.79        65.42138
255.25        68.30624
255.70        71.14541
256.16         73.6198
256.62        75.47548
257.07        76.45592
257.53        76.66164
257.99        76.08663
258.44        74.29954
258.90         71.7486
259.35        68.69016
259.81        66.17432
260.27        64.12827
260.72        62.42723
261.18        61.16338
261.63        59.78461
262.09        58.80325
262.55        58.40431
263.00        58.42199
263.46        58.87385
263.91        58.93665
264.37        57.93702
264.83        55.91912
265.28        53.18306
265.74        50.78413
266.19        49.74115
266.65        50.18353
267.11         51.5097
267.56        52.90383
268.02        53.20512
268.47        52.19755
268.93        50.30328
269.38        47.98246
269.84        46.21946
270.30        45.30234
270.75        44.95008
271.21        44.88851
271.66        44.69296
272.12        44.21491
272.57        43.59257
273.03        42.93764
273.48        42.30558
273.94        41.77664
274.39        41.27191
274.85        40.76242
275.31        40.17614
275.76        39.47917
276.22        38.71623
276.67        37.96609
277.13        37.46229
277.58        37.16209
278.04        37.03832
278.49        36.82235
278.95        36.21363
279.40        35.15938
279.86        33.88274
280.31        32.60756
280.77        31.80096
281.22        31.46334
281.68        31.46423
282.13        31.57641
282.59        31.51111
283.04        31.18268
283.50        30.73396
283.95        30.21355
284.41        29.73525
284.86        29.31675
285.32        28.93858
285.77        28.63825
286.22        28.55165
286.68        28.67177
287.13        28.92832
287.59        29.17915
288.04        29.18069
288.50        28.91604
288.95        28.42825
289.41        27.88228
289.86         27.4592
290.32        27.26177
290.77        27.22411
291.22        27.29357
291.68        27.35417
292.13        27.38272
292.59        27.44107
293.04        27.59557
293.50        27.96001
293.95        28.53734
294.40        29.26643
294.86        30.05874
295.31        30.79282
295.77        31.43175
296.22        32.00544
296.68        32.54205
297.13        33.06854
297.58        33.60811
298.04        34.15316
298.49          34.714
298.95        35.35184
299.40        36.05406
299.85         36.8036
300.31        37.55502
300.76        38.22594
301.21        38.79844
301.67        39.32391
302.12        39.78863
302.58        40.24273
303.03        40.67761
303.48         41.1009
303.94        41.57645
304.39        42.15675
304.84        42.84826
305.30        43.61487
305.75        44.33506
306.20        44.85283
306.66        45.15569
307.11        45.27184
307.57        45.30902
308.02        45.34879
308.47        45.45037
308.93        45.58581
309.38        45.73815
309.83        45.93822
310.29         46.1731
310.74        46.43613
311.19         46.6505
311.65        46.68759
312.10        46.52069
312.55        46.18617
313.00        45.80232
313.46        45.55292
313.91        45.46287
314.36        45.49949
314.82        45.54862
315.27        45.45105
315.72        45.15979
316.18          44.744
316.63        44.30222
317.08        43.99608
317.53         43.8545
317.99        43.81047
318.44        43.77787
318.89          43.606
319.35         43.2579
319.80        42.79332
320.25        42.27699
320.70        41.81131
321.16        41.42905
321.61        41.10604
322.06         40.8287
322.51        40.58065
322.97        40.33886
323.42        40.11355
323.87        39.87643
324.32        39.58559
324.78        39.22291
325.23        38.80888
325.68        38.34463
326.13        37.84858
326.59        37.34006
327.04        36.84899
327.49        36.40697
327.94         36.0648
328.39        35.82873
328.85        35.66341
329.30        35.57802
329.75        35.52404
330.20        35.47428
330.66        35.41398
331.11        35.32021
331.56        35.10192
332.01        34.74596
332.46        34.26806
332.92        33.74958
333.37        33.35229
333.82        33.12373
334.27        33.04296
334.72         33.0296
335.17        32.93729
335.63        32.71143
336.08        32.39899
336.53        32.08358
336.98        31.91861
337.43        31.93645
337.88        32.09236
338.34        32.22699
338.79        32.13053
339.24         31.7407
339.69         31.1208
340.14        30.48415
340.59        30.18681
341.05        30.29577
341.50        30.70566
341.95        31.16554
342.40        31.28669
342.85        30.98704
343.30        30.40513
343.75        29.74122
344.20        29.32252
344.66        29.23685
345.11        29.34532
345.56        29.55572
346.01        29.72026
346.46        29.77124
346.91        29.77348
347.36        29.66587
347.81        29.34044
348.26        28.81793
348.72         28.1623
349.17        27.52891
349.62        27.25987
350.07        27.42529
350.52        27.90329
350.97        28.51208
351.42        28.97378
351.87        29.19606
352.32        29.24912
352.77        29.14541
353.22        28.91273
353.67        28.58997
354.13        28.18455
354.58        27.76176
355.03        27.47142
355.48        27.34882
355.93        27.37124
356.38        27.46954
356.83        27.51915
357.28        27.47686
357.73        27.36339
358.18           27.21
358.63        27.07382
359.08          26.971
359.53        26.88388
359.98        26.77023
360.43        26.56883
360.88         26.2772
361.33         25.9247
361.78        25.59026
362.23         25.3983
362.68        25.36935
363.13        25.45293
363.58        25.55831
364.03        25.54627
364.48        25.37775
364.93        25.09244
365.38          24.736
365.83        24.39169
366.28         24.0984
366.73        23.83781
367.18        23.61495
367.63         23.4351
368.08        23.29496
368.53         23.2014
368.98        23.13507
369.43        23.05707
369.88        22.95863
370.33        22.84769
370.78         22.7368
371.23        22.65364
371.68        22.60517
372.13        22.57411
372.58        22.55942
373.03        22.56291
373.48        22.57259
373.93        22.58007
374.38        22.55365
374.83        22.44352
375.28        22.24562
375.72        21.97552
376.17        21.68968
376.62        21.43835
377.07        21.24903
377.52        21.10909
377.97        21.03196
378.42        21.03516
378.87        21.10294
379.32        21.21646
379.77        21.32104
380.22        21.33244
380.67        21.23548
381.11        21.06238
381.56        20.83458
382.01        20.61452
382.46        20.42709
382.91        20.24636
383.36        20.10522
383.81        20.04878
384.26        20.07342
384.71        20.17991
385.15        20.25962
385.60        20.14722
386.05        19.82429
386.50        19.34298
386.95         18.8781
387.40        18.70923
387.85        18.87819
388.29        19.27534
388.74        19.70218
389.19        19.87048
389.64        19.72268
390.09        19.34872
390.54        18.89627
390.98        18.59542
391.43        18.52907
391.88        18.61098
392.33         18.7325
392.78         18.7405
393.23        18.60754
393.67        18.38017
394.12         18.1715
394.57        18.07006
395.02        18.09386
395.47        18.20654
395.91        18.33481
396.36        18.33619
396.81        18.18707
397.26        17.93005
397.71        17.67068
398.15        17.54824
398.60        17.60549
399.05        17.78021
399.50        17.96175
399.95        17.99143
400.39        17.83765
400.84        17.54601
401.29        17.22383
401.74         17.0685
402.18        17.13899
402.63        17.36227
403.08        17.61044
403.53        17.67964
403.97        17.52601
404.42        17.23065
404.87        16.90622
405.32        16.73621
405.76        16.76567
406.21        16.92653
406.66         17.1362
407.11        17.26877
407.55         17.2864
408.00        17.23352
408.45        17.13447
408.90        16.98611
409.34        16.82683
409.79        16.73546
410.24        16.69564
410.68         16.6117
411.13        16.48569
411.58        16.38326
412.03        16.31153
412.47        16.25791
412.92        16.22118
413.37        16.19595
413.81        16.19884
414.26        16.26917
414.71         16.3982
415.15        16.57758
415.60        16.72059
416.05        16.71429
416.49        16.53552
416.94        16.22788
417.39        15.89009
417.83        15.68216
418.28         15.6517
418.73        15.74603
419.17        15.89268
419.62        15.96382
420.07        15.93006
420.51        15.83398
420.96        15.71624
421.41        15.62073
421.85        15.55859
422.30        15.51903
422.74        15.50057
423.19        15.53215
423.64        15.60326
424.08        15.71687
424.53        15.81465
424.98        15.82001
425.42        15.72014
425.87        15.54406
426.31        15.34197
426.76        15.19927
427.21        15.12936
427.65        15.10143
428.10        15.11891
428.54        15.16078
428.99        15.21671
429.44        15.36018
429.88        15.50276
430.33        15.40055
430.77        15.10949
431.22        14.93376
431.66        14.92304
432.11        14.98478
432.56        15.09991
433.00        15.33482
433.45        15.53025
433.89        15.45446
434.34         15.2067
434.78        14.94489
435.23        14.66293
435.67        15.34588
436.12        14.84771
436.57        14.76482
437.01        14.53215
437.46        14.44008
437.90        14.50281
438.35        14.59219
438.79        14.66163
439.24        14.70237
439.68         14.7006
440.13        14.53986
440.57        14.32145
441.02        14.43871
441.46        14.75942
441.91        14.81846
442.35        14.25874
442.80        14.06478
443.24        14.08933
443.69        14.02877
444.13        13.86924
444.58        13.74899
445.02         13.6796
445.47         13.6621
445.91        13.67431
446.36        13.64857
446.80        13.57182
447.24        13.48251
447.69        13.40196
448.13        13.33061
448.58        13.28035
449.02        13.24607
449.47        13.22264
449.91        13.19674
450.36        13.17012
450.80        13.14406
451.25        13.13109
451.69         13.1355
452.13        13.16078
452.58        13.19347
453.02        13.22919
453.47        13.26003
453.91        13.28379
454.36        13.30318
454.80        13.30321
455.24        13.26017
455.69        13.18123
456.13         13.0638
456.58        12.95893
457.02        12.93346
457.46        12.99372
457.91        13.08499
458.35        13.16916
458.79        13.21902
459.24        13.21951
459.68        13.18232
460.13        13.16349
460.57        13.12168
461.01        13.05547
461.46        13.31181
461.90        13.36755
462.34        13.22273
462.79        13.31632
463.23        13.20568
463.68        13.11238
464.12         13.0438
464.56        13.11634
465.01        13.22728
465.45         13.3353
465.89        13.39296
466.34        13.39454
466.78        13.31273
467.22        13.20129
467.67        13.24169
468.11        13.40889
468.55        13.43252
468.99        13.32421
469.44        13.32114
469.88        13.42972
470.32        13.51281
470.77        13.54274
471.21        13.54747
471.65        13.52288
472.10        13.46417
472.54        13.39659
472.98        13.39247
473.42        13.46197
473.87        13.54705
474.31        13.62326
474.75        13.73337
475.20        13.84054
475.64        13.80574
476.08        13.68821
476.52        13.70083
476.97        13.85851
477.41        14.06594
477.85         14.2577
478.29        14.36902
478.74        14.38039
479.18        14.28771
479.62        14.17454
480.06        14.17452
480.50        14.29417
480.95        14.42765
481.39        14.52436
481.83        14.57341
482.27        14.56387
482.72        14.50553
483.16        14.43941
483.60        14.41886
484.04        14.44615
484.48        14.59951
484.93        14.89688
485.37        14.96399
485.81        14.96763
486.25        15.61756
486.69        16.13194
487.14        15.81667
487.58        15.47708
488.02         16.1083
488.46        15.72402
488.90        15.95161
489.34        16.04554
489.79        16.15051
490.23        16.24415
490.67        16.43342
491.11        16.67605
491.55        16.67463
491.99        16.47558
492.43        16.41089
492.88          16.518
493.32         16.6092
493.76        16.68867
494.20        16.84514
494.64        17.07682
495.08        17.35383
495.52        17.63855
495.96        17.88481
496.41         18.0791
496.85         18.1996
497.29        18.27542
497.73        18.44272
498.17        18.68635
498.61        18.80547
499.05        18.81766
499.49         18.9437
499.93        19.19686
500.37         19.4099
500.82        19.57038
501.26        19.82021
501.70        20.10617
502.14        20.16621
502.58        20.04431
503.02        20.04063
503.46        20.17948
503.90        20.30387
504.34        20.38631
504.78        20.45017
505.22        20.48878
505.66        20.50659
506.10         20.5163
506.54        20.53372
506.98        20.56913
507.42        20.62191
507.86        20.70195
508.30        20.82435
508.74        20.98369
509.18        21.16477
509.62        21.34711
510.06        21.49819
510.50        21.60788
510.94        21.68942
511.38        21.73014
511.82        21.71263
512.26        21.64372
512.70        21.52933
513.14        21.43021
513.58        21.43838
514.02        21.56119
514.46        21.77321
514.90        21.99337
515.34        22.02941
515.78        21.88383
516.22        21.67399
516.66        21.50352
517.10        21.19396
517.54        20.77823
517.98        21.36288
518.42        21.26418
518.86        21.52243
519.30        21.61526
519.74        21.71213
520.18          21.793
520.62        21.80351
521.06        21.75814
521.50        21.65416
521.93        21.51612
522.37        21.39613
522.81        21.31032
523.25        21.25175
523.69        21.21726
524.13        21.19836
524.57        21.18781
525.01         21.1856
525.45        21.18479
525.89        21.17218
526.32        21.14311
526.76        21.10242
527.20        21.04354
527.64        20.96275
528.08        20.86096
528.52        20.73464
528.96        20.61112
529.40        20.53063
529.83        20.49848
530.27        20.51319
530.71        20.52028
531.15        20.43386
531.59        20.24511
532.03          19.984
532.46        19.73451
532.90        19.64478
533.34        19.73147
533.78        19.94092
534.22        20.17459
534.66        20.28091
535.09        20.22033
535.53        20.04937
535.97        19.83092
536.41        19.66263
536.85        19.57923
537.28        19.56114
537.72        19.59759
538.16        19.61103
538.60        19.68449
539.04        19.74391
539.47        19.80572
539.91        19.89965
540.35        20.03692
540.79         20.0364
541.22        20.15581
541.66        20.25361
542.10        20.42323
542.54        20.33385
542.97        20.53079
543.41        20.64677
543.85        20.82839
544.29        21.01903
544.72        21.17875
545.16        21.30731
545.60        21.39526
546.04         21.3827
546.47        21.35581
546.91        21.58599
547.35        22.02652
547.79        22.37717
548.22        22.57995
548.66        22.70539
549.10        22.78601
549.53        22.97385
549.97        23.28288
550.41        23.31971
550.84        23.51749
551.28         23.6355
551.72        23.82089
552.15        24.02391
552.59        24.24566
553.03        24.49104
553.46         24.7164
553.90        24.87889
554.34        24.96981
554.77        25.00201
555.21        25.02464
555.65        25.10437
556.08        25.25059
556.52        25.43792
556.96        25.62727
557.39          25.791
557.83        25.90714
558.27        25.92773
558.70        25.88441
559.14        25.87868
559.57         25.9197
560.01        25.99469
560.45         26.0798
560.88        26.10513
561.32        26.11774
561.75        26.19213
562.19        26.41547
562.63         26.5472
563.06        26.60317
563.50         26.6591
563.93        26.71907
564.37        26.84064
564.80        26.90477
565.24        27.01777
565.68         27.1195
566.11        27.21716
566.55        27.32979
566.98        27.38533
567.42        27.39266
567.85        27.76052
568.29        27.75271
568.72        28.09669
569.16        28.50386
569.60        28.80602
570.03        28.96166
570.47        29.07852
570.90         29.0519
571.34        29.43492
571.77        29.28748
572.21        29.67262
572.64         29.9007
573.08        29.99495
573.51        30.26136
573.95        30.72818
574.38        30.91503
574.82        31.18356
