SpectraSmart Spectrum 2.9.0.0
--------- Device Information -----------
Spectrum Name :  反射率_0
Saving Time :  2024/04/20 00:58:43
Spectro-Module Model Name : SE2030-DUVN
Spectro-Module Serial Number : OS361AC55029948
Wavelength Start : 200
Wavelength End : 1025
Wavelength Unit : Wavelength(nm)
Spectrum Unit : Reflectance(%)
-----------Spectrum Setting ------------
Integration Time : 30ms
Average : 10
Boxcar : 0
Background removal :  enabled
linearity correction :  enabled
SC :  disabled
Intensity correction :  disabled
DWT denoise :  enabled
savitzky-golay :  disabled
FFT :  disabled
Running average :  disabled
Kalman :  disabled
High pass :  disabled
---------------BEGIN--------------------
Wavelength(nm)             Reflectance(%)
200.29               0
200.75        52.85887
201.21        50.69928
201.67        50.01781
202.13        52.39228
202.58        58.50838
203.04         68.5697
203.50         79.6412
203.96        83.63982
204.42        79.28431
204.88        71.27715
205.34        63.34699
205.80        56.80842
206.26        50.54401
206.72        42.53051
207.18        32.12762
207.64        23.73668
208.10        23.28213
208.55        30.46094
209.01        39.48286
209.47        45.44376
209.93        47.97641
210.39        48.49239
210.85        47.67885
211.31        46.24257
211.77        44.31652
212.23        41.32757
212.69        37.59986
213.14        35.74142
213.60        36.68739
214.06        39.55717
214.52        42.62947
214.98        45.07874
215.44        47.11658
215.90        48.87751
216.36        50.83584
216.81        53.49356
217.27        56.44501
217.73        59.37434
218.19        60.67918
218.65         58.2284
219.11        51.70168
219.57        41.17633
220.02        28.97795
220.48        21.80809
220.94        22.11429
221.40        28.98538
221.86        37.97199
222.32        41.94883
222.77        39.32865
223.23         32.4523
223.69        25.53477
224.15        24.48484
224.61        29.07498
225.06        35.97233
225.52        41.67101
225.98        43.37295
226.44         41.1613
226.90         36.3745
227.36        30.76098
227.81        27.42259
228.27        27.59797
228.73        29.91412
229.19        32.92453
229.65        34.96872
230.10         35.7723
230.56        35.93809
231.02        35.93978
231.48        36.31014
231.93         37.0781
232.39        37.95308
232.85        38.63227
233.31        38.71466
233.77        38.12752
234.22        37.06733
234.68        35.77838
235.14         34.5634
235.60        33.62673
236.05         32.9573
236.51        32.63001
236.97        32.71352
237.43        33.26435
237.88        34.49353
238.34        36.34763
238.80        38.42525
239.26        40.12776
239.71        41.09814
240.17        41.36717
240.63        41.72987
241.08        42.49414
241.54        43.51809
242.00        44.04857
242.46        42.54101
242.91        38.09731
243.37        29.72169
243.83        18.23061
244.28        11.72252
244.74        18.12634
245.20        35.48937
245.66        52.30329
246.11        59.11247
246.57        55.33834
247.03        41.66395
247.48        21.29655
247.94        13.72926
248.40        22.89944
248.85         35.6653
249.31        45.12954
249.77         49.7943
250.22        50.95871
250.68         50.2577
251.14        48.38855
251.59        46.48053
252.05        45.61913
252.51        45.57304
252.96        45.76025
253.42        45.58549
253.88        44.91348
254.33        43.97936
254.79        44.35628
255.25        47.33557
255.70        52.34677
256.16        58.24183
256.62        62.76908
257.07        63.40323
257.53        60.54959
257.99         55.5005
258.44        50.22354
258.90         47.8029
259.35        47.75594
259.81        48.95046
260.27        49.81618
260.72        49.07372
261.18        47.06715
261.63        44.10827
262.09         41.3333
262.55        39.83558
263.00        39.65339
263.46        40.33478
263.91        40.91188
264.37         40.4448
264.83        38.92654
265.28         36.7614
265.74        34.85461
266.19        34.08011
266.65        34.54705
267.11        35.73196
267.56        37.01033
268.02        37.47087
268.47        36.94617
268.93        35.75069
269.38        34.19022
269.84        32.96832
270.30        32.27586
270.75        31.92989
271.21        31.72211
271.66        31.34564
272.12        30.70319
272.57        29.90961
273.03        29.14059
273.48        28.56977
273.94         28.2719
274.39        28.14938
274.85        28.04249
275.31        27.70869
275.76        27.09572
276.22        26.29899
276.67        25.50503
277.13        25.07802
277.58        25.01858
278.04         25.2293
278.49        25.40207
278.95        25.14808
279.40        24.40363
279.86        23.39566
280.31        22.37359
280.77        21.80658
281.22        21.71095
281.68         21.9355
282.13        22.25153
282.59        22.34763
283.04        22.14676
283.50        21.79314
283.95        21.36187
284.41        20.98289
284.86        20.68762
285.32        20.44219
285.77        20.27802
286.22        20.30839
286.68        20.51496
287.13        20.84114
287.59        21.14388
288.04        21.19753
288.50        20.98416
288.95        20.55116
289.41        20.05445
289.86        19.66904
290.32        19.49237
290.77        19.46182
291.22        19.53373
291.68        19.60714
292.13         19.6579
292.59        19.72601
293.04        19.85554
293.50           20.12
293.95        20.51665
294.40        20.99845
294.86         21.4853
295.31         21.8709
295.77        22.13138
296.22        22.30136
296.68        22.44009
297.13        22.61996
297.58        22.88173
298.04        23.21624
298.49        23.60651
298.95        24.05838
299.40        24.54782
299.85        25.06449
300.31        25.59209
300.76        26.10672
301.21        26.59117
301.67        27.06788
302.12        27.47775
302.58        27.78274
303.03        27.97299
303.48        28.08018
303.94        28.22632
304.39        28.56586
304.84        29.12035
305.30        29.81691
305.75        30.49226
306.20        30.91117
306.66         31.0429
307.11        30.96157
307.57        30.79309
308.02        30.66383
308.47         30.6446
308.93        30.68818
309.38         30.8018
309.83        31.03942
310.29        31.37811
310.74        31.80229
311.19        32.18316
311.65        32.31145
312.10        32.15061
312.55        31.76412
313.00        31.31021
313.46        31.03899
313.91        30.99808
314.36        31.13105
314.82        31.32431
315.27        31.41142
315.72        31.33153
316.18        31.14682
316.63        30.92089
317.08        30.75331
317.53        30.66683
317.99          30.616
318.44        30.55783
318.89        30.41905
319.35        30.18574
319.80        29.89366
320.25        29.58513
320.70        29.32319
321.16        29.12453
321.61        28.97192
322.06        28.84591
322.51        28.71874
322.97        28.56826
323.42        28.40175
323.87        28.20691
324.32        27.96888
324.78        27.68402
325.23        27.36913
325.68        27.02251
326.13         26.6494
326.59        26.26628
327.04        25.90062
327.49        25.59753
327.94        25.42689
328.39        25.39603
328.85        25.46428
329.30        25.59999
329.75        25.70356
330.20        25.73055
330.66         25.6793
331.11        25.55853
331.56        25.33946
332.01        25.02605
332.46        24.61844
332.92        24.18095
333.37        23.82861
333.82        23.60403
334.27        23.51157
334.72        23.48189
335.17        23.38366
335.63        23.17513
336.08        22.88628
336.53        22.63219
336.98        22.61407
337.43        22.86265
337.88        23.31494
338.34        23.73578
338.79        23.79084
339.24        23.39333
339.69        22.64091
340.14        21.83192
340.59        21.46939
341.05        21.65973
341.50        22.25217
341.95        22.92953
342.40        23.20065
342.85         22.9538
343.30        22.36043
343.75        21.65069
344.20        21.19734
344.66         21.1043
345.11        21.21607
345.56        21.42778
346.01        21.57575
346.46         21.5898
346.91        21.54552
347.36        21.39651
347.81        21.05337
348.26        20.54003
348.72        19.91458
349.17        19.31544
349.62        19.05961
350.07        19.21311
350.52        19.66579
350.97        20.24945
351.42        20.70687
351.87        20.95065
352.32        21.04036
352.77        20.98737
353.22        20.81818
353.67        20.56503
354.13        20.23279
354.58        19.86939
355.03        19.59357
355.48        19.43823
355.93        19.39246
356.38        19.41518
356.83        19.42609
357.28        19.39498
357.73        19.33294
358.18        19.25488
358.63        19.18799
359.08        19.13741
359.53        19.09232
359.98         19.0188
360.43        18.86918
360.88        18.64334
361.33        18.36318
361.78        18.09573
362.23        17.94841
362.68        17.93728
363.13        18.01658
363.58         18.1098
364.03        18.09966
364.48        17.95247
364.93        17.70405
365.38        17.38537
365.83        17.05304
366.28        16.74336
366.73        16.45222
367.18        16.20499
367.63        16.03834
368.08        15.95341
368.53        15.93806
368.98        15.96305
369.43        15.97687
369.88        15.96114
370.33        15.92724
370.78        15.86417
371.23         15.7605
371.68        15.62065
372.13        15.44261
372.58        15.27478
373.03         15.2009
373.48        15.23424
373.93        15.34877
374.38        15.47112
374.83        15.48647
375.28        15.36881
375.72        15.14137
376.17        14.88717
376.62            14.7
377.07        14.61131
377.52        14.59187
377.97         14.6029
378.42        14.58448
378.87         14.5199
379.32         14.4309
379.77        14.34276
380.22        14.28845
380.67        14.27491
381.11        14.29097
381.56        14.30165
382.01        14.26803
382.46        14.17576
382.91        14.02751
383.36        13.86512
383.81        13.74906
384.26        13.69381
384.71        13.69965
385.15        13.69199
385.60        13.55722
386.05        13.28676
386.50        12.91564
386.95        12.59165
387.40         12.5452
387.85        12.79878
388.29        13.25864
388.74        13.71609
389.19        13.88222
389.64        13.70792
390.09        13.28741
390.54        12.79516
390.98        12.50871
391.43        12.51187
391.88        12.69777
392.33          12.934
392.78        13.03074
393.23        12.95071
393.67        12.76128
394.12        12.56069
394.57        12.43236
395.02         12.3995
395.47        12.42583
395.91        12.47882
396.36        12.49472
396.81        12.45888
397.26        12.38654
397.71        12.31272
398.15        12.27501
398.60        12.29658
399.05        12.35858
399.50        12.40935
399.95        12.37541
400.39        12.24537
400.84        12.03826
401.29        11.83708
401.74        11.79368
402.18        11.94467
402.63        12.23037
403.08        12.52137
403.53        12.61299
403.97        12.46519
404.42        12.15457
404.87        11.80577
405.32        11.62486
405.76        11.66338
406.21        11.84951
406.66         12.0919
407.11        12.24805
407.55        12.27732
408.00        12.23123
408.45         12.1413
408.90        12.02873
409.34        11.92883
409.79        11.88288
410.24        11.88323
410.68        11.87201
411.13        11.84787
411.58        11.85794
412.03        11.88065
412.47        11.85868
412.92        11.78464
413.37        11.67273
413.81        11.57751
414.26        11.59498
414.71        11.73388
415.15        11.96945
415.60        12.20473
416.05        12.30326
416.49        12.22697
416.94        12.02396
417.39        11.77776
417.83        11.62545
418.28         11.6111
418.73        11.68629
419.17        11.79736
419.62        11.84784
420.07        11.81771
420.51        11.74177
420.96        11.65193
421.41         11.5791
421.85        11.53165
422.30        11.50407
422.74        11.49385
423.19        11.52237
423.64        11.58081
424.08        11.66951
424.53        11.74758
424.98        11.76463
425.42        11.71154
425.87        11.61011
426.31        11.48334
426.76        11.37568
427.21        11.29436
427.65        11.22108
428.10        11.18717
428.54        11.22242
428.99        11.32617
429.44        11.53697
429.88        11.75219
430.33        11.73115
430.77         11.5093
431.22        11.33727
431.66        11.28475
432.11        11.33329
432.56        11.48168
433.00        11.76577
433.45        12.03441
433.89        12.05058
434.34        11.86886
434.78        11.63164
435.23        11.35902
435.67        11.84175
436.12        11.43237
436.57        11.35411
437.01        11.16703
437.46        11.08874
437.90         11.1274
438.35        11.18934
438.79        11.23898
439.24        11.26912
439.68        11.26732
440.13        11.14053
440.57        10.96515
441.02        11.04009
441.46        11.26364
441.91        11.28468
442.35        10.83057
442.80        10.64949
443.24        10.62819
443.69        10.54061
444.13        10.38747
444.58        10.29255
445.02        10.26605
445.47        10.30166
445.91        10.36685
446.36         10.3858
446.80        10.33985
447.24        10.26312
447.69        10.18143
448.13        10.10832
448.58         10.0594
449.02        10.02982
449.47        10.01007
449.91        9.981251
450.36        9.944441
450.80        9.902474
451.25        9.882072
451.69        9.910749
452.13         9.99232
452.58        10.10517
453.02        10.21599
453.47        10.27014
453.91        10.25836
454.36        10.19734
454.80         10.1087
455.24        10.03247
455.69        9.988686
456.13        9.954243
456.58        9.941281
457.02        9.960983
457.46        10.00904
457.91        10.05947
458.35        10.09292
458.79        10.09902
459.24        10.07332
459.68        10.01829
460.13         9.98873
460.57        9.970352
461.01        9.963983
461.46        10.22884
461.90        10.34351
462.34        10.26708
462.79        10.33298
463.23        10.20468
463.68        10.08034
464.12        10.00943
464.56        10.09134
465.01        10.22969
465.45        10.36394
465.89        10.41588
466.34        10.37574
466.78        10.24023
467.22        10.07442
467.67        10.05405
468.11        10.17105
468.55        10.20827
468.99        10.16335
469.44        10.19881
469.88        10.31213
470.32        10.40295
470.77        10.44499
471.21        10.45333
471.65        10.42443
472.10        10.35741
472.54        10.27851
472.98        10.25949
473.42        10.31236
473.87        10.38671
474.31        10.46163
474.75        10.56382
475.20        10.66132
475.64        10.64773
476.08        10.56203
476.52        10.55877
476.97        10.64881
477.41        10.76307
477.85        10.86003
478.29        10.90584
478.74        10.89052
479.18        10.80498
479.62         10.7115
480.06        10.70996
480.50        10.80175
480.95        10.90626
481.39        10.97472
481.83        10.98442
482.27        10.92798
482.72        10.81698
483.16        10.70097
483.60        10.66859
484.04        10.73292
484.48        10.90089
484.93        11.17805
485.37        11.34762
485.81        11.40354
486.25        11.82521
486.69        11.89313
487.14         11.4923
487.58        11.41043
488.02        12.27316
488.46        11.85858
488.90        11.92513
489.34        11.75319
489.79        11.86486
490.23        12.20421
490.67         12.4191
491.11        12.47324
491.55        12.42215
491.99         12.3075
492.43        12.24148
492.88        12.25276
493.32         12.2456
493.76        12.24937
494.20        12.36448
494.64        12.59472
495.08        12.89829
495.52        13.21356
495.96         13.4565
496.41        13.60341
496.85        13.65384
497.29         13.6471
497.73        13.71475
498.17        13.85736
498.61        13.91755
499.05        13.91559
499.49        14.02559
499.93        14.25643
500.37        14.48201
500.82        14.67227
501.26        14.90225
501.70        15.12363
502.14        15.14467
502.58        15.01556
503.02         14.9906
503.46        15.09531
503.90        15.20479
504.34        15.28411
504.78        15.32736
505.22        15.32512
505.66        15.29052
506.10        15.25052
506.54        15.24331
506.98        15.28283
507.42        15.35959
507.86        15.46485
508.30        15.58433
508.74          15.706
509.18         15.8252
509.62        15.93806
510.06        16.03826
510.50        16.12452
510.94        16.20359
511.38        16.25631
511.82        16.25402
512.26        16.19875
512.70        16.09893
513.14        16.01639
513.58        16.04541
514.02        16.19203
514.46        16.42523
514.90        16.65851
515.34        16.69908
515.78        16.53396
516.22        16.30223
516.66         16.1095
517.10        15.76543
517.54        15.30513
517.98        15.91201
518.42        15.78987
518.86         16.0555
519.30        16.15234
519.74        16.26413
520.18        16.36137
520.62        16.37279
521.06        16.31256
521.50        16.17951
521.93        16.02016
522.37        15.92282
522.81        15.90721
523.25        15.95301
523.69        16.02147
524.13         16.0493
524.57        16.01913
525.01        15.94912
525.45        15.86695
525.89        15.81611
526.32        15.80557
526.76        15.81988
527.20        15.82954
527.64        15.79292
528.08        15.70094
528.52         15.5688
528.96        15.42827
529.40        15.32488
529.83         15.2708
530.27        15.25818
530.71         15.2558
531.15        15.21521
531.59        15.12848
532.03        15.01156
532.46        14.90282
532.90        14.87609
533.34          14.934
533.78        15.04566
534.22        15.15812
534.66         15.1921
535.09        15.12666
535.53        14.99486
535.97        14.83008
536.41        14.68255
536.85          14.575
537.28        14.50506
537.72        14.47819
538.16        14.45605
538.60        14.50431
539.04        14.55827
539.47        14.62578
539.91        14.72252
540.35        14.85153
540.79        14.87986
541.22        14.98582
541.66        15.04339
542.10         15.1216
542.54        14.98348
542.97        15.05576
543.41        15.10743
543.85        15.25471
544.29        15.44444
544.72        15.62555
545.16        15.76367
545.60        15.84277
546.04        15.82774
546.47         15.7935
546.91        15.96186
547.35        16.30361
547.79        16.58263
548.22        16.74917
548.66        16.85988
549.10        16.93091
549.53        17.04776
549.97         17.2363
550.41        17.25657
550.84        17.43603
551.28        17.57251
551.72        17.76303
552.15        17.96177
552.59        18.16195
553.03        18.36662
553.46         18.5511
553.90        18.69391
554.34        18.79108
554.77        18.84917
555.21        18.89205
555.65        18.94775
556.08         19.0223
556.52        19.10827
556.96        19.20002
557.39        19.31294
557.83        19.43691
558.27          19.522
558.70        19.56997
559.14        19.62126
559.57        19.67141
560.01        19.72104
560.45        19.76017
560.88        19.74578
561.32        19.72134
561.75        19.74982
562.19        19.89893
562.63        19.97206
563.06        19.99203
563.50         20.0569
563.93        20.16217
564.37        20.30085
564.80        20.37653
565.24         20.4934
565.68        20.60063
566.11        20.68538
566.55        20.76085
566.98        20.77722
567.42        20.75173
567.85         21.0042
568.29        20.98267
568.72        21.24845
569.16         21.5714
569.60        21.77622
570.03        21.82499
570.47        21.86647
570.90        21.84369
571.34        22.00901
571.77         21.8759
572.21        22.23378
572.64        22.35921
573.08        22.41433
573.51        22.60904
573.95        23.16001
574.38        23.21408
574.82        23.33702
