SpectraSmart Spectrum 2.9.0.0
--------- Device Information -----------
Spectrum Name :  反射率_0
Saving Time :  2024/04/20 00:52:17
Spectro-Module Model Name : SE2030-DUVN
Spectro-Module Serial Number : OS361AC55029948
Wavelength Start : 200
Wavelength End : 1025
Wavelength Unit : Wavelength(nm)
Spectrum Unit : Reflectance(%)
-----------Spectrum Setting ------------
Integration Time : 30ms
Average : 10
Boxcar : 0
Background removal :  enabled
linearity correction :  enabled
SC :  disabled
Intensity correction :  disabled
DWT denoise :  enabled
savitzky-golay :  disabled
FFT :  disabled
Running average :  disabled
Kalman :  disabled
High pass :  disabled
---------------BEGIN--------------------
Wavelength(nm)             Reflectance(%)
200.29               0
200.75        60.05786
201.21        60.59386
201.67        63.55836
202.13        69.66536
202.58        78.90514
203.04        91.60764
203.50        103.4729
203.96        104.4687
204.42        94.91614
204.88        81.71334
205.34        70.48534
205.80        63.54981
206.26        59.67023
206.72        57.25889
207.18        56.52135
207.64        58.59584
208.10        63.49736
208.55        70.33384
209.01        75.48245
209.47        77.24271
209.93        76.22882
210.39        73.12661
210.85        69.39491
211.31        66.64685
211.77        64.93486
212.23        63.72749
212.69        62.61074
213.14        61.18522
213.60        59.47559
214.06        58.63754
214.52        58.50131
214.98        58.76572
215.44        59.28016
215.90        59.78656
216.36        60.61535
216.81        62.29503
217.27        64.62684
217.73        67.47665
218.19        69.37634
218.65        68.38963
219.11        64.24467
219.57        56.92517
220.02        48.61852
220.48        45.39675
220.94        49.07325
221.40          58.481
221.86         68.7226
222.32        72.29636
222.77        67.84267
223.23        58.22113
223.69        48.39661
224.15        45.40549
224.61        49.29578
225.06        56.22724
225.52        62.58994
225.98        65.38097
226.44        64.56857
226.90        61.51897
227.36        57.46516
227.81        54.51643
228.27        53.75119
228.73        54.21489
229.19        55.24807
229.65        56.11931
230.10        56.58809
230.56        56.98166
231.02        57.30775
231.48        57.56786
231.93        57.70711
232.39        57.65501
232.85        57.36375
233.31        56.84215
233.77        56.10015
234.22        55.19034
234.68        54.08224
235.14         52.6421
235.60        50.98184
236.05         49.2698
236.51        47.84686
236.97        47.13129
237.43        47.26213
237.88        48.41235
238.34        50.39234
238.80        52.58419
239.26        54.26389
239.71        55.20511
240.17        55.51751
240.63        56.16953
241.08        57.49705
241.54        59.18518
242.00        60.49861
242.46        60.00348
242.91        56.95662
243.37        50.62493
243.83        41.67714
244.28        36.48593
244.74        41.20967
245.20        54.42289
245.66        67.36713
246.11        72.87227
246.57        70.46771
247.03        60.78313
247.48        46.14436
247.94        40.77735
248.40        47.45668
248.85         56.6422
249.31        63.39566
249.77        66.50472
250.22        66.90233
250.68        65.77339
251.14        63.69903
251.59         61.8251
252.05        61.09279
252.51        61.19664
252.96         61.5152
253.42        61.29491
253.88        60.34747
254.33        59.06578
254.79        58.61988
255.25        59.74487
255.70        62.09488
256.16        64.94841
256.62        67.06361
257.07        67.07443
257.53         65.1892
257.99        61.94682
258.44        58.25074
258.90        55.99395
259.35        54.88888
259.81        54.67261
260.27        54.27871
260.72        52.78963
261.18        50.48708
261.63        47.41876
262.09        44.63504
262.55        43.12178
263.00        42.88462
263.46        43.55449
263.91        44.08125
264.37        43.44081
264.83        41.63453
265.28        39.07848
265.74        36.84834
266.19        36.04294
266.65        36.76865
267.11        38.40855
267.56        40.09687
268.02        40.59138
268.47        39.69045
268.93        37.82796
269.38        35.57526
269.84        34.09322
270.30        33.67976
270.75        33.97969
271.21        34.52399
271.66        34.62028
272.12        34.07719
272.57        33.14018
273.03        32.09795
273.48        31.29715
273.94        30.88126
274.39        30.68343
274.85         30.5568
275.31        30.28147
275.76        29.79003
276.22        29.18241
276.67        28.56923
277.13        28.19821
277.58        28.05274
278.04        28.07672
278.49        28.04136
278.95        27.68606
279.40        26.96071
279.86        26.04633
280.31         25.1242
280.77        24.57479
281.22        24.39726
281.68        24.48694
282.13        24.64666
282.59        24.61659
283.04        24.33211
283.50        23.91356
283.95        23.43921
284.41        23.05191
284.86        22.77045
285.32        22.55704
285.77        22.39337
286.22        22.31941
286.68        22.31474
287.13        22.35388
287.59        22.36045
288.04        22.19938
288.50        21.87226
288.95        21.39959
289.41        20.89919
289.86        20.48299
290.32        20.23498
290.77        20.11818
291.22        20.11374
291.68        20.15582
292.13        20.22737
292.59         20.3507
293.04        20.56125
293.50        20.92183
293.95        21.42514
294.40        22.03397
294.86        22.65854
295.31         23.1757
295.77        23.56377
296.22        23.86122
296.68        24.16055
297.13        24.58837
297.58         25.1897
298.04        25.93385
298.49        26.75245
298.95        27.57165
299.40        28.35306
299.85        29.11966
300.31        29.89255
300.76        30.70333
301.21        31.54801
301.67        32.41784
302.12        33.25353
302.58        34.03102
303.03        34.72386
303.48        35.36336
303.94        36.00708
304.39        36.70138
304.84        37.46006
305.30        38.24765
305.75        38.99281
306.20        39.61289
306.66         40.1059
307.11        40.48494
307.57        40.79241
308.02        41.01494
308.47        41.19226
308.93        41.32321
309.38        41.45864
309.83        41.73056
310.29        42.14101
310.74        42.64557
311.19        43.09766
311.65        43.26026
312.10        43.08826
312.55        42.66496
313.00        42.16496
313.46         41.8582
313.91        41.79538
314.36        41.91018
314.82        42.08197
315.27        42.13711
315.72        42.01214
316.18        41.78389
316.63        41.50326
317.08        41.25595
317.53        41.06626
317.99        40.88736
318.44        40.71726
318.89        40.54885
319.35         40.3739
319.80        40.20431
320.25        40.00945
320.70        39.73682
321.16        39.37657
321.61        38.94989
322.06        38.50831
322.51        38.14268
322.97         37.8701
323.42        37.67492
323.87        37.50024
324.32        37.25753
324.78        36.91595
325.23        36.51291
325.68        36.08243
326.13        35.68956
326.59        35.35855
327.04        35.09534
327.49        34.87413
327.94        34.65962
328.39        34.43649
328.85        34.18963
329.30        33.98585
329.75        33.88263
330.20        33.88517
330.66        33.95239
331.11        34.00306
331.56        33.85152
332.01        33.46011
332.46        32.87362
332.92        32.22976
333.37        31.78131
333.82        31.60437
334.27        31.65389
334.72        31.79229
335.17        31.77637
335.63        31.52403
336.08        31.10776
336.53        30.67598
336.98        30.48846
337.43        30.60223
337.88        30.93706
338.34        31.26236
338.79        31.25396
339.24        30.82367
339.69        30.07589
340.14        29.28639
340.59        28.91612
341.05        29.06088
341.50         29.5726
341.95        30.16729
342.40        30.40732
342.85        30.19125
343.30        29.67976
343.75        29.05122
344.20        28.59543
344.66        28.40202
345.11        28.33873
345.56        28.38184
346.01        28.49638
346.46        28.63253
346.91        28.81994
347.36        28.90698
347.81        28.64499
348.26         28.0235
348.72        27.14766
349.17        26.25311
349.62        25.81736
350.07        25.95157
350.52        26.49665
350.97        27.20314
351.42        27.69144
351.87         27.8463
352.32        27.76992
352.77         27.5374
353.22        27.27297
353.67        27.03151
354.13        26.78091
354.58        26.51036
355.03        26.25461
355.48        26.02584
355.93        25.84277
356.38        25.70837
356.83        25.60891
357.28        25.53179
357.73        25.46557
358.18        25.39367
358.63        25.29465
359.08        25.15951
359.53        24.99369
359.98        24.78823
360.43        24.52961
360.88         24.2253
361.33        23.88704
361.78        23.55844
362.23        23.31199
362.68        23.16042
363.13        23.07367
363.58        23.00766
364.03        22.89183
364.48        22.69972
364.93        22.44961
365.38        22.14095
365.83        21.77919
366.28        21.38619
366.73        20.97449
367.18        20.59202
367.63        20.31008
368.08        20.14263
368.53        20.07022
368.98        20.05447
369.43        20.02957
369.88        19.97279
370.33         19.8995
370.78        19.80934
371.23        19.70692
371.68        19.59785
372.13        19.47154
372.58        19.35179
373.03        19.28547
373.48        19.27406
373.93        19.29624
374.38        19.30613
374.83        19.23111
375.28        19.05424
375.72        18.79257
376.17        18.49575
376.62        18.20216
377.07        17.94294
377.52        17.71876
377.97        17.55012
378.42        17.46609
378.87        17.46135
379.32        17.51526
379.77        17.60148
380.22        17.67731
380.67        17.72559
381.11        17.76049
381.56        17.74342
382.01        17.63318
382.46        17.42948
382.91        17.13789
383.36        16.84966
383.81          16.704
384.26        16.72204
384.71        16.87287
385.15        17.02242
385.60        16.96364
386.05        16.66336
386.50        16.19106
386.95        15.71769
387.40        15.51227
387.85        15.62453
388.29        15.95606
388.74         16.3272
389.19        16.48521
389.64         16.3779
390.09        16.08084
390.54        15.73295
390.98        15.54855
391.43        15.59313
391.88        15.77932
392.33         15.9758
392.78        15.99842
393.23        15.82391
393.67        15.51917
394.12        15.22734
394.57        15.08678
395.02        15.12691
395.47        15.30031
395.91        15.52161
396.36        15.62349
396.81        15.56691
397.26        15.39973
397.71        15.22134
398.15        15.16568
398.60        15.27324
399.05        15.48004
399.50        15.68813
399.95        15.76151
400.39        15.67251
400.84         15.4636
401.29        15.22613
401.74        15.12443
402.18        15.21047
402.63        15.42653
403.08        15.66471
403.53        15.75222
403.97         15.6543
404.42        15.43915
404.87        15.21623
405.32        15.16371
405.76        15.31704
406.21        15.60495
406.66        15.92669
407.11        16.12894
407.55        16.17084
408.00        16.10671
408.45        15.97847
408.90        15.81858
409.34        15.67814
409.79         15.6223
410.24        15.63819
410.68        15.63953
411.13        15.62471
411.58        15.65514
412.03        15.71908
412.47        15.76868
412.92        15.79137
413.37        15.78951
413.81        15.79667
414.26         15.8817
414.71        16.04646
415.15        16.27596
415.60        16.47873
416.05        16.53287
416.49        16.40997
416.94        16.15516
417.39        15.86795
417.83        15.70861
418.28        15.72349
418.73        15.85847
419.17        16.03304
419.62        16.10858
420.07        16.05724
420.51        15.92892
420.96        15.78262
421.41        15.68883
421.85        15.66538
422.30         15.6954
422.74        15.76211
423.19        15.87245
423.64        16.01081
424.08        16.18464
424.53         16.3472
424.98         16.4408
425.42        16.45139
425.87         16.3947
426.31        16.29791
426.76        16.21621
427.21        16.15835
427.65        16.10529
428.10        16.08038
428.54          16.096
428.99        16.15438
429.44        16.32412
429.88        16.50862
430.33        16.44374
430.77        16.18378
431.22        16.05724
431.66        16.10874
432.11         16.2212
432.56        16.37084
433.00        16.63289
433.45        16.85086
433.89        16.79875
434.34        16.58704
434.78        16.38125
435.23        16.15705
435.67        16.94465
436.12        16.43353
436.57         16.3451
437.01        16.08102
437.46        15.97346
437.90        16.04316
438.35        16.14207
438.79        16.21938
439.24        16.26835
439.68        16.27246
440.13        16.10398
440.57        15.86715
441.02         15.9839
441.46        16.30891
441.91        16.33851
442.35        15.69494
442.80        15.48031
443.24        15.53619
443.69        15.51904
444.13        15.41483
444.58        15.37683
445.02        15.41119
445.47        15.51553
445.91        15.63912
446.36         15.6647
446.80        15.57095
447.24        15.41291
447.69         15.2493
448.13        15.13687
448.58         15.1014
449.02        15.12193
449.47        15.16387
449.91        15.16385
450.36        15.11299
450.80        15.03224
451.25        14.95867
451.69        14.93158
452.13        14.96438
452.58        15.02984
453.02        15.11183
453.47        15.18775
453.91        15.24823
454.36        15.29992
454.80        15.32522
455.24        15.29439
455.69        15.21491
456.13        15.08353
456.58         14.9584
457.02        14.91723
457.46        14.96946
457.91        15.05462
458.35        15.13593
458.79        15.19337
459.24        15.21121
459.68        15.20173
460.13        15.21915
460.57        15.20068
461.01        15.13935
461.46        15.44124
461.90        15.51019
462.34        15.36659
462.79        15.52291
463.23        15.45796
463.68        15.40872
464.12        15.35082
464.56        15.41386
465.01        15.49113
465.45        15.55859
465.89        15.59506
466.34         15.6002
466.78        15.53146
467.22        15.43552
467.67        15.49834
468.11        15.68346
468.55        15.68328
468.99        15.52381
469.44        15.50021
469.88        15.62467
470.32        15.73145
470.77        15.78141
471.21        15.79544
471.65        15.76638
472.10        15.69204
472.54        15.60675
472.98        15.60052
473.42        15.68498
473.87        15.78703
474.31        15.87569
474.75        15.99902
475.20        16.11345
475.64        16.06185
476.08        15.90609
476.52        15.88156
476.97        16.00649
477.41        16.17331
477.85        16.33159
478.29        16.44782
478.74        16.50507
479.18        16.48347
479.62        16.44196
480.06         16.4793
480.50        16.59188
480.95        16.67434
481.39        16.69995
481.83        16.70715
482.27        16.69763
482.72        16.66445
483.16        16.63571
483.60        16.65871
484.04         16.7393
484.48         16.9112
484.93        17.20044
485.37        17.34212
485.81        17.47557
486.25        17.91821
486.69        18.46849
487.14        17.95629
487.58        17.61233
488.02        18.49037
488.46        18.04282
488.90        18.18322
489.34         18.0101
489.79        18.13357
490.23        18.48139
490.67        18.66703
491.11        18.68615
491.55        18.67041
491.99        18.65977
492.43        18.68331
492.88        18.75981
493.32        18.84773
493.76        18.96167
494.20        19.14104
494.64        19.38273
495.08         19.6888
495.52        20.00243
495.96        20.19438
496.41         20.2777
496.85        20.36383
497.29        20.47778
497.73        20.64549
498.17        20.84421
498.61        20.92609
499.05         20.9142
499.49        21.02081
499.93        21.26048
500.37        21.45654
500.82        21.60065
501.26         21.8567
501.70        22.16541
502.14        22.23186
502.58        22.09595
503.02        22.07585
503.46         22.1961
503.90        22.29067
504.34        22.33336
504.78        22.35666
505.22        22.35769
505.66        22.33817
506.10        22.32398
506.54        22.35137
506.98        22.43091
507.42        22.55444
507.86        22.70434
508.30         22.8507
508.74        22.97882
509.18        23.08793
509.62        23.18539
510.06        23.28403
510.50        23.38724
510.94        23.49577
511.38        23.58189
511.82        23.60269
512.26        23.55531
512.70        23.45275
513.14        23.36063
513.58        23.37766
514.02        23.51275
514.46         23.7363
514.90        23.96225
515.34        23.99026
515.78        23.82786
516.22        23.58949
516.66        23.38757
517.10        23.06175
517.54        22.64829
517.98        23.22437
518.42        23.14017
518.86        23.40114
519.30        23.49481
519.74        23.59058
520.18        23.67174
520.62        23.68979
521.06        23.65954
521.50        23.57415
521.93        23.45788
522.37        23.36261
522.81        23.30286
523.25        23.27225
523.69        23.25918
524.13        23.24252
524.57        23.21399
525.01        23.17665
525.45        23.13999
525.89        23.11737
526.32        23.10904
526.76         23.1129
527.20        23.10128
527.64        23.03583
528.08        22.91154
528.52        22.73832
528.96        22.56642
529.40         22.4712
529.83        22.46559
530.27         22.5352
530.71        22.61023
531.15        22.58098
531.59        22.42994
532.03        22.19447
532.46        21.95945
532.90        21.87535
533.34         21.9613
533.78        22.16169
534.22        22.38544
534.66        22.49391
535.09        22.44894
535.53        22.30421
535.97        22.11258
536.41        21.95435
536.85        21.86037
537.28        21.81803
537.72        21.82471
538.16        21.80947
538.60        21.87028
539.04        21.91957
539.47        21.97344
539.91        22.06293
540.35        22.19791
540.79        22.17771
541.22        22.28787
541.66        22.37031
542.10         22.5296
542.54        22.40646
542.97        22.59719
543.41        22.68928
543.85         22.8457
544.29        23.00433
544.72        23.14439
545.16        23.30124
545.60        23.46486
546.04        23.55404
546.47        23.61881
546.91        23.88982
547.35        24.30187
547.79        24.54428
548.22        24.60107
548.66        24.62895
549.10        24.67584
549.53        24.86608
549.97        25.20094
550.41        25.24848
550.84         25.4633
551.28        25.59755
551.72        25.81775
552.15        26.02807
552.59        26.21725
553.03        26.61115
553.46        26.76435
553.90        26.94282
554.34        27.02087
554.77         27.0268
555.21        27.01226
555.65        27.05387
556.08        27.16987
556.52        27.33111
556.96        27.50627
557.39        27.68033
557.83        27.83003
558.27        27.89667
558.70        27.90026
559.14        27.92874
559.57        27.98502
560.01         28.0608
560.45         28.1345
560.88        28.13839
561.32        28.12775
561.75        28.18243
562.19         28.4016
562.63        28.53447
563.06         28.6007
563.50        28.68232
563.93        28.77683
564.37        28.93429
564.80         29.0203
565.24          29.148
565.68        29.26093
566.11        29.37355
566.55        29.50572
566.98        29.59858
567.42        29.63517
567.85        29.97593
568.29        29.85295
568.72        30.15911
569.16        30.57949
569.60        30.94376
570.03        31.02468
570.47        31.13697
570.90        31.09825
571.34        31.49027
571.77        31.30424
572.21         31.6257
572.64        31.74409
573.08        31.92525
573.51        31.87411
573.95        32.48434
574.38        32.75874
574.82        33.06236
