SpectraSmart Spectrum 2.9.0.0
--------- Device Information -----------
Spectrum Name :  反射率_0
Saving Time :  2024/04/20 00:38:39
Spectro-Module Model Name : SE2030-DUVN
Spectro-Module Serial Number : OS361AC55029948
Wavelength Start : 200
Wavelength End : 1025
Wavelength Unit : Wavelength(nm)
Spectrum Unit : Reflectance(%)
-----------Spectrum Setting ------------
Integration Time : 30ms
Average : 10
Boxcar : 0
Background removal :  enabled
linearity correction :  enabled
SC :  disabled
Intensity correction :  disabled
DWT denoise :  enabled
savitzky-golay :  disabled
FFT :  disabled
Running average :  disabled
Kalman :  disabled
High pass :  disabled
---------------BEGIN--------------------
Wavelength(nm)             Reflectance(%)
200.29               0
200.75        53.17539
201.21         53.0987
201.67        55.43247
202.13        61.21132
202.58          70.701
203.04        84.27868
203.50        97.45089
203.96        99.61213
204.42        90.61087
204.88        77.33098
205.34        65.97973
205.80        59.40845
206.26        56.47048
206.72         55.7917
207.18        56.97931
207.64        58.23552
208.10        57.90107
208.55        57.08711
209.01        56.10054
209.47        55.96002
209.93        56.55079
210.39        57.39746
210.85        57.66844
211.31         56.4532
211.77        53.48805
212.23        48.48899
212.69        42.73258
213.14          41.563
213.60        46.04559
214.06        52.91668
214.52        58.53519
214.98        61.19789
215.44        61.45092
215.90         59.8181
216.36        57.39748
216.81        56.68307
217.27        58.46599
217.73        61.94777
218.19        64.75225
218.65        63.64677
219.11        58.01859
219.57        48.34116
220.02        37.13923
220.48        31.30121
220.94        33.25102
221.40        41.71857
221.86        51.98193
222.32        56.72263
222.77        54.37946
223.23        47.53656
223.69        40.47844
224.15        39.21379
224.61        43.62566
225.06        50.29832
225.52        56.08604
225.98        58.48479
226.44        57.53904
226.90        54.50103
227.36        50.50841
227.81        47.51532
228.27        46.58139
228.73        46.85337
229.19        47.79814
229.65        48.81166
230.10        49.62271
230.56        50.42925
231.02        51.11816
231.48        51.53116
231.93        51.62749
232.39        51.43307
232.85        50.98304
233.31        50.40125
233.77         49.7445
234.22        49.01211
234.68         48.2372
235.14        47.38139
235.60         46.5108
236.05        45.71494
236.51        45.14088
236.97        44.94687
237.43        45.20836
237.88        46.09994
238.34        47.45537
238.80        48.90142
239.26        49.94713
239.71        50.36806
240.17        50.35721
240.63        50.85355
241.08        52.16388
241.54         54.1114
242.00        55.74346
242.46        55.19995
242.91        51.52482
243.37        43.67381
243.83        32.56554
244.28        26.57936
244.74        33.43272
245.20        50.83524
245.66        67.06061
246.11        72.36751
246.57        65.94918
247.03        48.29408
247.48        22.97078
247.94        12.82897
248.40        23.04334
248.85        37.94569
249.31        49.44556
249.77         55.8028
250.22        58.55164
250.68        59.69296
251.14        59.70839
251.59        58.90061
252.05        57.77386
252.51        56.05869
252.96         53.9306
253.42        52.34033
253.88        51.67875
254.33        51.85717
254.79        53.43922
255.25        56.56329
255.70        60.69101
256.16        65.13238
256.62        68.59462
257.07         69.6541
257.53        68.49792
257.99        65.68121
258.44        61.95799
258.90        59.12379
259.35        57.15413
259.81          56.099
260.27        55.10933
260.72        53.41583
261.18        51.24969
261.63        48.55048
262.09        46.26374
262.55        45.22261
263.00        45.35899
263.46        46.31572
263.91         47.0715
264.37        46.66537
264.83        45.09089
265.28          42.738
265.74        40.61391
266.19        39.70971
266.65        40.15735
267.11        41.39947
267.56        42.69591
268.02         42.9777
268.47        42.06351
268.93        40.33693
269.38        38.26643
269.84        36.83175
270.30        36.29152
270.75        36.36411
271.21        36.66981
271.66        36.64527
272.12         36.1256
272.57        35.28824
273.03        34.39621
273.48        33.75682
273.94        33.48556
274.39        33.43167
274.85        33.38246
275.31        33.01489
275.76        32.26776
276.22        31.28265
276.67        30.30624
277.13        29.79815
277.58         29.7592
278.04        30.04708
278.49        30.28431
278.95        30.00037
279.40        29.10977
279.86        27.88963
280.31        26.60805
280.77        25.76929
281.22        25.40848
281.68        25.37972
282.13        25.48427
282.59         25.4669
283.04        25.24625
283.50        24.93848
283.95        24.57538
284.41        24.22939
284.86        23.90755
285.32        23.59559
285.77        23.31114
286.22        23.15483
286.68        23.12663
287.13        23.18447
287.59        23.24327
288.04        23.15324
288.50        22.90846
288.95        22.52987
289.41        22.12869
289.86        21.80396
290.32        21.62986
290.77        21.56158
291.22        21.57457
291.68        21.59791
292.13        21.61697
292.59         21.6643
293.04        21.77642
293.50        22.02072
293.95        22.39298
294.40         22.8496
294.86        23.32714
295.31        23.74167
295.77        24.07153
296.22        24.34573
296.68         24.5895
297.13        24.82035
297.58        25.06937
298.04        25.34454
298.49        25.67613
298.95        26.14599
299.40        26.74237
299.85        27.42543
300.31        28.12852
300.76         28.7503
301.21         29.2529
301.67         29.6808
302.12        30.00601
302.58         30.2413
303.03        30.38875
303.48        30.47017
303.94        30.58402
304.39        30.84656
304.84        31.27929
305.30        31.82995
305.75        32.37348
306.20        32.73318
306.66         32.8837
307.11        32.86682
307.57        32.76875
308.02        32.65468
308.47        32.57833
308.93        32.51409
309.38        32.47454
309.83        32.52428
310.29        32.65454
310.74        32.85106
311.19        33.01748
311.65        32.99563
312.10        32.75769
312.55         32.3538
313.00        31.90493
313.46        31.59954
313.91        31.46644
314.36        31.46206
314.82        31.49667
315.27        31.44635
315.72        31.26663
316.18        31.01282
316.63         30.7279
317.08        30.47922
317.53        30.28407
317.99        30.10639
318.44        29.93976
318.89        29.76952
319.35        29.58879
319.80         29.4094
320.25        29.21428
320.70        28.97289
321.16        28.68073
321.61        28.35007
322.06        28.01642
322.51        27.74349
322.97        27.53891
323.42        27.38564
323.87        27.23989
324.32        27.03434
324.78        26.74555
325.23        26.40266
325.68         26.0203
326.13        25.62832
326.59        25.24968
327.04        24.90322
327.49        24.60769
327.94         24.3931
328.39        24.26224
328.85        24.18934
329.30        24.19104
329.75        24.25332
330.20        24.35089
330.66        24.45256
331.11        24.50915
331.56        24.39749
332.01         24.0962
332.46        23.63814
332.92        23.11434
333.37        22.68701
333.82        22.42111
334.27        22.29993
334.72        22.27909
335.17        22.26978
335.63        22.23039
336.08        22.18359
336.53        22.16499
336.98        22.24086
337.43        22.41233
337.88        22.64787
338.34        22.81731
338.79        22.76137
339.24        22.43764
339.69        21.89874
340.14        21.33976
340.59        21.08564
341.05        21.19937
341.50        21.59337
341.95         22.0527
342.40        22.23991
342.85        22.07771
343.30        21.68052
343.75        21.20474
344.20        20.90639
344.66        20.85312
345.11        20.93036
345.56        21.06827
346.01        21.15704
346.46         21.1475
346.91        21.09409
347.36        20.95152
347.81        20.63593
348.26        20.16829
348.72        19.61085
349.17        19.08257
349.62        18.86287
350.07        19.01078
350.52        19.42656
350.97        19.96759
351.42        20.41796
351.87        20.69802
352.32        20.85189
352.77        20.87174
353.22        20.75321
353.67        20.51908
354.13        20.18596
354.58        19.80787
355.03        19.51209
355.48        19.33786
355.93        19.27242
356.38        19.28239
356.83        19.30084
357.28        19.29804
357.73        19.27915
358.18        19.24933
358.63        19.21781
359.08        19.18336
359.53        19.14139
359.98        19.05567
360.43         18.8758
360.88        18.60567
361.33        18.26891
361.78        17.95202
362.23        17.79429
362.68        17.81583
363.13         17.9595
363.58        18.12294
364.03        18.14805
364.48        17.99156
364.93        17.70195
365.38        17.32621
365.83        16.94939
366.28        16.61822
366.73        16.31882
367.18        16.07418
367.63        15.91773
368.08        15.84606
368.53        15.84846
368.98        15.88749
369.43         15.8964
369.88        15.85695
370.33        15.78912
370.78        15.69069
371.23        15.56664
371.68        15.42702
372.13         15.2604
372.58        15.12397
373.03        15.11517
373.48        15.24052
373.93        15.46514
374.38         15.6745
374.83         15.6927
375.28        15.48698
375.72         15.1029
376.17        14.67556
376.62        14.38413
377.07        14.28563
377.52          14.329
377.97        14.43869
378.42        14.49608
378.87        14.46444
379.32         14.3771
379.77        14.28052
380.22        14.23987
380.67         14.2668
381.11        14.33895
381.56        14.38858
382.01        14.32451
382.46        14.13063
382.91         13.8395
383.36        13.54665
383.81        13.39215
384.26        13.40401
384.71        13.54624
385.15        13.70862
385.60        13.72339
386.05        13.55651
386.50        13.25591
386.95        12.94844
387.40         12.8334
387.85        12.94371
388.29        13.20685
388.74        13.46941
389.19         13.5212
389.64        13.32628
390.09        12.95417
390.54        12.54916
390.98        12.33402
391.43        12.37462
391.88        12.58588
392.33        12.82972
392.78        12.90908
393.23        12.79243
393.67        12.54337
394.12        12.29827
394.57        12.19878
395.02        12.27246
395.47        12.46902
395.91        12.69278
396.36         12.7643
396.81        12.64328
397.26        12.38627
397.71         12.1111
398.15        11.97775
398.60         12.0311
399.05        12.20718
399.50        12.39707
399.95        12.44579
400.39        12.32219
400.84        12.07496
401.29        11.80953
401.74        11.71576
402.18        11.84731
402.63        12.12894
403.08        12.43128
403.53        12.55338
403.97        12.44993
404.42        12.19564
404.87        11.89951
405.32        11.73934
405.76        11.76144
406.21        11.90457
406.66        12.08749
407.11        12.18507
407.55        12.16359
408.00        12.06769
408.45        11.94166
408.90        11.82849
409.34        11.76421
409.79        11.78483
410.24        11.84957
410.68        11.84898
411.13        11.77535
411.58        11.69165
412.03        11.61694
412.47        11.56627
412.92        11.54746
413.37        11.54417
413.81        11.57223
414.26        11.66921
414.71        11.82528
415.15        12.03507
415.60        12.20625
416.05        12.21063
416.49        12.02365
416.94        11.69586
417.39        11.33901
417.83        11.13536
418.28        11.13688
418.73        11.28177
419.17        11.48845
419.62        11.61327
420.07        11.61988
420.51        11.55355
420.96        11.44937
421.41        11.34605
421.85        11.25864
422.30        11.17962
422.74         11.1184
423.19        11.11428
423.64        11.16286
424.08        11.26392
424.53        11.36739
424.98         11.4028
425.42         11.3543
425.87        11.24669
426.31        11.11394
426.76        11.01902
427.21        10.97093
427.65        10.94258
428.10        10.94556
428.54         10.9786
428.99        11.03593
429.44        11.16893
429.88        11.29687
430.33        11.21389
430.77        10.96169
431.22        10.77152
431.66        10.70303
432.11        10.72978
432.56         10.8469
433.00        11.09122
433.45        11.31981
433.89        11.31015
434.34        11.11604
434.78        10.87227
435.23        10.59951
435.67        11.03639
436.12        10.64752
436.57        10.57252
437.01        10.40197
437.46        10.33957
437.90        10.39137
438.35        10.46715
438.79        10.53021
439.24        10.56968
439.68        10.57177
440.13        10.44985
440.57        10.27345
441.02        10.31919
441.46        10.49274
441.91        10.47052
442.35        10.01067
442.80        9.818372
443.24        9.787887
443.69        9.707405
444.13        9.572368
444.58        9.488466
445.02        9.461884
445.47         9.48983
445.91        9.540968
446.36         9.54403
446.80        9.482286
447.24        9.386065
447.69         9.28602
448.13        9.205262
448.58        9.159252
449.02        9.140418
449.47        9.128448
449.91        9.087143
450.36        9.014832
450.80        8.921437
451.25        8.846738
451.69        8.838684
452.13        8.907204
452.58        9.026552
453.02        9.154847
453.47        9.223132
453.91        9.218094
454.36         9.15873
454.80        9.075697
455.24        9.023822
455.69        9.023194
456.13        9.044087
456.58        9.079026
457.02        9.112812
457.46        9.138652
457.91        9.142645
458.35        9.127688
458.79        9.113089
459.24        9.101665
459.68        9.086341
460.13        9.102178
460.57        9.111862
461.01        9.109309
461.46        9.336611
461.90        9.421732
462.34        9.345953
462.79        9.417778
463.23        9.327204
463.68        9.239557
464.12        9.173698
464.56        9.219171
465.01        9.299336
465.45        9.385968
465.89        9.444139
466.34        9.468381
466.78        9.440584
467.22        9.393206
467.67        9.446388
468.11         9.57949
468.55         9.60014
468.99        9.521877
469.44        9.523747
469.88        9.612941
470.32        9.688401
470.77        9.722884
471.21        9.727024
471.65        9.695454
472.10        9.630678
472.54        9.557618
472.98        9.542304
473.42        9.595456
473.87        9.669972
474.31        9.742449
474.75        9.831937
475.20        9.908785
475.64        9.875983
476.08        9.779376
476.52        9.776742
476.97        9.879805
477.41        10.01975
477.85        10.14619
478.29        10.20763
478.74        10.19002
479.18        10.09166
479.62         9.97974
480.06        9.961893
480.50        10.04246
480.95        10.13943
481.39        10.20686
481.83         10.2223
482.27        10.17916
482.72        10.09307
483.16        9.998079
483.60        9.964271
484.04        10.00095
484.48        10.09819
484.93        10.31051
485.37          10.481
485.81        10.57714
486.25          11.042
486.69        11.29176
487.14         10.5774
487.58        10.68874
488.02        11.40079
488.46         11.0288
488.90        11.09388
489.34        10.94919
489.79        11.04728
490.23        11.32128
490.67        11.48673
491.11        11.50735
491.55        11.40877
491.99        11.23827
492.43        11.13468
492.88        11.13144
493.32        11.12626
493.76         11.1436
494.20        11.27243
494.64        11.51193
495.08        11.82514
495.52        12.14445
495.96        12.37546
496.41        12.49401
496.85        12.50332
497.29        12.45727
497.73        12.50551
498.17        12.65478
498.61        12.75389
499.05        12.80025
499.49        12.91806
499.93        13.10777
500.37        13.26628
500.82        13.38686
501.26        13.56998
501.70        13.77913
502.14        13.82769
502.58        13.74917
503.02         13.7579
503.46        13.87072
503.90        13.97923
504.34        14.04997
504.78        14.07502
505.22        14.04777
505.66        13.98092
506.10         13.9098
506.54        13.88705
506.98         13.9302
507.42        14.02799
507.86        14.16204
508.30        14.30087
508.74        14.42795
509.18        14.54229
509.62        14.64988
510.06        14.76099
510.50        14.87669
510.94        14.99636
511.38        15.08776
511.82        15.10176
512.26        15.03537
512.70        14.90453
513.14        14.78179
513.58        14.77835
514.02         14.9064
514.46        15.13085
514.90        15.36291
515.34        15.40683
515.78        15.24474
516.22        15.02326
516.66        14.84623
517.10        14.51638
517.54        14.06728
517.98        14.69685
518.42        14.58549
518.86        14.87199
519.30        14.99119
519.74        15.12719
520.18        15.24011
520.62        15.24193
521.06        15.14662
521.50        14.96141
521.93        14.74903
522.37        14.62387
522.81        14.61208
523.25        14.68333
523.69         14.7901
524.13        14.85522
524.57        14.85401
525.01        14.80785
525.45        14.73696
525.89        14.67265
526.32         14.6255
526.76        14.58658
527.20         14.5422
527.64        14.47707
528.08        14.38841
528.52        14.28124
528.96        14.18126
529.40        14.12366
529.83        14.11353
530.27        14.14527
530.71        14.17313
531.15         14.1254
531.59        13.99375
532.03        13.80326
532.46        13.61928
532.90        13.55897
533.34        13.63412
533.78        13.79886
534.22        13.97985
534.66        14.06483
535.09        14.02278
535.53        13.89755
535.97        13.72479
536.41        13.55879
536.85        13.42655
537.28        13.32205
537.72        13.26424
538.16        13.24062
538.60        13.31502
539.04        13.42459
539.47        13.55348
539.91        13.67923
540.35        13.79706
540.79         13.7915
541.22        13.85509
541.66        13.91428
542.10        14.04024
542.54        13.99763
542.97        14.14955
543.41        14.22585
543.85         14.3264
544.29        14.42392
544.72        14.50728
545.16        14.59895
545.60        14.69658
546.04        14.74741
546.47        14.79974
546.91        15.02573
547.35         15.3834
547.79        15.66629
548.22        15.82646
548.66        15.89861
549.10        15.91151
549.53        15.98606
549.97         16.1459
550.41        16.13407
550.84        16.25942
551.28        16.35515
551.72        16.52498
552.15        16.73449
552.59        16.97572
553.03        17.24617
553.46        17.49358
553.90        17.65393
554.34        17.71721
554.77        17.70304
555.21        17.66511
555.65        17.68093
556.08        17.76827
556.52        17.90327
556.96        18.05642
557.39         18.2048
557.83        18.32835
558.27        18.39249
558.70        18.41048
559.14        18.43778
559.57        18.47624
560.01         18.5189
560.45        18.55335
560.88         18.5385
561.32        18.51418
561.75        18.53427
562.19        18.66173
562.63         18.7268
563.06        18.74333
563.50        18.76706
563.93        18.80756
564.37        18.91344
564.80         18.9995
565.24        19.13472
565.68        19.26484
566.11        19.37245
566.55        19.46588
566.98        19.51377
567.42        19.52821
567.85        19.77407
568.29        19.74752
568.72        20.04115
569.16        20.42805
569.60        20.69052
570.03        20.79458
570.47        20.87161
570.90        20.85336
571.34        21.13418
571.77        21.03145
572.21        21.29714
572.64        21.51173
573.08        21.58812
573.51        21.71858
573.95        22.37301
574.38        22.48911
574.82        22.68111
