SpectraSmart Spectrum 2.9.0.0
--------- Device Information -----------
Spectrum Name :  反射率_0
Saving Time :  2024/04/20 00:05:56
Spectro-Module Model Name : SE2030-DUVN
Spectro-Module Serial Number : OS361AC55029948
Wavelength Start : 200
Wavelength End : 1025
Wavelength Unit : Wavelength(nm)
Spectrum Unit : Reflectance(%)
-----------Spectrum Setting ------------
Integration Time : 30ms
Average : 10
Boxcar : 0
Background removal :  enabled
linearity correction :  enabled
SC :  disabled
Intensity correction :  disabled
DWT denoise :  enabled
savitzky-golay :  disabled
FFT :  disabled
Running average :  disabled
Kalman :  disabled
High pass :  disabled
---------------BEGIN--------------------
Wavelength(nm)             Reflectance(%)
200.29               0
200.75        52.48745
201.21        52.39961
201.67        54.58447
202.13        59.54456
202.58        67.30656
203.04        78.17924
203.50        88.97657
203.96        91.77092
204.42        86.07539
204.88        76.82185
205.34        68.46625
205.80        63.01254
206.26        59.53573
206.72        56.65711
207.18        54.12043
207.64        52.68155
208.10        53.35571
208.55        56.43999
209.01        59.39158
209.47        60.67264
209.93        60.34042
210.39         58.8658
210.85        56.87022
211.31        55.00084
211.77        53.22235
212.23        51.16441
212.69        48.81276
213.14        47.25963
213.60        47.01961
214.06        48.17144
214.52        49.84606
214.98        51.66271
215.44        53.67244
215.90        55.73936
216.36        58.28432
216.81        61.62711
217.27         65.1749
217.73        68.74462
218.19        70.54317
218.65        68.16839
219.11        61.36583
219.57        50.27822
220.02        37.79119
220.48        31.72527
220.94        34.79612
221.40        45.50569
221.86         58.4619
222.32         65.2351
222.77        63.81834
223.23        56.99841
223.69        48.91501
224.15         45.5536
224.61        47.36134
225.06        51.39974
225.52        54.95996
225.98         55.8117
226.44        53.88202
226.90        50.22176
227.36        46.00511
227.81        43.24114
228.27        42.90496
228.73        44.07591
229.19        45.81292
229.65        47.04305
230.10         47.5492
230.56        47.71505
231.02        47.85374
231.48        48.35992
231.93        49.18933
232.39        50.10131
232.85        50.75705
233.31        50.69657
233.77        49.83775
234.22        48.39484
234.68        46.59557
235.14        44.75999
235.60        43.13516
236.05        41.73005
236.51        40.72705
236.97        40.30403
237.43        40.53132
237.88        41.68508
238.34        43.56189
238.80        45.43474
239.26         46.5905
239.71        46.74577
240.17        46.43758
240.63        47.24889
241.08        49.55678
241.54        52.92591
242.00        55.91676
242.46        55.81616
242.91         51.2822
243.37        41.23001
243.83        26.21494
244.28        15.38668
244.74        18.69562
245.20        35.02215
245.66        52.64727
246.11        61.15136
246.57        59.86589
247.03        50.31507
247.48        35.40739
247.94        30.76354
248.40        38.97325
248.85        49.35301
249.31        56.86585
249.77        60.63486
250.22         61.7161
250.68        61.34284
251.14         60.0839
251.59        58.81248
252.05          58.272
252.51        58.25692
252.96        57.93964
253.42         56.3364
253.88        53.55821
254.33        50.39893
254.79        48.76366
255.25        50.10332
255.70        53.87691
256.16        58.81242
256.62        62.94569
257.07        64.11673
257.53        62.48113
257.99        58.94317
258.44        54.77473
258.90        52.27099
259.35        51.23697
259.81        51.24374
260.27        51.09607
260.72        49.79028
261.18        47.60806
261.63        44.63255
262.09        42.03845
262.55        40.96836
263.00        41.36802
263.46        42.74979
263.91        43.83118
264.37        43.32212
264.83        41.26284
265.28        38.21441
265.74        35.49165
266.19        34.52055
266.65        35.43098
267.11        37.46505
267.56        39.57777
268.02          40.283
268.47         39.3301
268.93        37.23882
269.38        34.66696
269.84        32.92078
270.30        32.35868
270.75        32.58743
271.21        33.11023
271.66        33.19442
272.12        32.63823
272.57        31.71419
273.03        30.72769
273.48        30.04252
273.94        29.79272
274.39         29.7825
274.85        29.83719
275.31        29.70871
275.76        29.31806
276.22        28.76989
276.67         28.1668
277.13         27.7474
277.58        27.50148
278.04        27.37896
278.49        27.18606
278.95        26.70895
279.40        25.90825
279.86        24.95676
280.31        24.00203
280.77        23.36949
281.22        23.05609
281.68        22.97775
282.13        22.98805
282.59        22.89702
283.04        22.65444
283.50         22.3565
283.95        22.02965
284.41        21.73911
284.86        21.49009
285.32        21.26359
285.77        21.09566
286.22        21.10623
286.68        21.28216
287.13        21.56517
287.59        21.80803
288.04        21.78012
288.50        21.46916
288.95        20.92812
289.41        20.34349
289.86        19.93606
290.32        19.80814
290.77        19.88073
291.22        20.06933
291.68        20.20885
292.13        20.26835
292.59        20.32057
293.04        20.44393
293.50        20.76522
293.95        21.29893
294.40        21.97756
294.86        22.72768
295.31        23.45314
295.77        24.12198
296.22        24.76526
296.68        25.38744
297.13        25.97134
297.58        26.53416
298.04        27.08128
298.49        27.66389
298.95        28.40272
299.40        29.29837
299.85        30.31182
300.31        31.34635
300.76        32.24926
301.21        32.98125
301.67        33.60514
302.12        34.15556
302.58        34.74721
303.03        35.38231
303.48        36.03687
303.94        36.71678
304.39        37.39182
304.84        38.05592
305.30         38.7125
305.75        39.30136
306.20        39.75158
306.66        40.07783
307.11        40.29055
307.57         40.4682
308.02        40.65578
308.47         40.8916
308.93        41.14523
309.38        41.41264
309.83        41.74001
310.29        42.10876
310.74        42.50457
311.19        42.80423
311.65        42.80989
312.10        42.49966
312.55        41.95102
313.00        41.36455
313.46         41.0483
313.91         41.0574
314.36        41.31855
314.82        41.66986
315.27        41.86463
315.72        41.81415
316.18        41.60326
316.63        41.31834
317.08        41.10456
317.53        41.00058
317.99        40.94688
318.44        40.89555
318.89        40.76537
319.35        40.53673
319.80        40.24696
320.25        39.94298
320.70        39.69377
321.16        39.51193
321.61        39.37879
322.06        39.24918
322.51        39.05591
322.97        38.77395
323.42        38.43224
323.87        38.06033
324.32        37.71339
324.78        37.40369
325.23        37.12987
325.68        36.86199
326.13        36.55716
326.59        36.20891
327.04        35.86103
327.49        35.54596
327.94         35.3182
328.39        35.18677
328.85        35.10667
329.30        35.09162
329.75        35.10788
330.20        35.13101
330.66         35.1459
331.11        35.12151
331.56        34.95166
332.01        34.62242
332.46        34.15723
332.92        33.65224
333.37        33.29206
333.82        33.13188
334.27         33.1465
334.72        33.24255
335.17        33.25045
335.63        33.10636
336.08        32.85974
336.53         32.6046
336.98        32.51383
337.43        32.62256
337.88        32.87774
338.34        33.10286
338.79        33.06161
339.24        32.68919
339.69        32.06344
340.14        31.41728
340.59        31.13811
341.05        31.30195
341.50        31.78921
341.95        32.34456
342.40        32.57432
342.85        32.38787
343.30        31.92207
343.75        31.35254
344.20        30.96621
344.66        30.84619
345.11        30.86948
345.56        30.97713
346.01        31.07583
346.46        31.11497
346.91         31.1448
347.36        31.09032
347.81        30.82125
348.26         30.3458
348.72        29.72972
349.17         29.1229
349.62        28.85547
350.07        28.99868
350.52         29.4411
350.97        29.99892
351.42        30.39395
351.87        30.53811
352.32        30.49624
352.77        30.32136
353.22        30.10455
353.67         29.8871
354.13        29.65681
354.58        29.39172
355.03         29.1047
355.48        28.81193
355.93        28.53968
356.38        28.32785
356.83        28.22354
357.28        28.22438
357.73        28.29748
358.18        28.38713
358.63        28.40546
359.08        28.31956
359.53        28.15045
359.98        27.90621
360.43        27.60099
360.88        27.25518
361.33        26.87645
361.78        26.50865
362.23        26.22613
362.68        26.04475
363.13        25.93775
363.58        25.87229
364.03        25.79154
364.48        25.66742
364.93        25.51089
365.38        25.29418
365.83        24.97778
366.28        24.57293
366.73         24.1049
367.18        23.64853
367.63        23.32077
368.08         23.1453
368.53        23.08402
368.98          23.085
369.43        23.06041
369.88         22.9808
370.33        22.87553
370.78        22.73323
371.23        22.54017
371.68        22.30305
372.13        22.01132
372.58        21.73769
373.03        21.61022
373.48        21.64516
373.93        21.80247
374.38        21.95397
374.83          21.899
375.28        21.59931
375.72         21.1097
376.17        20.57699
376.62        20.20061
377.07        20.04253
377.52        20.04152
377.97        20.11648
378.42        20.14037
378.87        20.07347
379.32        19.95624
379.77        19.82571
380.22        19.73151
380.67        19.68522
381.11        19.66663
381.56        19.63506
382.01        19.54883
382.46        19.39778
382.91        19.19469
383.36        18.98866
383.81        18.84918
384.26        18.78927
384.71        18.79657
385.15        18.79895
385.60        18.69026
386.05        18.45578
386.50        18.13181
386.95        17.82698
387.40        17.71123
387.85        17.81018
388.29        18.05757
388.74        18.32409
389.19        18.42314
389.64        18.31754
390.09        18.06005
390.54        17.75788
390.98        17.57723
391.43        17.57399
391.88        17.67904
392.33        17.79202
392.78        17.76992
393.23        17.59623
393.67        17.32249
394.12        17.06294
394.57        16.91151
395.02        16.88989
395.47        16.96051
395.91        17.07496
396.36        17.13054
396.81        17.10377
397.26        17.02026
397.71        16.92679
398.15        16.87915
398.60        16.90973
399.05         16.9853
399.50        17.05709
399.95         17.0578
400.39        16.97449
400.84         16.8268
401.29        16.67518
401.74        16.62939
402.18        16.72095
402.63         16.9068
403.08        17.09756
403.53         17.1492
403.97        17.03249
404.42        16.80163
404.87         16.5542
405.32        16.45184
405.76        16.52934
406.21        16.73193
406.66        16.96538
407.11        17.08146
407.55        17.04667
408.00        16.91539
408.45        16.75196
408.90        16.62482
409.34        16.58397
409.79        16.67558
410.24        16.84355
410.68        16.93438
411.13        16.93154
411.58        16.91816
412.03        16.89786
412.47        16.85189
412.92        16.78615
413.37        16.69917
413.81        16.64231
414.26           16.71
414.71        16.90618
415.15        17.21251
415.60           17.51
416.05        17.62626
416.49        17.51854
416.94        17.24344
417.39        16.92287
417.83        16.75607
418.28        16.80003
418.73        16.98642
419.17        17.22041
419.62        17.34349
420.07        17.32026
420.51        17.20672
420.96        17.06742
421.41        16.97868
421.85        16.96092
422.30        16.99752
422.74        17.06658
423.19        17.17012
423.64        17.29178
424.08        17.43977
424.53         17.5805
424.98        17.67979
425.42        17.72828
425.87        17.73651
426.31         17.7037
426.76        17.64178
427.21        17.55264
427.65        17.42973
428.10        17.33483
428.54        17.34523
428.99        17.47423
429.44         17.7672
429.88        18.08287
430.33        18.08191
430.77        17.81275
431.22        17.65686
431.66        17.67481
432.11        17.75986
432.56        17.89421
433.00        18.13533
433.45        18.34091
433.89        18.30012
434.34        18.09609
434.78        17.91848
435.23        17.77784
435.67         18.3007
436.12        18.03757
436.57         17.9488
437.01        17.69421
437.46        17.62293
437.90        17.76195
438.35        17.94103
438.79        18.07914
439.24        18.15549
439.68        18.14952
440.13        17.92629
440.57        17.63298
441.02        17.78622
441.46        18.23077
441.91        18.38262
442.35        17.77027
442.80        17.58079
443.24        17.63075
443.69        17.54946
444.13        17.34101
444.58        17.20925
445.02        17.17657
445.47        17.23345
445.91        17.33128
446.36        17.35157
446.80        17.27002
447.24        17.14515
447.69        17.02517
448.13        16.94497
448.58        16.92602
449.02        16.95186
449.47         16.9926
449.91        16.99458
450.36        16.95177
450.80        16.87851
451.25        16.81599
451.69        16.80897
452.13         16.8703
452.58        16.97323
453.02        17.08566
453.47        17.16112
453.91        17.18751
454.36        17.17839
454.80        17.14196
455.24        17.09178
455.69        17.04385
456.13        16.97674
456.58        16.92061
457.02        16.91066
457.46        16.94888
457.91        16.98896
458.35        17.01139
458.79        17.02881
459.24        17.03218
459.68         17.0195
460.13        17.05182
460.57        17.06153
461.01        17.03451
461.46        17.43183
461.90         17.5534
462.34        17.37741
462.79        17.47808
463.23        17.27774
463.68        17.09208
464.12        16.97932
464.56        17.09812
465.01        17.30159
465.45        17.50938
465.89         17.6026
466.34        17.56265
466.78         17.4103
467.22        17.24603
467.67        17.13912
468.11        17.40944
468.55        17.42143
468.99        17.28211
469.44        17.27327
469.88         17.4002
470.32        17.48914
470.77        17.50999
471.21         17.5132
471.65        17.49648
472.10        17.44683
472.54         17.3904
472.98        17.40783
473.42        17.50758
473.87        17.61658
474.31        17.70835
474.75        17.85031
475.20         17.9953
475.64        17.95783
476.08         17.8042
476.52        17.79478
476.97        17.94732
477.41        18.14481
477.85        18.31629
478.29         18.4006
478.74        18.38016
479.18        18.24533
479.62        18.09777
480.06        18.09771
480.50        18.25117
480.95        18.42849
481.39        18.56178
481.83        18.63479
482.27         18.6306
482.72        18.54871
483.16        18.45082
483.60        18.44373
484.04        18.53763
484.48        18.78998
484.93         19.1795
485.37         19.3688
485.81        19.12143
486.25        19.84606
486.69        20.46877
487.14        19.93872
487.58        19.88979
488.02        20.44484
488.46        19.97141
488.90        20.11963
489.34        20.23232
489.79        20.44703
490.23        20.66992
490.67        20.79617
491.11        20.82738
491.55        20.78802
491.99         20.7245
492.43        20.70909
492.88        20.76942
493.32         20.8743
493.76        21.02089
494.20        21.21047
494.64        21.43516
495.08        21.68954
495.52        21.94201
495.96        22.15895
496.41        22.33339
496.85        22.43017
497.29        22.48317
497.73        22.65687
498.17        22.92891
498.61        23.05276
499.05        23.04893
499.49         23.1854
499.93        23.47631
500.37        23.71608
500.82        23.88674
501.26        24.15627
501.70        24.46007
502.14        24.48203
502.58         24.2844
503.02        24.24314
503.46        24.39025
503.90        24.53265
504.34        24.63159
504.78        24.70623
505.22         24.7437
505.66        24.74886
506.10        24.73909
506.54         24.7369
506.98        24.75604
507.42        24.79735
507.86        24.86515
508.30        24.96581
508.74         25.0942
509.18        25.23756
509.62        25.39451
510.06        25.56172
510.50        25.73217
510.94        25.90952
511.38          26.047
511.82        26.07192
512.26        25.97833
512.70        25.78712
513.14        25.59774
513.58        25.56418
514.02        25.70903
514.46        25.99036
514.90         26.2927
515.34        26.36225
515.78        26.20096
516.22        25.93283
516.66        25.69551
517.10        25.37527
517.54        25.01745
517.98        25.64673
518.42        25.64771
518.86         25.9703
519.30          26.108
519.74        26.23207
520.18        26.32275
520.62         26.3269
521.06        26.26209
521.50         26.1253
521.93        25.95587
522.37        25.83125
522.81        25.77217
523.25        25.76505
523.69        25.78833
524.13        25.80301
524.57        25.79506
525.01        25.77428
525.45        25.74695
525.89        25.72177
526.32        25.69996
526.76        25.67795
527.20        25.64358
527.64        25.58484
528.08        25.49905
528.52        25.38688
528.96        25.27229
529.40        25.18946
529.83        25.14384
530.27        25.13617
530.71        25.12225
531.15        25.03382
531.59         24.8654
532.03        24.64227
532.46        24.43336
532.90        24.36485
533.34        24.44715
533.78        24.63165
534.22        24.83473
534.66        24.92819
535.09        24.87635
535.53        24.73002
535.97        24.53383
536.41        24.35623
536.85        24.22756
537.28          24.142
537.72        24.11237
538.16        24.08451
538.60        24.17097
539.04        24.26536
539.47        24.36892
539.91        24.49134
540.35        24.63783
540.79        24.59461
541.22        24.68828
541.66        24.75958
542.10        24.92838
542.54        24.78956
542.97        25.00174
543.41        25.10656
543.85        25.28232
544.29        25.46305
544.72        25.61584
545.16        25.76384
545.60        25.89451
546.04        25.92269
546.47        25.92523
546.91        26.18694
547.35        26.64297
547.79        26.95158
548.22        27.06687
548.66        27.10233
549.10        27.11064
549.53        27.27634
549.97        27.61794
550.41        27.66042
550.84        27.90911
551.28        28.09859
551.72        28.38695
552.15        28.63111
552.59        28.81371
553.03        29.15531
553.46        29.26899
553.90        29.42445
554.34        29.51384
554.77        29.55211
555.21        29.57713
555.65        29.64328
556.08        29.76109
556.52        29.90884
556.96         30.0626
557.39         30.2205
557.83        30.36432
558.27         30.4276
558.70        30.42723
559.14        30.45884
559.57         30.5236
560.01        30.59217
560.45        30.65296
560.88        30.68642
561.32        30.72629
561.75          30.782
562.19        30.96472
562.63        31.02163
563.06        31.01404
563.50        31.13818
563.93        31.35366
564.37        31.53805
564.80        31.53387
565.24        31.57287
565.68        31.62159
566.11        31.67414
566.55        31.75962
566.98        31.84705
567.42        31.93385
567.85        32.22022
568.29        32.24624
568.72        32.53675
569.16        32.91115
569.60        33.18733
570.03        33.31665
570.47        33.50211
570.90        33.56338
571.34        33.82746
571.77        33.34377
572.21        33.85663
572.64        34.21283
573.08        34.44529
573.51        34.56703
573.95        34.69201
574.38        35.18192
574.82        35.40533
