SpectraSmart Spectrum 2.9.0.0
--------- Device Information -----------
Spectrum Name :  反射率_0
Saving Time :  2024/04/20 00:32:43
Spectro-Module Model Name : SE2030-DUVN
Spectro-Module Serial Number : OS361AC55029948
Wavelength Start : 200
Wavelength End : 1025
Wavelength Unit : Wavelength(nm)
Spectrum Unit : Reflectance(%)
-----------Spectrum Setting ------------
Integration Time : 30ms
Average : 10
Boxcar : 0
Background removal :  enabled
linearity correction :  enabled
SC :  disabled
Intensity correction :  disabled
DWT denoise :  enabled
savitzky-golay :  disabled
FFT :  disabled
Running average :  disabled
Kalman :  disabled
High pass :  disabled
---------------BEGIN--------------------
Wavelength(nm)             Reflectance(%)
200.29               0
200.75         64.2888
201.21        62.65147
201.67        62.34429
202.13        65.36141
202.58        72.59447
203.04         84.1029
203.50        96.10854
203.96        99.01131
204.42        92.12077
204.88        81.55811
205.34        72.09872
205.80        65.65771
206.26        61.12244
206.72        56.67635
207.18        52.31894
207.64        50.79034
208.10        54.42044
208.55        62.36717
209.01        69.42014
209.47          72.005
209.93        70.65767
210.39        66.77367
210.85        62.43019
211.31        59.89052
211.77        59.46145
212.23        60.76182
212.69        63.14981
213.14        64.27959
213.60        62.89567
214.06        60.96003
214.52        59.99266
214.98        61.05421
215.44        63.98073
215.90        68.23678
216.36         73.2636
216.81        77.07568
217.27        78.33834
217.73        77.89594
218.19        75.87404
218.65        72.32291
219.11        67.40665
219.57        60.64729
220.02        53.62962
220.48        51.09197
220.94        54.27737
221.40        62.42821
221.86        71.36882
222.32        74.61823
222.77        70.94412
223.23        62.70338
223.69        54.04457
224.15        50.95717
224.61        53.62336
225.06        58.91313
225.52        63.84594
225.98        65.93659
226.44        65.10977
226.90          62.429
227.36        58.98679
227.81        56.61175
228.27        56.23624
228.73           57.06
229.19          58.229
229.65        58.77487
230.10         58.5676
230.56        58.05884
231.02        57.71727
231.48        58.14937
231.93        59.26765
232.39        60.73615
232.85        61.97325
233.31        62.14585
233.77        61.10289
234.22        59.20858
234.68        56.86154
235.14        54.68951
235.60        53.07876
236.05        51.96466
236.51        51.51707
236.97        51.95446
237.43        53.38345
237.88        56.18914
238.34        60.11926
238.80          64.036
239.26        66.66122
239.71        67.59501
240.17        67.04069
240.63        66.42961
241.08        66.32521
241.54        66.36959
242.00        66.06711
242.46        64.29969
242.91         60.4137
243.37        53.69981
243.83        44.81532
244.28        39.76999
244.74        44.39812
245.20         57.3745
245.66        70.08139
246.11        75.49149
246.57           73.15
247.03        63.61726
247.48        49.11502
247.94        43.67767
248.40         50.1153
248.85        59.00379
249.31        65.62511
249.77        68.85481
250.22        69.59167
250.68        69.04264
251.14         67.5888
251.59        65.84541
252.05        64.53519
252.51        63.54457
252.96        62.91675
253.42        62.98625
253.88        63.79211
254.33        65.23649
254.79        67.70049
255.25        71.21922
255.70         75.3742
256.16        79.57595
256.62        83.04577
257.07        84.97441
257.53        85.48036
257.99        84.75668
258.44        82.70439
258.90        80.20816
259.35        77.44486
259.81        75.35175
260.27        73.62248
260.72        71.94421
261.18        70.53651
261.63        68.93875
262.09        67.86137
262.55        67.70113
263.00        68.23145
263.46        69.30711
263.91        69.93399
264.37        69.33916
264.83        67.52087
265.28        64.83332
265.74        62.32672
266.19        60.93842
266.65         60.8777
267.11         61.6023
267.56        62.43018
268.02         62.4091
268.47        61.33416
268.93        59.55099
269.38        57.44772
269.84        55.87391
270.30        55.05464
270.75        54.74841
271.21        54.62054
271.66        54.14941
272.12        53.20276
272.57        51.93914
273.03        50.65582
273.48        49.69868
273.94        49.20118
274.39        48.98293
274.85        48.80666
275.31        48.27563
275.76        47.30008
276.22        46.04877
276.67        44.77041
277.13        43.96814
277.58        43.64095
278.04        43.66104
278.49        43.62686
278.95        43.07594
279.40        41.90782
279.86        40.42206
280.31        38.89494
280.77        37.87993
281.22        37.39325
281.68        37.28574
282.13        37.30318
282.59         37.1368
283.04         36.6926
283.50        36.13352
283.95        35.52839
284.41        35.02686
284.86        34.64338
285.32        34.34852
285.77        34.13605
286.22        34.08631
286.68        34.18208
287.13        34.35872
287.59        34.52382
288.04        34.49393
288.50        34.26532
288.95         33.8605
289.41        33.39006
289.86        32.94357
290.32        32.61777
290.77        32.38371
291.22         32.2705
291.68        32.28225
292.13        32.41306
292.59        32.68418
293.04        33.09137
293.50        33.64359
293.95        34.31565
294.40        35.08686
294.86        35.90608
295.31        36.70916
295.77        37.47886
296.22        38.21979
296.68        38.95971
297.13        39.72766
297.58        40.53589
298.04        41.37732
298.49        42.22162
298.95        43.07019
299.40        43.89845
299.85        44.70434
300.31        45.49794
300.76        46.27691
301.21        47.04093
301.67        47.82017
302.12         48.5403
302.58        49.17691
303.03        49.70235
303.48        50.15743
303.94        50.65947
304.39        51.33405
304.84        52.20128
305.30        53.19167
305.75        54.13203
306.20         54.7965
306.66        55.15984
307.11        55.27641
307.57        55.27865
308.02        55.27215
308.47        55.33051
308.93        55.40881
309.38        55.51173
309.83        55.71525
310.29        56.00757
310.74        56.37388
311.19        56.66444
311.65        56.62972
312.10        56.23122
312.55        55.55501
313.00        54.83875
313.46        54.45076
313.91         54.4516
314.36        54.74719
314.82        55.11806
315.27        55.23019
315.72        54.98068
316.18        54.49809
316.63        53.93162
317.08        53.52722
317.53        53.34654
317.99        53.29419
318.44         53.2881
318.89        53.18753
319.35        52.94731
319.80        52.62283
320.25        52.25621
320.70        51.90918
321.16        51.59901
321.61        51.31229
322.06         51.0273
322.51        50.72116
322.97        50.37948
323.42         50.0232
323.87        49.66933
324.32         49.3498
324.78        49.06283
325.23        48.81947
325.68        48.57043
326.13        48.24517
326.59        47.83205
327.04        47.38104
327.49        46.95896
327.94        46.68418
328.39        46.57745
328.85        46.57127
329.30        46.64031
329.75        46.65961
330.20        46.58123
330.66        46.41733
331.11        46.18795
331.56        45.86025
332.01        45.44517
332.46        44.94672
332.92        44.43451
333.37        44.06233
333.82         43.8673
334.27        43.83709
334.72        43.89142
335.17        43.87896
335.63        43.74048
336.08        43.52786
336.53        43.31451
336.98        43.24895
337.43        43.35994
337.88        43.59528
338.34         43.8108
338.79        43.82676
339.24        43.58393
339.69        43.14403
340.14          42.672
340.59        42.44324
341.05        42.51284
341.50        42.79637
341.95        43.12824
342.40        43.25288
342.85        43.11023
343.30        42.79756
343.75        42.41357
344.20         42.1164
344.66        41.96007
345.11        41.87131
345.56        41.85497
346.01        41.91777
346.46         42.0333
346.91        42.20544
347.36        42.32659
347.81        42.22342
348.26        41.88014
348.72        41.37033
349.17        40.81917
349.62        40.51226
350.07        40.51888
350.52        40.74399
350.97        41.05499
351.42        41.25084
351.87        41.26476
352.32         41.1503
352.77        40.93456
353.22        40.66059
353.67        40.36154
354.13        40.04766
354.58        39.71788
355.03        39.42104
355.48        39.17645
355.93        38.98545
356.38        38.86694
356.83        38.84142
357.28        38.89023
357.73         38.9811
358.18        39.04482
358.63        38.97466
359.08         38.7422
359.53         38.3841
359.98        37.93613
360.43        37.45094
360.88        36.96401
361.33         36.4798
361.78        36.04553
362.23        35.73675
362.68        35.56379
363.13        35.49522
363.58         35.4791
364.03        35.42896
364.48        35.30623
364.93        35.12238
365.38        34.85231
365.83        34.46987
366.28        33.98716
366.73        33.41727
367.18        32.84066
367.63        32.38248
368.08         32.0718
368.53        31.88643
368.98         31.7497
369.43          31.529
369.88        31.19664
370.33        30.79705
370.78        30.39825
371.23        30.11883
371.68        29.99232
372.13        29.96804
372.58        30.00411
373.03        30.03667
373.48        30.02459
373.93        29.97259
374.38        29.85398
374.83        29.62643
375.28        29.29124
375.72        28.86172
376.17        28.39815
376.62        27.96241
377.07        27.59432
377.52        27.28912
377.97        27.07845
378.42        27.00202
378.87        27.04454
379.32        27.17651
379.77        27.31776
380.22        27.34617
380.67        27.23313
381.11        27.01527
381.56        26.72231
382.01        26.43705
382.46        26.19338
382.91        25.96428
383.36        25.77386
383.81        25.65335
384.26        25.59999
384.71        25.62161
385.15        25.63443
385.60        25.51288
386.05        25.23943
386.50        24.84944
386.95        24.47779
387.40        24.34146
387.85        24.47103
388.29        24.77829
388.74        25.10422
389.19        25.20582
389.64        25.03607
390.09        24.66555
390.54         24.2326
390.98        23.95137
391.43        23.89854
391.88        23.99248
392.33        24.11118
392.78        24.08002
393.23        23.87599
393.67        23.55469
394.12        23.26017
394.57        23.10984
395.02        23.12557
395.47        23.25597
395.91        23.42138
396.36        23.45936
396.81        23.34018
397.26        23.11794
397.71        22.87816
398.15         22.7285
398.60        22.72036
399.05        22.79573
399.50        22.89771
399.95        22.94799
400.39        22.92421
400.84        22.84863
401.29        22.75297
401.74        22.69552
402.18        22.69972
402.63        22.73853
403.08        22.77191
403.53        22.73057
403.97         22.6025
404.42        22.42352
404.87        22.25643
405.32        22.20508
405.76        22.28559
406.21        22.45944
406.66        22.65193
407.11        22.74534
407.55        22.71244
408.00        22.59407
408.45         22.4356
408.90        22.26162
409.34        22.12422
409.79        22.12079
410.24        22.20253
410.68        22.19796
411.13        22.09888
411.58        22.00062
412.03         21.9257
412.47         21.8819
412.92         21.8734
413.37        21.88352
413.81        21.92643
414.26        22.04193
414.71        22.21821
415.15         22.4521
415.60        22.63862
416.05        22.63667
416.49         22.4214
416.94        22.04539
417.39        21.64253
417.83        21.42832
418.28        21.46147
418.73        21.67012
419.17        21.94447
419.62        22.10151
420.07        22.09535
420.51        21.98422
420.96        21.83254
421.41        21.71661
421.85         21.6569
422.30        21.63725
422.74        21.64342
423.19        21.69417
423.64        21.77496
424.08        21.89662
424.53        22.00879
424.98        22.05345
425.42        22.02074
425.87           21.93
426.31        21.81009
426.76        21.71633
427.21        21.65331
427.65        21.59636
428.10        21.57217
428.54        21.59444
428.99        21.66553
429.44        21.87726
429.88        22.09863
430.33        21.97997
430.77        21.59488
431.22        21.38153
431.66        21.40632
432.11        21.52395
432.56        21.70414
433.00        22.04636
433.45         22.3346
433.89        22.22506
434.34        21.86056
434.78        21.52148
435.23        21.20675
435.67        22.09569
436.12        21.51875
436.57        21.43398
437.01        21.14782
437.46        21.06188
437.90        21.19581
438.35        21.35603
438.79        21.47181
439.24         21.5373
439.68        21.53437
440.13        21.29623
440.57        20.96845
441.02        21.12394
441.46        21.57315
441.91        21.64099
442.35        20.82651
442.80        20.58674
443.24        20.71267
443.69        20.74778
444.13        20.65257
444.58        20.59506
445.02        20.58278
445.47        20.62451
445.91        20.69424
446.36        20.70265
446.80        20.63444
447.24        20.53935
447.69        20.45146
448.13        20.38069
448.58        20.34272
449.02        20.32916
449.47        20.31891
449.91         20.2689
450.36        20.17988
450.80        20.06658
451.25        19.96516
451.69        19.91006
452.13          19.915
452.58        19.95671
453.02        20.02055
453.47        20.08849
453.91        20.14933
454.36        20.20511
454.80        20.23186
455.24        20.18864
455.69        20.08212
456.13         19.9092
456.58        19.73593
457.02        19.64895
457.46        19.66055
457.91        19.69903
458.35        19.73264
458.79        19.76418
459.24        19.77618
459.68        19.77519
460.13        19.81474
460.57        19.79006
461.01        19.68375
461.46        20.03451
461.90        20.07118
462.34        19.83306
462.79        19.98505
463.23        19.85191
463.68        19.74466
464.12        19.64583
464.56        19.72195
465.01        19.83443
465.45        19.93868
465.89        19.98934
466.34        19.98194
466.78        19.86467
467.22        19.70787
467.67        19.76642
468.11        19.99743
468.55        20.00287
468.99        19.80268
469.44        19.75267
469.88        19.86477
470.32         19.9378
470.77        19.93837
471.21        19.91505
471.65        19.86519
472.10        19.77582
472.54        19.68489
472.98        19.69361
473.42        19.81027
473.87        19.94656
474.31        20.05493
474.75        20.18646
475.20        20.28545
475.64        20.15607
476.08        19.89244
476.52        19.81318
476.97        19.94493
477.41        20.14678
477.85        20.33999
478.29        20.45572
478.74        20.46792
479.18        20.36435
479.62        20.23615
480.06        20.22886
480.50        20.34499
480.95        20.44979
481.39        20.49765
481.83        20.51624
482.27        20.49751
482.72        20.43199
483.16         20.3687
483.60        20.36925
484.04        20.43956
484.48        20.66854
484.93        21.05431
485.37         21.0947
485.81        21.05753
486.25        21.52144
486.69        22.41648
487.14         21.8029
487.58        21.45281
488.02         22.0704
488.46        21.64357
488.90        21.75741
489.34        21.62614
489.79        21.72062
490.23        21.96882
490.67        22.14528
491.11        22.22151
491.55         22.1708
491.99        22.04258
492.43        21.99826
492.88        22.06894
493.32        22.15226
493.76        22.24725
494.20        22.40032
494.64        22.60755
495.08        22.84984
495.52        23.09319
495.96         23.3018
496.41        23.46655
496.85          23.552
497.29        23.59165
497.73        23.75215
498.17        24.00956
498.61        24.10922
499.05        24.07506
499.49        24.19083
499.93        24.47338
500.37        24.70576
500.82        24.87502
501.26        25.16512
501.70        25.50616
502.14        25.56162
502.58        25.37891
503.02         25.3241
503.46        25.42668
503.90        25.49772
504.34        25.50999
504.78        25.50444
505.22        25.47906
505.66        25.43525
506.10        25.40236
506.54        25.42074
506.98        25.50123
507.42        25.63445
507.86        25.79669
508.30        25.94819
508.74        26.07166
509.18        26.16802
509.62        26.25088
510.06        26.34374
510.50        26.45187
510.94        26.57213
511.38        26.66965
511.82        26.68996
512.26        26.62803
512.70        26.50237
513.14        26.38562
513.58        26.38627
514.02        26.51731
514.46         26.7482
514.90        26.99207
515.34        27.04277
515.78          26.915
516.22        26.71303
516.66        26.54771
517.10        26.26649
517.54        25.90133
517.98        26.47523
518.42        26.40843
518.86        26.66656
519.30        26.75787
519.74        26.84839
520.18        26.90486
520.62        26.85246
521.06        26.70796
521.50        26.47916
521.93        26.23437
522.37         26.0956
522.81        26.08889
523.25        26.18042
523.69        26.31117
524.13        26.38514
524.57        26.37367
525.01        26.30438
525.45        26.20383
525.89        26.11487
526.32        26.05179
526.76        26.00055
527.20         25.9513
527.64        25.89538
528.08        25.82844
528.52        25.75415
528.96        25.68128
529.40        25.61829
529.83        25.56582
530.27        25.52855
530.71        25.48274
531.15        25.39534
531.59        25.26558
532.03         25.1053
532.46        24.95629
532.90        24.90204
533.34        24.94616
533.78        25.05971
534.22        25.18293
534.66        25.22355
535.09        25.15702
535.53         25.0213
535.97        24.85816
536.41        24.73131
536.85         24.6637
537.28         24.6498
537.72        24.68302
538.16        24.67642
538.60         24.7402
539.04        24.77336
539.47        24.80306
539.91        24.88108
540.35        25.02278
540.79        25.00039
541.22        25.12629
541.66         25.2067
542.10        25.35647
542.54        25.17596
542.97        25.35024
543.41        25.43803
543.85        25.62552
544.29        25.83472
544.72        26.02189
545.16          26.196
545.60        26.34101
546.04        26.37718
546.47        26.38131
546.91        26.64684
547.35        27.10949
547.79        27.39985
548.22        27.48684
548.66        27.54923
549.10        27.62238
549.53        27.80245
549.97        28.09954
550.41        28.09669
550.84        28.31574
551.28        28.42865
551.72         28.6164
552.15        28.84374
552.59        29.11151
553.03        29.41372
553.46         29.6912
553.90        29.87648
554.34        29.95351
554.77          29.962
555.21        29.96741
555.65        29.96341
556.08        30.12137
556.52          30.289
556.96         30.4717
557.39        30.64057
557.83        30.77122
558.27        30.80145
558.70        30.76334
559.14        30.77353
559.57        30.83705
560.01        30.93753
560.45        31.03961
560.88        31.04743
561.32        31.01658
561.75        31.05133
562.19        31.26469
562.63        31.36682
563.06        31.39294
563.50        31.47487
563.93        31.60252
564.37         31.7811
564.80        31.85867
565.24        31.98774
565.68        32.10505
566.11        32.21198
566.55        32.33091
566.98        32.40409
567.42        32.42219
567.85        32.78086
568.29        32.64123
568.72         33.0021
569.16        33.52351
569.60        33.89732
570.03         34.0718
570.47        34.23558
570.90         34.2411
571.34        34.71746
571.77        34.55115
572.21        34.96554
572.64         35.0536
573.08        35.37342
573.51         35.2783
573.95        35.98035
574.38        36.18484
574.82        36.38789
