SpectraSmart Spectrum 2.9.0.0
--------- Device Information -----------
Spectrum Name :  反射率_0
Saving Time :  2024/04/19 23:51:38
Spectro-Module Model Name : SE2030-DUVN
Spectro-Module Serial Number : OS361AC55029948
Wavelength Start : 200
Wavelength End : 1025
Wavelength Unit : Wavelength(nm)
Spectrum Unit : Reflectance(%)
-----------Spectrum Setting ------------
Integration Time : 30ms
Average : 10
Boxcar : 0
Background removal :  enabled
linearity correction :  enabled
SC :  disabled
Intensity correction :  disabled
DWT denoise :  enabled
savitzky-golay :  disabled
FFT :  disabled
Running average :  disabled
Kalman :  disabled
High pass :  disabled
---------------BEGIN--------------------
Wavelength(nm)             Reflectance(%)
200.29               0
200.75        66.29059
201.21        68.57642
201.67        74.17336
202.13        82.83193
202.58        93.97685
203.04        108.0512
203.50        120.4364
203.96        120.8588
204.42        110.1636
204.88        95.56541
205.34        83.52225
205.80        77.04325
206.26        74.91883
206.72        75.82912
207.18        79.94797
207.64        85.29711
208.10        88.64069
208.55        90.47063
209.01        89.80439
209.47         87.0395
209.93        83.02707
210.39        77.93582
210.85         73.4098
211.31        71.38214
211.77        71.96844
212.23        75.00679
212.69        79.77486
213.14        82.52554
213.60        81.10004
214.06         78.2605
214.52        75.95919
214.98        75.37771
215.44        76.32714
215.90        78.01331
216.36         80.6955
216.81        84.51541
217.27        88.67545
217.73        93.11372
218.19        96.07072
218.65        95.19348
219.11        90.32534
219.57        81.68625
220.02        71.83443
220.48        67.69389
220.94        71.60096
221.40         82.0004
221.86        94.50939
222.32         102.339
222.77        103.6426
223.23        100.7154
223.69        95.95969
224.15        92.91985
224.61        92.45818
225.06        93.16467
225.52         94.2896
225.98        95.16451
226.44        95.70039
226.90        96.18834
227.36        96.90742
227.81        97.97356
228.27        99.47733
228.73        101.0251
229.19         102.003
229.65        101.7708
230.10        100.4256
230.56        98.62075
231.02        96.95866
231.48        96.31622
231.93        96.63232
232.39        97.55811
232.85        98.57374
233.31        98.96917
233.77        98.54079
234.22         97.5928
234.68        96.13072
235.14        94.12868
235.60        91.80894
236.05        89.26398
236.51        87.05539
236.97         85.9819
237.43        86.20974
237.88        87.94926
238.34        90.50493
238.80        92.33652
239.26         92.2195
239.71        90.40031
240.17        87.37511
240.63        84.59815
241.08        82.59231
241.54        80.93332
242.00        79.47241
242.46        77.71451
242.91         75.3474
243.37        72.03563
243.83        68.27162
244.28        67.09922
244.74        70.88873
245.20         78.4398
245.66        85.27753
246.11        88.37019
246.57        87.45463
247.03        82.61776
247.48        74.29259
247.94         69.2268
248.40        70.08257
248.85        73.01242
249.31        75.36521
249.77         76.0488
250.22        75.24688
250.68        73.38296
251.14        70.91235
251.59         68.9874
252.05        68.55789
252.51        69.69041
252.96        71.29321
253.42         71.5491
253.88        70.32489
254.33        68.48508
254.79        68.34823
255.25        71.97324
255.70        78.62094
256.16         86.4623
256.62        93.32861
257.07        96.86102
257.53        97.25855
257.99         95.6501
258.44         92.4627
258.90        89.24622
259.35        86.32816
259.81        84.42554
260.27        83.27835
260.72        82.72195
261.18        82.90417
261.63          83.144
262.09        83.82977
262.55        84.78095
263.00        85.65059
263.46        86.58918
263.91        86.79417
264.37        85.83618
264.83        83.76204
265.28          80.851
265.74        78.16756
266.19         76.5831
266.65        76.35454
267.11        76.97076
267.56        77.78405
268.02        77.91577
268.47        77.14759
268.93        75.79804
269.38        74.19949
269.84        73.10152
270.30        72.67105
270.75        72.65438
271.21         72.7212
271.66        72.35705
272.12        71.45006
272.57        70.14583
273.03        68.74786
273.48        67.60027
273.94        66.86404
274.39        66.35493
274.85        65.90084
275.31        65.14748
275.76        64.00533
276.22         62.6594
276.67        61.27651
277.13        60.27768
277.58         59.6395
278.04        59.28582
278.49        58.90187
278.95        58.19801
279.40        57.05871
279.86        55.73404
280.31         54.3481
280.77        53.28844
281.22        52.52981
281.68        52.01685
282.13        51.58265
282.59        51.08765
283.04        50.45773
283.50        49.79943
283.95        49.12344
284.41        48.53037
284.86        47.99142
285.32         47.5105
285.77        47.03897
286.22        46.60801
286.68        46.22522
287.13        45.85327
287.59         45.4881
288.04        45.04218
288.50        44.53605
288.95         43.9448
289.41        43.34576
289.86         42.7673
290.32        42.27663
290.77        41.84182
291.22        41.46925
291.68        41.12848
292.13        40.80836
292.59         40.5543
293.04        40.38092
293.50        40.34257
293.95        40.43066
294.40        40.61272
294.86         40.8715
295.31        41.18824
295.77        41.54326
296.22        41.93206
296.68        42.29273
297.13        42.51017
297.58        42.57631
298.04        42.53224
298.49        42.48136
298.95         42.6324
299.40        43.00451
299.85        43.53354
300.31        44.10035
300.76        44.50512
301.21        44.70396
301.67        44.78904
302.12        44.79333
302.58        44.84337
303.03        44.94007
303.48        45.06339
303.94        45.23766
304.39        45.45634
304.84        45.71966
305.30        46.02125
305.75        46.27971
306.20        46.39936
306.66        46.38529
307.11        46.24615
307.57        46.06706
308.02         45.8938
308.47        45.77062
308.93        45.67487
309.38        45.59459
309.83        45.56762
310.29        45.58422
310.74        45.63945
311.19        45.64707
311.65        45.46564
312.10        45.07602
312.55        44.52688
313.00        43.97134
313.46        43.64428
313.91        43.57521
314.36        43.70796
314.82        43.88872
315.27         43.8913
315.72        43.64528
316.18        43.23715
316.63        42.77567
317.08        42.43969
317.53        42.27142
317.99        42.20105
318.44        42.16174
318.89        42.03768
319.35        41.79332
319.80        41.47001
320.25        41.10932
320.70        40.77442
321.16        40.48201
321.61        40.21992
322.06        39.95892
322.51          39.659
322.97        39.30733
323.42        38.93113
323.87        38.56478
324.32         38.2666
324.78        38.04443
325.23        37.89379
325.68        37.76157
326.13        37.56684
326.59        37.28813
327.04        36.96933
327.49         36.6613
327.94        36.45475
328.39        36.36887
328.85        36.35215
329.30        36.39302
329.75        36.41151
330.20        36.37513
330.66        36.28505
331.11        36.15925
331.56        35.96673
332.01        35.71049
332.46        35.39486
332.92        35.05971
333.37        34.79269
333.82        34.62279
334.27        34.55449
334.72        34.55087
335.17        34.54105
335.63        34.48937
336.08        34.40978
336.53        34.35428
336.98        34.42921
337.43        34.64054
337.88        34.95104
338.34        35.18576
338.79        35.11194
339.24        34.67356
339.69        33.95086
340.14        33.19397
340.59        32.82264
341.05        32.92871
341.50         33.3933
341.95        33.96604
342.40         34.2533
342.85        34.16109
343.30        33.82675
343.75        33.40413
344.20        33.14449
344.66        33.11888
345.11         33.2032
345.56        33.36076
346.01        33.53992
346.46        33.69259
346.91        33.85027
347.36        33.90229
347.81        33.66379
348.26        33.13905
348.72        32.42484
349.17        31.70602
349.62         31.3685
350.07        31.50344
350.52        31.97632
350.97        32.60916
351.42        33.13299
351.87        33.44611
352.32        33.60583
352.77        33.60268
353.22        33.42789
353.67        33.10909
354.13        32.66908
354.58        32.16675
355.03        31.74554
355.48        31.45669
355.93        31.29281
356.38        31.23963
356.83        31.25528
357.28        31.31111
357.73        31.40059
358.18        31.49866
358.63        31.56527
359.08        31.57697
359.53        31.52944
359.98        31.39829
360.43        31.15676
360.88        30.81457
361.33        30.39117
361.78        29.95823
362.23         29.6325
362.68        29.44336
363.13        29.35899
363.58        29.31524
364.03         29.2057
364.48        28.99557
364.93        28.70989
365.38        28.37511
365.83         28.0421
366.28        27.73485
366.73         27.4421
367.18        27.16126
367.63         26.8878
368.08        26.62475
368.53         26.3866
368.98        26.18138
369.43        26.01251
369.88        25.87926
370.33        25.77689
370.78        25.69933
371.23        25.63993
371.68        25.59285
372.13        25.55131
372.58        25.51328
373.03        25.47991
373.48        25.44429
373.93        25.39694
374.38        25.32297
374.83         25.2012
375.28        25.02758
375.72        24.80271
376.17         24.5619
376.62        24.31947
377.07        24.09415
377.52         23.8918
377.97         23.7257
378.42        23.61367
378.87        23.55128
379.32        23.52221
379.77        23.51324
380.22         23.5017
380.67        23.47718
381.11        23.45281
381.56        23.38655
382.01        23.23346
382.46        22.99185
382.91        22.66852
383.36        22.35891
383.81        22.20561
384.26        22.23129
384.71        22.40888
385.15        22.58855
385.60        22.54362
386.05        22.23755
386.50        21.74042
386.95        21.25723
387.40         21.1122
387.85        21.35208
388.29        21.84421
388.74        22.35268
389.19        22.53483
389.64        22.32594
390.09        21.83527
390.54        21.25365
390.98        20.87896
391.43        20.81181
391.88        20.94403
392.33        21.12771
392.78        21.15181
393.23        20.98103
393.67        20.68497
394.12        20.41057
394.57        20.28535
395.02        20.33436
395.47        20.50339
395.91         20.7026
396.36        20.75803
396.81        20.63398
397.26        20.38424
397.71        20.11596
398.15         19.9687
398.60        19.99516
399.05        20.13472
399.50        20.29186
399.95        20.33152
400.39        20.22471
400.84        20.00708
401.29        19.77385
401.74        19.69671
402.18        19.82158
402.63        20.08133
403.08         20.3398
403.53        20.38298
403.97        20.17102
404.42        19.78884
404.87        19.38002
405.32        19.17928
405.76         19.2404
406.21        19.48157
406.66        19.78281
407.11        19.95658
407.55        19.95269
408.00        19.83777
408.45        19.66629
408.90        19.48237
409.34        19.34339
409.79        19.31979
410.24        19.37848
410.68        19.38961
411.13        19.34579
411.58         19.3281
412.03        19.33038
412.47        19.31159
412.92         19.2657
413.37        19.19338
413.81        19.13984
414.26        19.19222
414.71        19.35177
415.15        19.59941
415.60        19.81815
416.05        19.84425
416.49        19.64206
416.94        19.27192
417.39        18.86284
417.83        18.62152
418.28        18.60875
418.73        18.75712
419.17        18.97062
419.62        19.08774
420.07        19.06814
420.51        18.96234
420.96        18.82911
421.41        18.73737
421.85        18.70154
422.30        18.70364
422.74        18.71904
423.19        18.74699
423.64        18.77241
424.08        18.81109
424.53        18.83156
424.98        18.80843
425.42        18.74413
425.87        18.65169
426.31        18.55081
426.76        18.48046
427.21        18.43934
427.65        18.40684
428.10        18.40405
428.54        18.43817
428.99        18.50763
429.44        18.68892
429.88        18.86763
430.33        18.74161
430.77        18.37683
431.22        18.15031
431.66        18.12379
432.11         18.1834
432.56        18.30839
433.00        18.58099
433.45        18.81317
433.89        18.73095
434.34        18.45546
434.78        18.17209
435.23        17.87141
435.67        18.75862
436.12         18.2105
436.57        18.17717
437.01        17.95127
437.46        17.86567
437.90        17.93325
438.35        17.99942
438.79        18.03086
439.24        18.05503
439.68        18.06273
440.13        17.90074
440.57         17.6656
441.02        17.79956
441.46        18.13301
441.91        18.11378
442.35        17.34272
442.80        17.06042
443.24        17.09287
443.69        17.05447
444.13        16.91754
444.58        16.82981
445.02        16.79683
445.47        16.82619
445.91        16.88097
446.36        16.86197
446.80        16.75274
447.24        16.60237
447.69        16.46034
448.13         16.3673
448.58        16.34312
449.02        16.37008
449.47        16.41159
449.91        16.40143
450.36        16.33172
450.80         16.2234
451.25        16.12125
451.69        16.07618
452.13        16.10542
452.58        16.18138
453.02        16.28086
453.47        16.36994
453.91        16.43719
454.36        16.49198
454.80        16.52571
455.24        16.52337
455.69        16.49162
456.13        16.41453
456.58        16.33667
457.02        16.31708
457.46        16.36199
457.91        16.41805
458.35        16.45282
458.79        16.45703
459.24        16.42075
459.68        16.35461
460.13        16.33032
460.57        16.30254
461.01        16.26359
461.46        16.64326
461.90        16.77283
462.34        16.62995
462.79        16.75939
463.23        16.60852
463.68        16.45885
464.12        16.33134
464.56        16.37823
465.01        16.47276
465.45        16.56853
465.89        16.61354
466.34        16.60078
466.78        16.49455
467.22        16.35848
467.67        16.41061
468.11        16.61745
468.55        16.64543
468.99        16.50562
469.44        16.48793
469.88        16.59958
470.32         16.6708
470.77        16.67723
471.21        16.66702
471.65         16.6383
472.10        16.58069
472.54         16.5127
472.98        16.50038
473.42        16.55083
473.87        16.59856
474.31        16.63032
474.75        16.72509
475.20        16.84226
475.64        16.80595
476.08        16.66615
476.52        16.64775
476.97        16.76344
477.41        16.90756
477.85        17.03109
478.29        17.10546
478.74        17.11804
479.18        17.04782
479.62        16.96167
480.06        16.96982
480.50        17.06921
480.95        17.14814
481.39        17.17099
481.83        17.16708
482.27         17.1293
482.72        17.04403
483.16        16.95043
483.60        16.90457
484.04        16.91408
484.48         17.0643
484.93        17.34529
485.37        17.38873
485.81        17.38997
486.25        17.85332
486.69        18.07209
487.14        17.98726
487.58        17.99666
488.02        18.35732
488.46        18.04612
488.90        17.93072
489.34        17.76314
489.79        17.81849
490.23        18.05356
490.67        18.27198
491.11         18.3924
491.55        18.30877
491.99        18.07841
492.43        17.97375
492.88        18.03365
493.32         18.0787
493.76        18.10886
494.20        18.21284
494.64        18.38816
495.08        18.60212
495.52        18.82062
495.96        19.00514
496.41        19.14398
496.85        19.21294
497.29        19.23601
497.73        19.34397
498.17        19.51838
498.61        19.55373
499.05        19.48371
499.49        19.56113
499.93        19.80375
500.37        20.02939
500.82        20.20918
501.26        20.46455
501.70        20.73166
502.14        20.74587
502.58        20.55912
503.02        20.48942
503.46         20.5663
503.90        20.62906
504.34        20.65121
504.78        20.65894
505.22        20.64727
505.66        20.62103
506.10         20.6002
506.54        20.61034
506.98        20.66038
507.42        20.74452
507.86        20.85324
508.30        20.97108
508.74        21.08659
509.18        21.19408
509.62        21.29456
510.06         21.3903
510.50        21.48167
510.94        21.57367
511.38        21.63955
511.82        21.63855
512.26        21.56877
512.70        21.44022
513.14        21.32489
513.58        21.33154
514.02         21.4713
514.46         21.7159
514.90        21.96329
515.34        21.98905
515.78        21.79204
516.22        21.49964
516.66        21.25535
517.10        20.94326
517.54        20.60591
517.98        21.32853
518.42        21.37197
518.86        21.69283
519.30        21.75069
519.74        21.74445
520.18        21.69724
520.62        21.62328
521.06        21.55842
521.50        21.47839
521.93        21.39299
522.37        21.32996
522.81        21.29361
523.25        21.28608
523.69        21.29622
524.13        21.30141
524.57        21.29308
525.01        21.27119
525.45        21.24411
525.89        21.22652
526.32        21.21964
526.76        21.22162
527.20        21.20914
527.64        21.15003
528.08        21.04025
528.52        20.88824
528.96        20.73802
529.40        20.65495
529.83        20.65025
530.27        20.71225
530.71        20.77805
531.15        20.74859
531.59        20.60901
532.03        20.39353
532.46        20.18109
532.90        20.11228
533.34        20.20387
533.78        20.40281
534.22        20.62369
534.66         20.7366
535.09        20.70521
535.53        20.58002
535.97        20.40715
536.41        20.25665
536.85        20.15763
537.28        20.10043
537.72        20.09025
538.16        20.07358
538.60        20.14237
539.04        20.21139
539.47        20.28692
539.91        20.38426
540.35        20.50863
540.79        20.47783
541.22        20.55891
541.66        20.61179
542.10        20.73412
542.54        20.59177
542.97        20.73367
543.41        20.78186
543.85         20.8875
544.29        20.99885
544.72         21.0923
545.16        21.19058
545.60        21.28549
546.04        21.30691
546.47        21.31968
546.91        21.56104
547.35        21.97436
547.79        22.27127
548.22        22.40607
548.66         22.4619
549.10        22.48009
549.53        22.61724
549.97        22.88512
550.41        22.88542
550.84         23.0418
551.28        23.13201
551.72        23.30535
552.15        23.49652
552.59        23.70101
553.03        24.00047
553.46        24.20595
553.90        24.36853
554.34        24.43577
554.77        24.43077
555.21        24.41273
555.65        24.44394
556.08          24.578
556.52        24.75656
556.96        24.94024
557.39        25.08168
557.83        25.15577
558.27        25.11939
558.70        25.02463
559.14        25.00333
559.57        25.06816
560.01        25.19596
560.45        25.32911
560.88        25.34622
561.32        25.28718
561.75        25.24615
562.19        25.34807
562.63        25.42546
563.06        25.50752
563.50        25.64281
563.93        25.80387
564.37        25.99696
564.80        26.08981
565.24        26.19909
565.68        26.27484
566.11        26.33745
566.55        26.41123
566.98        26.41994
567.42        26.37708
567.85        26.68673
568.29         26.6432
568.72        26.94543
569.16        27.31165
569.60        27.57245
570.03        27.69017
570.47        27.77552
570.90        27.72122
571.34        28.08688
571.77         27.9765
572.21        28.35697
572.64        28.42711
573.08        28.82554
573.51        28.87319
573.95        29.48256
574.38        29.69242
574.82        29.87446
