SpectraSmart Spectrum 2.9.0.0
--------- Device Information -----------
Spectrum Name :  反射率_0
Saving Time :  2024/04/20 00:37:33
Spectro-Module Model Name : SE2030-DUVN
Spectro-Module Serial Number : OS361AC55029948
Wavelength Start : 200
Wavelength End : 1025
Wavelength Unit : Wavelength(nm)
Spectrum Unit : Reflectance(%)
-----------Spectrum Setting ------------
Integration Time : 30ms
Average : 10
Boxcar : 0
Background removal :  enabled
linearity correction :  enabled
SC :  disabled
Intensity correction :  disabled
DWT denoise :  enabled
savitzky-golay :  disabled
FFT :  disabled
Running average :  disabled
Kalman :  disabled
High pass :  disabled
---------------BEGIN--------------------
Wavelength(nm)             Reflectance(%)
200.29               0
200.75        63.60207
201.21        66.12963
201.67        71.70619
202.13        81.11842
202.58        94.26808
203.04         111.318
203.50        126.5052
203.96        127.1755
204.42        114.1917
204.88        96.53983
205.34        81.95975
205.80        73.89912
206.26         70.8666
206.72        71.22835
207.18        75.12285
207.64        80.62371
208.10         84.5536
208.55        87.37464
209.01        87.85969
209.47        86.32538
209.93        83.54488
210.39        79.44535
210.85        75.68845
211.31         74.3497
211.77        75.61388
212.23        79.48977
212.69        84.80518
213.14        86.59362
213.60         82.8975
214.06        77.61713
214.52        73.68778
214.98        72.68849
215.44        74.18364
215.90        77.21968
216.36        81.66016
216.81         86.5193
217.27        90.56615
217.73        94.23302
218.19        96.40708
218.65        95.64862
219.11        92.07671
219.57        85.62512
220.02         78.9254
220.48        78.76952
220.94        87.02356
221.40        101.8936
221.86        118.0226
222.32        127.3713
222.77         128.114
223.23        123.2448
223.69        116.1973
224.15        112.0383
224.61        111.9265
225.06        113.7468
225.52        116.6139
225.98        119.7488
226.44        123.0104
226.90        126.7121
227.36        130.5623
227.81        133.4292
228.27        134.9961
228.73        135.2815
229.19        134.3817
229.65        132.5095
230.10        129.9988
230.56        127.5403
231.02        125.4929
231.48        124.4823
231.93        124.4108
232.39         125.008
232.85        126.1189
233.31        127.6216
233.77        129.2963
234.22           131.2
234.68        132.4628
235.14        131.5655
235.60        128.3701
236.05        123.4068
236.51         118.223
236.97        115.1064
237.43        114.6106
237.88        116.7281
238.34         120.186
238.80        122.0707
239.26        120.3244
239.71        115.7791
240.17        109.5972
240.63        104.0382
241.08          99.862
241.54        96.46308
242.00        93.53178
242.46        90.27991
242.91        86.19119
243.37        80.54616
243.83        74.13056
244.28        72.05516
244.74         78.1914
245.20        90.38834
245.66         101.064
246.11        104.7001
246.57        100.7744
247.03        89.28187
247.48        71.24346
247.94        60.23146
248.40        62.13988
248.85        68.57822
249.31        74.40598
249.77        77.92684
250.22        79.71157
250.68        80.89813
251.14        81.84682
251.59        82.72508
252.05        83.76826
252.51        85.06403
252.96        86.09885
253.42        86.40403
253.88         86.3079
254.33        86.18191
254.79        88.03689
255.25        93.60562
255.70        102.0764
256.16         111.769
256.62        120.5505
257.07        126.1021
257.53         128.584
257.99         128.894
258.44        126.8971
258.90        123.7218
259.35        119.8312
259.81        116.7722
260.27        114.5992
260.72        113.3893
261.18        113.3784
261.63        113.5655
262.09        114.3254
262.55        115.3091
263.00        116.0799
263.46         116.946
263.91         116.975
264.37         115.788
264.83        113.4076
265.28        110.1208
265.74        107.1374
266.19        105.3751
266.65          105.15
267.11        105.8467
267.56         106.756
268.02        106.9929
268.47        106.2764
268.93        104.9433
269.38        103.2437
269.84        101.8003
270.30        100.7868
270.75        100.0085
271.21        99.29948
271.66        98.34702
272.12        97.10006
272.57        95.63747
273.03        94.18696
273.48        92.93202
273.94        92.01228
274.39         91.2706
274.85        90.58736
275.31        89.63166
275.76        88.30212
276.22        86.76569
276.67        85.17449
277.13        83.99687
277.58        83.18131
278.04         82.6852
278.49        82.09436
278.95        81.04707
279.40        79.39908
279.86        77.46663
280.31        75.47934
280.77        74.04111
281.22        73.11396
281.68        72.59921
282.13        72.13818
282.59         71.3559
283.04        70.13188
283.50        68.69611
283.95        67.23003
284.41        66.12262
284.86        65.37437
285.32        64.90282
285.77        64.50302
286.22        63.99376
286.68         63.3461
287.13        62.59348
287.59        61.83261
288.04        61.07337
288.50        60.37548
288.95         59.6541
289.41        58.97469
289.86         58.3392
290.32        57.80556
290.77        57.34441
291.22        56.93642
291.68         56.5089
292.13        56.03605
292.59        55.58183
293.04        55.19742
293.50        55.01459
293.95        55.03542
294.40         55.2125
294.86        55.48813
295.31         55.7743
295.77        56.03826
296.22        56.29898
296.68        56.53835
297.13        56.71185
297.58        56.82965
298.04        56.91609
298.49        57.02861
298.95        57.31319
299.40        57.76699
299.85        58.34158
300.31        58.96941
300.76        59.51337
301.21         59.9427
301.67        60.33386
302.12        60.63976
302.58        60.90055
303.03        61.09666
303.48        61.25229
303.94        61.48581
304.39        61.91783
304.84         62.5737
305.30        63.39883
305.75        64.20588
306.20        64.75274
306.66         65.0125
307.11        65.02821
307.57        64.96415
308.02        64.96169
308.47         65.0948
308.93        65.30366
309.38        65.52128
309.83        65.72745
310.29        65.89919
310.74        66.05045
311.19        66.11934
311.65        65.99315
312.10        65.65812
312.55        65.15636
313.00        64.64126
313.46        64.35011
313.91        64.30784
314.36        64.45785
314.82        64.63966
315.27        64.62189
315.72        64.32799
316.18        63.85417
316.63        63.29597
317.08        62.82621
317.53        62.49029
317.99        62.22151
318.44        61.98325
318.89        61.70308
319.35        61.35833
319.80        60.98768
320.25        60.60052
320.70        60.20694
321.16        59.80865
321.61        59.40834
322.06        59.01284
322.51        58.64631
322.97        58.30048
323.42        57.97628
323.87        57.65019
324.32        57.29315
324.78         56.8857
325.23        56.46249
325.68        56.00537
326.13        55.49902
326.59         54.9538
327.04        54.41241
327.49        53.92812
327.94        53.59723
328.39        53.43053
328.85        53.36264
329.30        53.38341
329.75        53.37873
330.20         53.3029
330.66        53.16348
331.11        52.95569
331.56         52.6049
332.01        52.11654
332.46        51.50474
332.92        50.88428
333.37        50.49632
333.82        50.39338
334.27        50.53685
334.72        50.78323
335.17        50.87143
335.63        50.70633
336.08        50.37421
336.53        49.99307
336.98        49.79288
337.43        49.83185
337.88        50.03453
338.34        50.24047
338.79        50.24608
339.24        49.97995
339.69        49.51521
340.14        49.01609
340.59        48.75135
341.05         48.7799
341.50        49.02249
341.95         49.3147
342.40        49.40536
342.85         49.2376
343.30        48.90332
343.75        48.51988
344.20        48.27672
344.66        48.22324
345.11        48.26709
345.56        48.36289
346.01        48.43874
346.46         48.4555
346.91        48.45105
347.36        48.36504
347.81        48.09342
348.26        47.64793
348.72         47.0898
349.17        46.54676
349.62        46.30316
350.07        46.41568
350.52        46.77814
350.97         47.2375
351.42        47.56288
351.87         47.6736
352.32        47.62371
352.77        47.42148
353.22        47.08767
353.67        46.65886
354.13         46.1555
354.58        45.62284
355.03        45.18526
355.48        44.87853
355.93        44.68878
356.38        44.58745
356.83        44.51348
357.28        44.43395
357.73        44.34957
358.18        44.23962
358.63        44.07635
359.08        43.85368
359.53        43.57666
359.98        43.25115
360.43        42.88894
360.88        42.50175
361.33        42.09419
361.78        41.70276
362.23        41.38622
362.68        41.15532
363.13        40.99063
363.58        40.84198
364.03        40.62699
364.48        40.31783
364.93        39.92859
365.38        39.48476
365.83        39.04093
366.28        38.62077
366.73        38.21298
367.18        37.81406
367.63        37.41342
368.08        37.01549
368.53        36.64535
368.98        36.30341
369.43         35.9783
369.88        35.67129
370.33        35.38098
370.78        35.13744
371.23        34.99665
371.68         34.9618
372.13        35.00209
372.58        35.05909
373.03        35.03986
373.48        34.91138
373.93        34.69417
374.38        34.41215
374.83         34.1027
375.28        33.78349
375.72        33.44175
376.17        33.11183
376.62        32.80772
377.07        32.54546
377.52        32.33282
377.97        32.17822
378.42        32.08662
378.87          32.048
379.32        32.04719
379.77         32.0583
380.22         32.0442
380.67        31.99103
381.11        31.90776
381.56        31.77723
382.01        31.60203
382.46        31.38656
382.91        31.12558
383.36        30.85775
383.81        30.63793
384.26        30.47856
384.71        30.38567
385.15        30.28807
385.60        30.08368
386.05        29.76081
386.50        29.35349
386.95        28.99483
387.40        28.89356
387.85        29.07241
388.29        29.43733
388.74        29.81879
389.19        29.95271
389.64        29.78686
390.09        29.39063
390.54        28.91667
390.98        28.60342
391.43        28.53651
391.88        28.63014
392.33        28.74204
392.78        28.66669
393.23        28.38413
393.67        27.96608
394.12        27.59662
394.57        27.43357
395.02        27.50711
395.47        27.75313
395.91        28.06633
396.36        28.23069
396.81        28.19478
397.26        28.01814
397.71        27.80515
398.15        27.69227
398.60         27.7424
399.05        27.88527
399.50        28.04062
399.95        28.09846
400.39        28.03431
400.84        27.87962
401.29        27.70432
401.74        27.63261
402.18        27.70176
402.63        27.86231
403.08        28.01827
403.53        28.01362
403.97        27.82146
404.42        27.51119
404.87        27.19657
405.32        27.06437
405.76        27.15274
406.21        27.39439
406.66        27.68716
407.11        27.87133
407.55        27.90386
408.00        27.84168
408.45        27.72312
408.90        27.54425
409.34        27.36412
409.79        27.31321
410.24        27.35864
410.68        27.33385
411.13        27.23725
411.58        27.16873
412.03        27.14354
412.47        27.14635
412.92        27.17241
413.37        27.21692
413.81        27.28302
414.26        27.39476
414.71        27.54177
415.15        27.72365
415.60        27.86685
416.05        27.88958
416.49        27.77313
416.94        27.54268
417.39        27.28229
417.83        27.12667
418.28        27.11569
418.73        27.20868
419.17         27.3236
419.62        27.32386
420.07         27.1864
420.51        26.96025
420.96        26.73478
421.41         26.6193
421.85         26.6312
422.30        26.74545
422.74        26.89909
423.19        27.04306
423.64        27.14443
424.08        27.22976
424.53        27.27919
424.98        27.29337
425.42         27.2814
425.87        27.26587
426.31        27.24069
426.76        27.15548
427.21        27.02687
427.65        26.96575
428.10        27.00432
428.54         27.0542
428.99        27.11495
429.44        27.34507
429.88        27.59285
430.33        27.43728
430.77        26.95584
431.22        26.66317
431.66         26.6281
432.11        26.65504
432.56        26.72715
433.00        27.03248
433.45         27.3415
433.89         27.2259
434.34        26.85682
434.78        26.60389
435.23        26.36163
435.67        27.57228
436.12        26.48571
436.57        26.39532
437.01        26.27349
437.46        26.21867
437.90        26.24231
438.35        26.35949
438.79          26.504
439.24        26.56463
439.68        26.52122
440.13        26.20128
440.57          25.796
441.02         26.0071
441.46        26.60273
441.91        26.79048
442.35        25.90085
442.80        25.59537
443.24        25.64623
443.69        25.66413
444.13        25.59923
444.58        25.51228
445.02        25.41434
445.47        25.40899
445.91        25.46448
446.36        25.42778
446.80        25.28305
447.24        25.10662
447.69        24.95806
448.13        24.87631
448.58        24.88245
449.02        24.95542
449.47        25.03955
449.91        25.03649
450.36        24.93447
450.80        24.76135
451.25        24.59021
451.69        24.51065
452.13        24.54956
452.58         24.6673
453.02        24.81374
453.47        24.92043
453.91        24.96519
454.36        24.96704
454.80        24.93622
455.24        24.88599
455.69         24.8352
456.13        24.75263
456.58        24.67331
457.02        24.63849
457.46        24.65036
457.91        24.64527
458.35        24.61093
458.79        24.59525
459.24        24.58877
459.68        24.58518
460.13        24.64474
460.57         24.6336
461.01        24.52722
461.46        24.99183
461.90         25.0501
462.34         24.7678
462.79        24.98106
463.23        24.68623
463.68        24.57211
464.12        24.42293
464.56        24.53475
465.01        24.71524
465.45        24.88933
465.89        24.97047
466.34        24.94469
466.78        24.75968
467.22        24.51165
467.67        24.53051
468.11        24.76921
468.55        24.73201
468.99        24.44711
469.44        24.35829
469.88        24.47944
470.32        24.56264
470.77        24.56623
471.21        24.54443
471.65        24.49391
472.10        24.40126
472.54        24.30853
472.98        24.33059
473.42        24.47681
473.87        24.63807
474.31        24.77278
474.75        24.97429
475.20        25.17372
475.64        25.11348
476.08        24.87454
476.52        24.80193
476.97        24.92073
477.41        25.07364
477.85        25.19278
478.29        25.24367
478.74        25.21299
479.18        25.07412
479.62        24.93121
480.06        24.94856
480.50        25.12029
480.95        25.28617
481.39        25.38268
481.83        25.42327
482.27         25.3897
482.72        25.30863
483.16        25.17106
483.60        25.12043
484.04        25.14689
484.48        25.37771
484.93        25.78737
485.37        25.76358
485.81         25.6645
486.25        26.17105
486.69        27.14984
487.14        26.78141
487.58         26.0065
488.02         27.1508
488.46        26.40706
488.90        26.58686
489.34        26.39332
489.79        26.49495
490.23        26.79866
490.67        26.88011
491.11         26.7803
491.55        26.72798
491.99        26.75472
492.43        26.77401
492.88        26.79518
493.32        26.84866
493.76        26.96085
494.20        27.13736
494.64        27.37085
495.08        27.71973
495.52        28.09152
495.96        28.19086
496.41        28.08175
496.85        28.13182
497.29        28.35376
497.73        28.56904
498.17        28.73104
498.61        28.75401
499.05        28.69075
499.49        28.80125
499.93        29.10638
500.37        29.39002
500.82        29.61412
501.26         29.9134
501.70         30.2221
502.14        30.25405
502.58        30.07135
503.02        30.02643
503.46        30.15405
503.90        30.28025
504.34        30.36237
504.78        30.40557
505.22        30.39833
505.66        30.34912
506.10        30.29696
506.54        30.29832
506.98        30.36844
507.42        30.49415
507.86        30.64032
508.30        30.74885
508.74        30.80394
509.18        30.82014
509.62        30.83338
510.06        30.90031
510.50         31.0334
510.94        31.21523
511.38        31.39745
511.82        31.50363
512.26        31.51446
512.70        31.44918
513.14        31.36698
513.58        31.35648
514.02        31.43125
514.46        31.57107
514.90        31.71178
515.34        31.67962
515.78        31.51564
516.22         31.3022
516.66        31.14834
517.10        30.90699
517.54        30.60474
517.98         31.2003
518.42        31.20307
518.86        31.49855
519.30        31.62079
519.74         31.7239
520.18        31.78638
520.62        31.75735
521.06         31.6545
521.50        31.47767
521.93        31.27561
522.37        31.13783
522.81        31.08712
523.25        31.10716
523.69        31.15917
524.13        31.17741
524.57        31.14266
525.01        31.07079
525.45        30.99028
525.89        30.94601
526.32         30.9461
526.76        30.97595
527.20        30.99591
527.64        30.95023
528.08        30.82778
528.52        30.64528
528.96        30.45548
529.40        30.33658
529.83        30.30321
530.27        30.34158
530.71        30.38549
531.15         30.3329
531.59        30.16878
532.03        29.93115
532.46        29.69864
532.90        29.61407
533.34        29.69365
533.78        29.88295
534.22        30.09929
534.66        30.21728
535.09        30.19874
535.53        30.09411
535.97        29.94018
536.41        29.79188
536.85        29.67506
537.28        29.58826
537.72        29.54861
538.16        29.49426
538.60        29.56684
539.04        29.63571
539.47        29.70802
539.91         29.8048
540.35        29.93631
540.79        29.84506
541.22        29.92775
541.66        29.98957
542.10        30.17448
542.54        29.99129
542.97        30.23708
543.41         30.3575
543.85        30.56503
544.29        30.77501
544.72        30.94144
545.16        31.08351
545.60        31.18558
546.04         31.1521
546.47        31.07831
546.91        31.31085
547.35         31.7766
547.79        32.06319
548.22        32.13407
548.66        32.15589
549.10        32.18718
549.53         32.4251
549.97        32.86088
550.41        32.89769
550.84        33.13242
551.28        33.23477
551.72         33.4306
552.15        33.67244
552.59        33.96497
553.03        34.32682
553.46        34.62692
553.90        34.80587
554.34        34.82849
554.77        34.74426
555.21        34.64972
555.65        34.62253
556.08        34.74485
556.52        35.02185
556.96        35.23274
557.39        35.44894
557.83        35.58237
558.27        35.57719
558.70        35.48484
559.14        35.46365
559.57        35.52848
560.01        35.65111
560.45        35.78291
560.88         35.8055
561.32        35.77919
561.75        35.81662
562.19        36.05416
562.63         36.1911
563.06        36.25518
563.50        36.33904
563.93        36.43576
564.37        36.60487
564.80         36.6778
565.24        36.80689
565.68        36.91002
566.11        37.00087
566.55        37.10699
566.98        37.11697
567.42        37.05363
567.85        37.51408
568.29        37.49456
568.72         37.9189
569.16         38.3927
569.60         38.7276
570.03        38.86254
570.47        38.91238
570.90        38.76262
571.34        39.18084
571.77        38.92403
572.21        39.46991
572.64        39.74345
573.08        39.77044
573.51        39.82605
573.95        40.13172
574.38        40.83949
574.82        41.11366
