SpectraSmart Spectrum 2.9.0.0
--------- Device Information -----------
Spectrum Name :  反射率_0
Saving Time :  2024/04/20 00:40:26
Spectro-Module Model Name : SE2030-DUVN
Spectro-Module Serial Number : OS361AC55029948
Wavelength Start : 200
Wavelength End : 1025
Wavelength Unit : Wavelength(nm)
Spectrum Unit : Reflectance(%)
-----------Spectrum Setting ------------
Integration Time : 30ms
Average : 10
Boxcar : 0
Background removal :  enabled
linearity correction :  enabled
SC :  disabled
Intensity correction :  disabled
DWT denoise :  enabled
savitzky-golay :  disabled
FFT :  disabled
Running average :  disabled
Kalman :  disabled
High pass :  disabled
---------------BEGIN--------------------
Wavelength(nm)             Reflectance(%)
200.29               0
200.75        56.36884
201.21        58.24309
201.67        62.69118
202.13        69.14781
202.58        76.91938
203.04        86.18246
203.50        93.98398
203.96        93.90517
204.42        86.59504
204.88        76.73638
205.34        68.19276
205.80        62.33113
206.26        58.05036
206.72         54.0055
207.18        49.97609
207.64        47.70734
208.10        49.17457
208.55         53.9579
209.01        58.89151
209.47        62.10593
209.93        63.53241
210.39        63.70053
210.85        62.75361
211.31        60.76132
211.77        57.64524
212.23         52.9507
212.69        47.39267
213.14        45.02881
213.60        47.24459
214.06        52.08203
214.52        56.78773
214.98        60.10159
215.44        62.39515
215.90        63.96553
216.36        65.50877
216.81        68.03334
217.27        71.23423
217.73        74.59127
218.19        76.11574
218.65        73.11721
219.11        65.19082
219.57        52.65672
220.02        38.17902
220.48        29.22613
220.94        28.75728
221.40        35.68779
221.86        45.67842
222.32        51.65582
222.77         51.7524
223.23        48.13195
223.69        43.91692
224.15        43.52742
224.61        46.89503
225.06        51.47648
225.52        55.04997
225.98        55.91321
226.44        54.08937
226.90        50.47628
227.36        46.04902
227.81        42.54377
228.27        41.02328
228.73        40.87779
229.19        41.52253
229.65        42.22555
230.10        42.74808
230.56        43.26491
231.02        43.90384
231.48        44.82038
231.93        45.94969
232.39         47.1727
232.85        48.14988
233.31        48.41952
233.77        47.90782
234.22        46.74788
234.68        45.36703
235.14        44.42374
235.60        44.15123
236.05        44.42739
236.51        44.95343
236.97        45.21347
237.43        45.09871
237.88        44.87801
238.34        44.72707
238.80        45.44657
239.26        47.32378
239.71        49.86744
240.17        52.54787
240.63        55.28077
241.08         58.0571
241.54        60.83873
242.00        62.90895
242.46         62.8577
242.91        59.98313
243.37        53.32433
243.83        43.39173
244.28          36.787
244.74        40.14004
245.20        52.46996
245.66        64.92986
246.11        69.62759
246.57        65.79405
247.03        54.11993
247.48         37.3215
247.94        31.52188
248.40        39.65403
248.85        50.59574
249.31         58.7606
249.77         63.0392
250.22        64.53627
250.68        64.52425
251.14        63.59644
251.59        62.64166
252.05        62.35255
252.51        62.53811
252.96        62.24517
253.42        60.31282
253.88        56.96868
254.33        53.20339
254.79         51.3035
255.25        53.07937
255.70         57.8737
256.16        64.12643
256.62        69.52859
257.07        71.54488
257.53        70.31528
257.99        66.89217
258.44        62.55424
258.90        59.68922
259.35        58.18686
259.81        57.72944
260.27        57.21487
260.72         55.7018
261.18        53.47355
261.63        50.56753
262.09        48.05361
262.55         46.9094
263.00        47.07518
263.46        48.13371
263.91        48.96136
264.37        48.49123
264.83        46.72477
265.28        44.11655
265.74         41.7594
266.19        40.75166
266.65        41.22989
267.11        42.56715
267.56        43.96893
268.02         44.3002
268.47        43.35175
268.93        41.52796
269.38        39.27092
269.84         37.5249
270.30        36.56614
270.75        36.14244
271.21         35.9638
271.66        35.58741
272.12        34.87801
272.57        34.00016
273.03        33.15079
273.48         32.5263
273.94        32.21357
274.39        32.08457
274.85        31.99614
275.31        31.73095
275.76        31.22921
276.22        30.57856
276.67        29.91093
277.13        29.52277
277.58        29.39528
278.04        29.44951
278.49        29.43117
278.95        29.04354
279.40        28.22927
279.86        27.19849
280.31         26.1238
280.77        25.37311
281.22         24.9595
281.68        24.79194
282.13         24.7375
282.59        24.63325
283.04        24.42191
283.50        24.18487
283.95        23.91889
284.41        23.64699
284.86        23.36412
285.32        23.07324
285.77        22.80983
286.22        22.69835
286.68        22.74032
287.13        22.87823
287.59        23.01146
288.04        22.97196
288.50          22.752
288.95        22.38493
289.41        21.98886
289.86        21.67224
290.32        21.51551
290.77        21.47157
291.22        21.52819
291.68        21.63262
292.13        21.77033
292.59        21.96865
293.04        22.23936
293.50        22.61024
293.95        23.07047
294.40        23.58929
294.86        24.12938
295.31        24.64999
295.77        25.13702
296.22        25.59881
296.68        26.03895
297.13        26.44121
297.58        26.82071
298.04        27.19412
298.49        27.58803
298.95        28.07901
299.40        28.66563
299.85        29.32246
300.31        30.00671
300.76        30.65133
301.21          31.227
301.67        31.76339
302.12        32.23178
302.58        32.64646
303.03        32.99539
303.48        33.29525
303.94        33.59904
304.39        33.95265
304.84        34.36974
305.30        34.81964
305.75        35.23739
306.20        35.54492
306.66        35.73845
307.11        35.82903
307.57        35.85159
308.02        35.78651
308.47        35.67275
308.93        35.51913
309.38        35.37749
309.83         35.3737
310.29        35.51437
310.74         35.7596
311.19        35.99359
311.65        36.02906
312.10        35.82557
312.55        35.44443
313.00        35.00432
313.46        34.68858
313.91        34.52805
314.36        34.47904
314.82        34.46689
315.27        34.39599
315.72        34.22714
316.18        34.00909
316.63        33.76639
317.08        33.53807
317.53        33.33578
317.99         33.1338
318.44         32.9371
318.89        32.74968
319.35         32.5695
319.80        32.39793
320.25        32.21605
320.70        31.99281
321.16        31.71745
321.61        31.40086
322.06        31.06191
322.51        30.73671
322.97        30.43133
323.42        30.14497
323.87        29.85684
324.32        29.53677
324.78        29.17661
325.23        28.80012
325.68        28.42513
326.13        28.08423
326.59        27.79155
327.04        27.55892
327.49         27.3783
327.94        27.23896
328.39        27.13014
328.85        27.03018
329.30        26.96758
329.75        26.95048
330.20        26.96776
330.66        26.98752
331.11        26.97117
331.56        26.80792
332.01        26.47875
332.46        26.01536
332.92        25.50125
333.37        25.08507
333.82        24.82301
334.27        24.69942
334.72        24.66207
335.17        24.61158
335.63        24.50624
336.08        24.37457
336.53        24.26851
336.98        24.28322
337.43         24.4291
337.88        24.66893
338.34        24.86223
338.79        24.83194
339.24        24.52654
339.69        23.99971
340.14        23.44631
340.59        23.19164
341.05        23.29945
341.50        23.68296
341.95        24.12203
342.40        24.27238
342.85        24.05952
343.30        23.60259
343.75        23.07962
344.20        22.78022
344.66        22.77728
345.11        22.94455
345.56        23.18172
346.01        23.33057
346.46        23.32788
346.91        23.23875
347.36        23.04202
347.81        22.69203
348.26        22.21977
348.72        21.67817
349.17        21.16528
349.62        20.92601
350.07        21.01463
350.52        21.34665
350.97        21.81143
351.42        22.23812
351.87        22.55397
352.32        22.78651
352.77        22.89342
353.22        22.81675
353.67        22.56476
354.13        22.16843
354.58        21.70994
355.03         21.3622
355.48        21.17589
355.93        21.12564
356.38        21.15265
356.83        21.14993
357.28        21.08162
357.73         20.9701
358.18        20.85121
358.63         20.7833
359.08        20.77513
359.53        20.80037
359.98         20.7958
360.43        20.67109
360.88        20.41751
361.33        20.07212
361.78         19.7231
362.23        19.51338
362.68        19.47036
363.13        19.53592
363.58        19.62749
364.03        19.61826
364.48        19.46861
364.93        19.21852
365.38        18.88888
365.83        18.51905
366.28        18.14394
366.73        17.76422
367.18        17.42521
367.63        17.19555
368.08        17.08421
368.53        17.07266
368.98        17.11391
369.43        17.12673
369.88        17.08775
370.33        17.01987
370.78        16.92979
371.23         16.8355
371.68        16.74774
372.13        16.64914
372.58        16.57302
373.03        16.58027
373.48        16.66962
373.93        16.81528
374.38        16.93763
374.83         16.9135
375.28        16.72102
375.72        16.39367
376.17        16.02766
376.62        15.73812
377.07        15.57058
377.52        15.49624
377.97        15.48869
378.42        15.50483
378.87        15.51967
379.32        15.53623
379.77         15.5525
380.22        15.56125
380.67        15.55933
381.11        15.55284
381.56        15.50269
382.01        15.36685
382.46        15.14662
382.91        14.85311
383.36        14.58205
383.81        14.47584
384.26        14.55231
384.71        14.77328
385.15         14.9929
385.60        14.98668
386.05        14.71678
386.50        14.25662
386.95        13.77984
387.40          13.562
387.85        13.65617
388.29        13.96262
388.74        14.30787
389.19        14.45096
389.64         14.3416
390.09        14.05706
390.54        13.72102
390.98        13.52299
391.43        13.52563
391.88        13.65069
392.33          13.796
392.78        13.81918
393.23         13.6981
393.67        13.48145
394.12        13.27218
394.57        13.16069
395.02        13.16563
395.47        13.25053
395.91        13.35782
396.36        13.37469
396.81        13.27936
397.26        13.10789
397.71        12.92817
398.15        12.82698
398.60        12.83836
399.05        12.92248
399.50        13.01852
399.95         13.0409
400.39        12.96976
400.84        12.82948
401.29        12.67984
401.74        12.63003
402.18         12.7119
402.63        12.88124
403.08        13.05286
403.53        13.09054
403.97        12.96801
404.42        12.73938
404.87        12.49786
405.32        12.39707
405.76        12.46951
406.21        12.65798
406.66        12.87697
407.11        12.99333
407.55        12.97244
408.00        12.86111
408.45        12.70108
408.90         12.5338
409.34        12.40382
409.79        12.35598
410.24        12.37111
410.68        12.36744
411.13        12.33979
411.58        12.34272
412.03        12.36599
412.47        12.37177
412.92        12.35227
413.37        12.30589
413.81        12.27244
414.26        12.32846
414.71        12.47576
415.15        12.69782
415.60        12.89134
416.05        12.91078
416.49        12.72502
416.94        12.39014
417.39        12.02382
417.83          11.816
418.28        11.81966
418.73        11.96865
419.17        12.17254
419.62        12.27553
420.07        12.24088
420.51        12.12087
420.96        11.96342
421.41        11.82612
421.85        11.72863
422.30        11.65745
422.74        11.61406
423.19        11.62629
423.64         11.6856
424.08        11.79518
424.53        11.90402
424.98        11.94106
425.42        11.89029
425.87        11.77427
426.31        11.63109
426.76        11.53065
427.21        11.48376
427.65         11.4643
428.10        11.47652
428.54        11.50602
428.99        11.54568
429.44        11.65248
429.88        11.75995
430.33        11.68008
430.77        11.45676
431.22        11.32193
431.66        11.31408
432.11        11.36511
432.56        11.46062
433.00        11.64992
433.45        11.81134
433.89        11.76951
434.34        11.59626
434.78        11.40956
435.23        11.20094
435.67        11.71488
436.12        11.31419
436.57        11.22217
437.01        11.01339
437.46         10.9185
437.90        10.95087
438.35          11.009
438.79        11.06088
439.24        11.10594
439.68         11.1301
440.13        11.04095
440.57        10.89534
441.02        10.96098
441.46        11.13319
441.91        11.07496
442.35        10.55183
442.80        10.33644
443.24         10.3199
443.69        10.26853
444.13         10.1613
444.58         10.0834
445.02        10.03614
445.47        10.02847
445.91        10.03829
446.36        10.00708
446.80        9.924778
447.24        9.818262
447.69        9.722446
448.13        9.666625
448.58        9.663939
449.02        9.702656
449.47        9.747909
449.91        9.739588
450.36        9.669709
450.80        9.553629
451.25        9.441283
451.69        9.398033
452.13        9.439222
452.58        9.533921
453.02        9.638275
453.47        9.679689
453.91        9.644378
454.36        9.557101
454.80        9.446798
455.24        9.363954
455.69        9.331183
456.13        9.320601
456.58        9.337454
457.02        9.384933
457.46        9.455967
457.91        9.526693
458.35         9.58019
458.79        9.608181
459.24        9.606808
459.68        9.577266
460.13        9.568776
460.57        9.562686
461.01        9.559016
461.46        9.806887
461.90        9.909272
462.34        9.837207
462.79        9.912629
463.23        9.812178
463.68        9.715164
464.12        9.649951
464.56         9.71055
465.01        9.811804
465.45        9.914244
465.89         9.96826
466.34         9.96751
466.78        9.899361
467.22        9.807549
467.67        9.832911
468.11        9.958344
468.55        9.978148
468.99        9.904676
469.44        9.920452
469.88        10.02977
470.32        10.12924
470.77        10.18081
471.21        10.17984
471.65        10.12014
472.10        10.00933
472.54        9.890761
472.98        9.861529
473.42        9.937579
473.87        10.05832
474.31         10.1833
474.75        10.30871
475.20        10.39663
475.64        10.35363
476.08        10.22995
476.52        10.19375
476.97         10.2613
477.41        10.36045
477.85        10.45103
478.29        10.49999
478.74        10.49675
479.18        10.43452
479.62        10.36772
480.06        10.38402
480.50        10.48229
480.95        10.58329
481.39        10.64831
481.83        10.66992
482.27        10.64413
482.72        10.57869
483.16        10.50348
483.60        10.48455
484.04        10.52966
484.48        10.63055
484.93        10.83159
485.37        10.99377
485.81        11.07887
486.25        11.51108
486.69        11.60714
487.14        11.06281
487.58        10.99866
488.02        11.97093
488.46        11.62982
488.90        11.74503
489.34        11.50555
489.79        11.57157
490.23        11.89163
490.67        12.05447
491.11         12.0336
491.55         11.9196
491.99        11.76375
492.43         11.6783
492.88        11.69428
493.32        11.71647
493.76        11.76043
494.20        11.90198
494.64        12.13817
495.08        12.43286
495.52        12.73084
495.96        12.96059
496.41        13.10208
496.85        13.14931
497.29        13.14352
497.73        13.21792
498.17        13.37322
498.61        13.45796
499.05        13.47911
499.49        13.58343
499.93         13.7772
500.37        13.94697
500.82        14.08418
501.26        14.29237
501.70        14.53149
502.14        14.60587
502.58        14.54632
503.02        14.57218
503.46        14.69981
503.90         14.8152
504.34        14.88698
504.78        14.91446
505.22         14.8925
505.66        14.83228
506.10        14.76715
506.54        14.74642
506.98        14.78695
507.42        14.87891
507.86        15.00676
508.30        15.14307
508.74        15.27238
509.18        15.39287
509.62        15.50688
510.06        15.61907
510.50        15.72906
510.94        15.83696
511.38         15.9156
511.82        15.92428
512.26         15.8615
512.70        15.74096
513.14         15.6274
513.58        15.61917
514.02        15.72729
514.46        15.92302
514.90        16.12793
515.34        16.16168
515.78        16.01246
516.22        15.81774
516.66        15.67578
517.10        15.38295
517.54        14.96788
517.98        15.61668
518.42        15.52376
518.86        15.80811
519.30        15.91026
519.74         16.0142
520.18        16.08937
520.62        16.06347
521.06        15.95436
521.50        15.76628
521.93        15.55511
522.37        15.42299
522.81        15.39351
523.25         15.4416
523.69        15.52542
524.13        15.57593
524.57        15.57092
525.01        15.52886
525.45        15.46776
525.89        15.41573
526.32         15.3816
526.76        15.35695
527.20        15.32735
527.64        15.27646
528.08        15.20043
528.52        15.10277
528.96        15.00857
529.40        14.95308
529.83        14.94089
530.27        14.96609
530.71        14.98232
531.15        14.91718
531.59        14.76309
532.03        14.54716
532.46        14.33669
532.90        14.25117
533.34        14.30509
533.78        14.45517
534.22        14.62992
534.66        14.71897
535.09        14.69138
535.53        14.58897
535.97        14.44781
536.41        14.32345
536.85        14.23898
537.28        14.18339
537.72        14.16583
538.16        14.15727
538.60         14.2226
539.04         14.3002
539.47        14.38212
539.91        14.45789
540.35        14.53074
540.79        14.48244
541.22        14.51923
541.66        14.56799
542.10        14.70385
542.54        14.67674
542.97        14.86976
543.41         15.0029
543.85        15.17498
544.29        15.35001
544.72         15.4942
545.16        15.60067
545.60        15.66311
546.04        15.63691
546.47        15.59782
546.91        15.76827
547.35        16.11721
547.79        16.41452
548.22        16.59952
548.66        16.70219
549.10        16.74015
549.53        16.82036
549.97        16.97484
550.41        16.96703
550.84        17.12457
551.28        17.25236
551.72        17.44974
552.15        17.67392
552.59        17.91434
553.03        18.16999
553.46        18.39988
553.90        18.55798
554.34        18.63653
554.77        18.65043
555.21        18.63797
555.65        18.65102
556.08        18.70466
556.52        18.78678
556.96         18.8879
557.39        19.01662
557.83        19.15889
558.27        19.26528
558.70        19.33727
559.14        19.41381
559.57        19.48892
560.01        19.56235
560.45        19.61523
560.88        19.59509
561.32         19.5463
561.75        19.52872
562.19        19.62815
562.63         19.6978
563.06         19.7566
563.50        19.85172
563.93        19.96968
564.37        20.12418
564.80        20.21432
565.24        20.32485
565.68        20.41336
566.11        20.48534
566.55        20.55724
566.98        20.58947
567.42        20.59024
567.85        20.83173
568.29        20.78308
568.72        21.07445
569.16        21.46949
569.60        21.74464
570.03        21.86714
570.47         21.9559
570.90        21.93857
571.34        22.26965
571.77        22.24963
572.21        22.48695
572.64        22.77597
573.08        22.85484
573.51        23.14245
573.95        23.42361
574.38        23.62619
574.82        23.77595
