SpectraSmart Spectrum 2.9.0.0
--------- Device Information -----------
Spectrum Name :  反射率_0
Saving Time :  2024/04/20 00:41:51
Spectro-Module Model Name : SE2030-DUVN
Spectro-Module Serial Number : OS361AC55029948
Wavelength Start : 200
Wavelength End : 1025
Wavelength Unit : Wavelength(nm)
Spectrum Unit : Reflectance(%)
-----------Spectrum Setting ------------
Integration Time : 30ms
Average : 10
Boxcar : 0
Background removal :  enabled
linearity correction :  enabled
SC :  disabled
Intensity correction :  disabled
DWT denoise :  enabled
savitzky-golay :  disabled
FFT :  disabled
Running average :  disabled
Kalman :  disabled
High pass :  disabled
---------------BEGIN--------------------
Wavelength(nm)             Reflectance(%)
200.29               0
200.75        57.12743
201.21        55.72083
201.67        55.66859
202.13        58.72808
202.58        65.71404
203.04        76.67634
203.50         88.4948
203.96        92.78877
204.42         88.3109
204.88        80.00764
205.34        71.99918
205.80        65.96262
206.26        60.88378
206.72        54.93064
207.18        47.61602
207.64        41.91611
208.10        41.84694
208.55        47.48883
209.01        54.08199
209.47        57.71473
209.93        58.32589
210.39        57.14557
210.85        55.32208
211.31        54.16553
211.77        53.87267
212.23        54.00425
212.69        54.37434
213.14        54.61045
213.60         54.2807
214.06        54.36261
214.52        54.82006
214.98        55.69397
215.44        56.99237
215.90        58.35198
216.36        60.36599
216.81        63.84842
217.27        68.27048
217.73        73.21326
218.19        76.34264
218.65         74.5442
219.11        67.44991
219.57        55.38502
220.02        41.43772
220.48        33.99745
220.94        36.16908
221.40        46.36684
221.86        59.47615
222.32         67.3576
222.77        67.96031
223.23        64.03885
223.69        58.87724
224.15        57.17225
224.61        59.33269
225.06         62.9011
225.52        66.29754
225.98        68.45457
226.44        69.36234
226.90         69.7291
227.36        69.69518
227.81        69.19874
228.27         68.6535
228.73        67.95573
229.19        67.43248
229.65        67.51338
230.10        68.08216
230.56        68.99413
231.02          69.903
231.48        70.45271
231.93        70.52346
232.39        70.26467
232.85        69.71049
233.31        68.96233
233.77        68.07919
234.22          67.067
234.68        65.90858
235.14        64.52914
235.60        63.02142
236.05        61.50348
236.51        60.25525
236.97        59.60282
237.43        59.62618
237.88        60.50574
238.34        61.81982
238.80        62.74999
239.26        62.60892
239.71        61.35662
240.17        59.57518
240.63        58.70434
241.08        59.10421
241.54        60.45572
242.00        61.53927
242.46        59.96148
242.91        54.40403
243.37        43.43053
243.83        27.51373
244.28        15.96335
244.74        18.87536
245.20        35.40759
245.66        52.72338
246.11        58.74858
246.57         52.2728
247.03        34.26025
247.48        9.782164
247.94        4.109159
248.40        19.96199
248.85        39.04131
249.31        52.96345
249.77        60.47626
250.22        63.62179
250.68        64.50922
251.14        63.98487
251.59        63.13346
252.05        62.74151
252.51          62.502
252.96        61.46769
253.42        58.66116
253.88        54.49041
254.33        50.05278
254.79        47.91241
255.25        50.07763
255.70        55.76398
256.16        63.24755
256.62         69.6875
257.07        71.94421
257.53        70.24851
257.99        65.97874
258.44        60.98989
258.90        58.32433
259.35        57.67017
259.81        58.21767
260.27        58.52127
260.72         57.3919
261.18        55.19801
261.63        52.15088
262.09        49.45461
262.55        48.23999
263.00         48.4829
263.46        49.70673
263.91        50.75274
264.37         50.5384
264.83        49.04625
265.28        46.72524
265.74        44.66572
266.19         43.9407
266.65        44.68552
267.11        46.27893
267.56        47.91258
268.02        48.44502
268.47        47.67931
268.93        46.03928
269.38        44.01009
269.84        42.59799
270.30        42.07653
270.75        42.14528
271.21        42.46341
271.66        42.52283
272.12        42.16119
272.57        41.53677
273.03        40.83229
273.48        40.21803
273.94         39.8003
274.39        39.48026
274.85         39.1539
275.31        38.64006
275.76        37.90149
276.22        37.03222
276.67        36.21014
277.13        35.80742
277.58        35.79158
278.04        36.05916
278.49        36.24311
278.95        35.90361
279.40        34.95768
279.86        33.67977
280.31         32.3337
280.77        31.44165
281.22        31.02849
281.68        30.94694
282.13        30.98746
282.59        30.89004
283.04        30.56641
283.50        30.14752
283.95        29.64803
284.41        29.12582
284.86        28.58849
285.32        28.03461
285.77         27.5208
286.22        27.21642
286.68        27.12718
287.13        27.17425
287.59        27.22331
288.04        27.04073
288.50        26.60815
288.95        25.97898
289.41        25.28878
289.86        24.67439
290.32        24.23586
290.77        23.91692
291.22         23.7245
291.68        23.63458
292.13        23.62312
292.59        23.69858
293.04        23.82986
293.50        23.98083
293.95        24.12369
294.40        24.24911
294.86        24.34013
295.31        24.38674
295.77        24.39925
296.22        24.39628
296.68        24.40295
297.13         24.4366
297.58        24.52282
298.04        24.66427
298.49        24.89502
298.95        25.29592
299.40        25.84538
299.85        26.50287
300.31        27.14915
300.76        27.60684
301.21        27.84309
301.67        27.93998
302.12        27.97082
302.58        28.09507
303.03        28.33642
303.48        28.65774
303.94        29.06544
304.39        29.53546
304.84        30.04776
305.30        30.59112
305.75        31.08038
306.20        31.40003
306.66        31.54998
307.11        31.55749
307.57        31.50462
308.02        31.45543
308.47        31.46261
308.93        31.50385
309.38        31.60073
309.83        31.82648
310.29        32.16393
310.74        32.58392
311.19        32.95682
311.65        33.07608
312.10        32.90298
312.55        32.50342
313.00        32.02563
313.46        31.70105
313.91        31.57837
314.36        31.61283
314.82        31.71248
315.27        31.74572
315.72         31.6633
316.18        31.51817
316.63        31.36227
317.08        31.27776
317.53        31.27646
317.99        31.30965
318.44        31.32833
318.89        31.25057
319.35        31.05669
319.80        30.78154
320.25        30.45967
320.70        30.14518
321.16        29.85936
321.61        29.59495
322.06        29.36001
322.51        29.16836
322.97        29.01238
323.42        28.89545
323.87        28.78438
324.32        28.62724
324.78        28.40585
325.23        28.13808
325.68        27.84112
326.13        27.55334
326.59        27.29379
327.04        27.07836
327.49        26.90458
327.94        26.76933
328.39        26.66953
328.85        26.58773
329.30        26.56709
329.75        26.63642
330.20        26.78407
330.66        26.96672
331.11        27.11741
331.56        27.08244
332.01        26.82965
332.46        26.39883
332.92        25.88824
333.37        25.47494
333.82        25.22887
334.27        25.13282
334.72        25.13104
335.17        25.11795
335.63        25.04843
336.08        24.94884
336.53        24.88758
336.98        24.98404
337.43        25.24873
337.88        25.63935
338.34        25.96272
338.79        25.95848
339.24        25.56453
339.69        24.86045
340.14        24.12883
340.59        23.84345
341.05        24.09823
341.50        24.75243
341.95        25.49004
342.40        25.81978
342.85        25.63116
343.30         25.0925
343.75         24.4325
344.20        24.02478
344.66        23.97374
345.11        24.12373
345.56        24.37515
346.01        24.57195
346.46        24.64417
346.91        24.66457
347.36        24.57706
347.81        24.27805
348.26         23.7889
348.72        23.17155
349.17         22.5761
349.62        22.33632
350.07        22.52375
350.52        23.02607
350.97        23.66205
351.42        24.15646
351.87        24.41664
352.32         24.5008
352.77        24.44139
353.22        24.29823
353.67        24.10619
354.13        23.86216
354.58        23.56615
355.03        23.26411
355.48        22.98207
355.93        22.73688
356.38         22.5597
356.83        22.48307
357.28        22.49944
357.73        22.58272
358.18        22.67868
358.63        22.69872
359.08        22.61483
359.53        22.45406
359.98         22.2281
360.43        21.95782
360.88        21.66545
361.33        21.35171
361.78        21.07196
362.23        20.91752
362.68        20.89775
363.13        20.97553
363.58        21.07619
364.03        21.08091
364.48        20.95472
364.93        20.73026
365.38        20.43162
365.83        20.10726
366.28        19.79151
366.73        19.48111
367.18        19.21169
367.63        19.03675
368.08        18.95964
368.53        18.96277
368.98        19.00392
369.43        19.01046
369.88        18.96131
370.33        18.87812
370.78         18.7617
371.23        18.62021
371.68        18.46539
372.13        18.28716
372.58        18.13379
373.03        18.08983
373.48        18.15961
373.93        18.30877
374.38         18.4469
374.83        18.43276
375.28          18.239
375.72        17.90691
376.17        17.52778
376.62        17.21016
377.07        17.00145
377.52        16.87206
377.97        16.82015
378.42        16.84062
378.87        16.91233
379.32        17.02756
379.77        17.14227
380.22        17.18629
380.67        17.14443
381.11        17.03719
381.56        16.87469
382.01        16.69933
382.46        16.53037
382.91        16.35232
383.36        16.19719
383.81        16.10972
384.26        16.09108
384.71        16.13981
385.15        16.17628
385.60        16.07679
386.05         15.8266
386.50        15.46527
386.95         15.1152
387.40        14.97226
387.85        15.06689
388.29        15.32373
388.74        15.60441
389.19        15.71352
389.64         15.6113
390.09        15.35984
390.54        15.05721
390.98        14.85435
391.43        14.81013
391.88        14.86405
392.33        14.94723
392.78        14.96292
393.23         14.8921
393.67         14.7604
394.12        14.64076
394.57        14.58029
395.02        14.58955
395.47        14.64647
395.91        14.70947
396.36        14.69345
396.81         14.5879
397.26         14.4185
397.71        14.24978
398.15        14.16302
398.60        14.19053
399.05        14.29578
399.50        14.40997
399.95        14.43478
400.39        14.34877
400.84        14.17635
401.29         13.9917
401.74        13.93124
402.18        14.03241
402.63        14.24315
403.08        14.45399
403.53        14.49063
403.97         14.3218
404.42        14.01741
404.87        13.69852
405.32        13.56305
405.76        13.65473
406.21        13.90136
406.66        14.19789
407.11        14.38166
407.55        14.40728
408.00        14.32872
408.45        14.19083
408.90        14.03583
409.34        13.91201
409.79        13.87064
410.24        13.88864
410.68        13.87375
411.13        13.82225
411.58        13.79451
412.03        13.79426
412.47        13.80365
412.92        13.81773
413.37        13.82956
413.81        13.85441
414.26        13.93125
414.71        14.05481
415.15         14.2191
415.60        14.34815
416.05        14.34446
416.49         14.1885
416.94        13.92006
417.39         13.6288
417.83        13.45969
418.28        13.45421
418.73        13.56216
419.17        13.71266
419.62        13.78031
420.07        13.73818
420.51        13.62957
420.96        13.49665
421.41         13.3869
421.85        13.31613
422.30        13.27617
422.74        13.26883
423.19        13.32452
423.64         13.4338
424.08        13.59581
424.53         13.7568
424.98        13.84299
425.42        13.83508
425.87        13.75617
426.31        13.63675
426.76        13.53599
427.21        13.46531
427.65        13.40278
428.10         13.3739
428.54        13.39808
428.99        13.47488
429.44        13.65702
429.88        13.84757
430.33        13.79927
430.77        13.55585
431.22        13.40123
431.66        13.38719
432.11         13.4408
432.56         13.5497
433.00         13.7701
433.45        13.96154
433.89        13.92123
434.34        13.73499
434.78        13.54039
435.23         13.3249
435.67        13.97557
436.12         13.5389
436.57        13.47279
437.01        13.26237
437.46        13.17375
437.90        13.22145
438.35         13.2862
438.79        13.33703
439.24        13.38486
439.68        13.41744
440.13        13.32169
440.57        13.16475
441.02        13.26849
441.46         13.5063
441.91        13.47017
442.35        12.87145
442.80         12.6458
443.24        12.66429
443.69         12.6402
444.13        12.54913
444.58        12.49709
445.02        12.48446
445.47        12.51686
445.91        12.56607
446.36         12.5576
446.80        12.47816
447.24        12.36486
447.69         12.2521
448.13        12.16401
448.58        12.11856
449.02        12.10772
449.47        12.11437
449.91        12.10509
450.36        12.07605
450.80        12.03245
451.25        12.00263
451.69        12.01563
452.13        12.07816
452.58        12.16978
453.02        12.25971
453.47        12.29911
453.91         12.2803
454.36        12.21902
454.80        12.13883
455.24        12.08067
455.69        12.06368
456.13         12.0616
456.58        12.07997
457.02        12.12041
457.46        12.17674
457.91        12.21992
458.35        12.24089
458.79        12.25252
459.24        12.25237
459.68        12.23755
460.13        12.25282
460.57        12.24844
461.01        12.21694
461.46         12.4861
461.90        12.56374
462.34        12.44301
462.79        12.53603
463.23        12.42613
463.68        12.32248
464.12        12.23511
464.56        12.27691
465.01        12.35258
465.45        12.42918
465.89        12.46807
466.34        12.46453
466.78         12.3931
467.22        12.29756
467.67        12.33651
468.11        12.48416
468.55        12.49071
468.99        12.37659
469.44        12.37729
469.88        12.50127
470.32        12.61597
470.77        12.68188
471.21        12.70451
471.65        12.67575
472.10        12.59815
472.54        12.50803
472.98        12.49472
473.42        12.57197
473.87        12.67586
474.31        12.77328
474.75        12.88895
475.20        12.98362
475.64        12.93261
476.08        12.79269
476.52        12.76412
476.97        12.86273
477.41         12.9994
477.85         13.1215
478.29        13.18325
478.74        13.16992
479.18        13.07396
479.62        12.96348
480.06        12.94801
480.50         13.0291
480.95         13.1116
481.39        13.15537
481.83        13.16245
482.27        13.12866
482.72        13.05729
483.16        12.98194
483.60        12.97194
484.04        13.02646
484.48        13.15425
484.93         13.4093
485.37        13.55149
485.81        13.56374
486.25        14.12751
486.69        14.19268
487.14        13.51067
487.58        13.61219
488.02         14.3204
488.46        14.11299
488.90        14.24508
489.34        14.10837
489.79        14.17827
490.23        14.41268
490.67        14.55923
491.11        14.58688
491.55        14.49591
491.99        14.33237
492.43        14.25093
492.88        14.28135
493.32        14.31302
493.76        14.36143
494.20        14.49836
494.64        14.71954
495.08        15.01249
495.52        15.31537
495.96        15.49855
496.41        15.56558
496.85        15.61607
497.29        15.67925
497.73        15.78675
498.17        15.92666
498.61          15.985
499.05        15.97611
499.49        16.05374
499.93        16.22776
500.37        16.36984
500.82        16.47363
501.26        16.66364
501.70        16.89515
502.14        16.94221
502.58         16.8413
503.02         16.8457
503.46        16.97305
503.90        17.08937
504.34        17.16169
504.78        17.19448
505.22        17.18095
505.66        17.13187
506.10        17.07274
506.54        17.04037
506.98        17.05119
507.42        17.09947
507.86        17.18679
508.30        17.31376
508.74        17.46928
509.18        17.64086
509.62         17.8104
510.06         17.9496
510.50        18.04921
510.94         18.1202
511.38        18.14665
511.82        18.10703
512.26        18.00873
512.70        17.86098
513.14        17.73129
513.58         17.7219
514.02        17.84255
514.46        18.06402
514.90        18.30003
515.34        18.35364
515.78        18.21457
516.22        18.01534
516.66        17.85863
517.10        17.55536
517.54        17.13786
517.98        17.76057
518.42        17.66572
518.86        17.94643
519.30        18.05802
519.74        18.18006
520.18        18.28075
520.62        18.28588
521.06        18.21012
521.50        18.05553
521.93        17.87557
522.37        17.76891
522.81        17.75784
523.25        17.81895
523.69        17.90751
524.13        17.95049
524.57        17.92756
525.01        17.85953
525.45        17.77663
525.89        17.72628
526.32        17.71941
526.76        17.73995
527.20        17.75754
527.64         17.7298
528.08        17.64675
528.52        17.52194
528.96        17.38955
529.40        17.29907
529.83         17.2613
530.27        17.26672
530.71        17.27435
531.15        17.22073
531.59         17.0975
532.03        16.92896
532.46        16.76754
532.90        16.70936
533.34        16.76351
533.78        16.89302
534.22        17.03968
534.66        17.11508
535.09        17.09318
535.53        17.00884
535.97        16.88974
536.41        16.77752
536.85        16.69185
537.28        16.62989
537.72        16.60394
538.16        16.58177
538.60        16.64253
539.04        16.71157
539.47        16.78845
539.91        16.87713
540.35        16.98049
540.79        16.95186
541.22        17.01728
541.66        17.06711
542.10        17.18466
542.54        17.09068
542.97        17.23779
543.41        17.30909
543.85        17.42737
544.29        17.54841
544.72        17.65281
545.16        17.76072
545.60         17.8649
546.04        17.90571
546.47        17.93166
546.91        18.13417
547.35         18.4651
547.79        18.68578
548.22        18.77023
548.66        18.80457
549.10        18.82721
549.53        18.96548
549.97        19.22008
550.41        19.23871
550.84        19.37512
551.28        19.44535
551.72         19.5835
552.15        19.76644
552.59        19.99505
553.03        20.25947
553.46        20.50921
553.90        20.68826
554.34        20.78275
554.77        20.80935
555.21        20.80634
555.65        20.82434
556.08        20.87719
556.52        20.95152
556.96        21.03484
557.39        21.13458
557.83        21.23813
558.27        21.29542
558.70        21.31876
559.14        21.36735
559.57        21.43841
560.01         21.5266
560.45        21.60567
560.88        21.60851
561.32        21.57802
561.75        21.58068
562.19        21.70595
562.63         21.7843
563.06        21.83544
563.50        21.91285
563.93        22.00825
564.37        22.14807
564.80        22.22532
565.24        22.33267
565.68        22.41873
566.11         22.4817
566.55        22.53703
566.98        22.54108
567.42        22.50917
567.85        22.75026
568.29        22.68293
568.72        22.98789
569.16        23.39427
569.60        23.63191
570.03        23.65423
570.47        23.64235
570.90        23.54387
571.34        23.76646
571.77        23.54786
572.21        24.00449
572.64        24.09693
573.08         24.2239
573.51        24.57483
573.95        24.92661
574.38        25.01494
574.82        25.23838
