SpectraSmart Spectrum 2.9.0.0
--------- Device Information -----------
Spectrum Name :  反射率_0
Saving Time :  2024/04/20 00:54:36
Spectro-Module Model Name : SE2030-DUVN
Spectro-Module Serial Number : OS361AC55029948
Wavelength Start : 200
Wavelength End : 1025
Wavelength Unit : Wavelength(nm)
Spectrum Unit : Reflectance(%)
-----------Spectrum Setting ------------
Integration Time : 30ms
Average : 10
Boxcar : 0
Background removal :  enabled
linearity correction :  enabled
SC :  disabled
Intensity correction :  disabled
DWT denoise :  enabled
savitzky-golay :  disabled
FFT :  disabled
Running average :  disabled
Kalman :  disabled
High pass :  disabled
---------------BEGIN--------------------
Wavelength(nm)             Reflectance(%)
200.29               0
200.75        58.77655
201.21        56.64041
201.67        56.14009
202.13        58.56834
202.58        64.57497
203.04        74.55537
203.50        85.99612
203.96        91.33057
204.42        88.88384
204.88        82.59483
205.34        76.23405
205.80        71.68006
206.26         68.2902
206.72        64.72189
207.18        60.67185
207.64        57.70409
208.10         57.9186
208.55        61.52686
209.01        65.53522
209.47        67.81283
209.93        68.29318
210.39        67.60592
210.85        66.29244
211.31        64.92576
211.77        63.51858
212.23        61.71483
212.69        59.50125
213.14         57.9955
213.60        57.62251
214.06        58.42642
214.52        59.64116
214.98        60.85138
215.44        62.02958
215.90        63.05831
216.36        64.12272
216.81        65.37737
217.27        66.50229
217.73        67.51697
218.19        67.24002
218.65        63.93141
219.11        57.32714
219.57         47.5236
220.02        36.64951
220.48        30.82593
220.94         32.1935
221.40        39.77839
221.86        49.49426
222.32        54.87237
222.77        54.34084
223.23        49.95217
223.69        44.91673
224.15         43.8503
224.61        46.76571
225.06         51.1188
225.52        54.68659
225.98        55.72982
226.44        54.24515
226.90        51.16543
227.36        47.27077
227.81        43.93328
228.27        42.17368
228.73        41.52005
229.19        41.76398
229.65        42.63655
230.10        43.83506
230.56        45.26117
231.02        46.70591
231.48        47.92283
231.93        48.81709
232.39        49.45959
232.85        49.68771
233.31        49.30321
233.77        48.33235
234.22        46.84389
234.68        45.26121
235.14        44.23433
235.60        43.99646
236.05        44.46892
236.51         45.3149
236.97        45.96167
237.43        46.30463
237.88        46.61788
238.34        47.15486
238.80        48.80645
239.26         51.7525
239.71        55.36888
240.17         58.7497
240.63        61.42256
241.08        63.38551
241.54        64.68623
242.00        65.15306
242.46         64.3176
242.91        61.88997
243.37        57.14647
243.83        50.60152
244.28         46.9745
244.74        50.69024
245.20        60.87589
245.66        70.73847
246.11        74.60212
246.57        71.98043
247.03         63.2043
247.48        50.31794
247.94        45.91573
248.40        52.16676
248.85        60.56346
249.31        66.68073
249.77        69.43148
250.22        69.64234
250.68        68.29106
251.14        65.99426
251.59        64.03614
252.05        63.46442
252.51        64.21117
252.96        65.28622
253.42        65.18491
253.88        63.74451
254.33         61.6552
254.79        61.11718
255.25        63.99534
255.70         69.6032
256.16        76.36793
256.62        81.86165
257.07        83.42134
257.53        81.33945
257.99        76.85004
258.44        71.45699
258.90        67.90889
259.35        66.07338
259.81        65.52647
260.27        65.01329
260.72        63.46471
261.18        61.18599
261.63        58.22504
262.09        55.64688
262.55        54.38441
263.00        54.38265
263.46         55.2553
263.91        55.92945
264.37        55.45769
264.83        53.80299
265.28        51.34929
265.74        49.11003
266.19        48.03378
266.65        48.27368
267.11        49.27868
267.56        50.31307
268.02        50.32967
268.47        49.14224
268.93        47.13174
269.38        44.78391
269.84        43.11576
270.30        42.39711
270.75        42.33592
271.21        42.52454
271.66        42.34299
272.12        41.61718
272.57        40.54229
273.03        39.40258
273.48        38.53598
273.94        38.07626
274.39         37.8561
274.85        37.67398
275.31        37.21399
275.76        36.40414
276.22        35.38243
276.67        34.36412
277.13        33.77018
277.58        33.59703
278.04        33.73125
278.49         33.8138
278.95        33.41386
279.40        32.44863
279.86        31.17822
280.31        29.87577
280.77        29.06479
281.22        28.76554
281.68         28.8286
282.13        28.99724
282.59          28.936
283.04        28.56083
283.50        28.03432
283.95         27.4639
284.41        27.03824
284.86        26.78498
285.32        26.65249
285.77        26.60786
286.22        26.67708
286.68        26.82913
287.13        27.02833
287.59        27.19925
288.04        27.20078
288.50        27.03391
288.95        26.71139
289.41        26.33547
289.86        25.99113
290.32          25.762
290.77        25.61967
291.22        25.57889
291.68        25.62096
292.13        25.74359
292.59        25.97551
293.04        26.32294
293.50        26.80658
293.95        27.40908
294.40        28.09873
294.86        28.84265
295.31        29.60562
295.77        30.36957
296.22         31.1353
296.68        31.87569
297.13        32.52942
297.58        33.09781
298.04        33.60224
298.49        34.10383
298.95        34.74268
299.40        35.52322
299.85        36.39655
300.31        37.27654
300.76        38.02125
301.21        38.59745
301.67        39.08036
302.12        39.47755
302.58        39.86742
303.03        40.25394
303.48        40.63825
303.94        41.08402
304.39        41.64536
304.84        42.32729
305.30        43.09353
305.75        43.82489
306.20        44.36452
306.66        44.69936
307.11        44.86075
307.57        44.93964
308.02        44.99549
308.47        45.08345
308.93        45.17389
309.38        45.28741
309.83        45.51245
310.29        45.84158
310.74         46.2545
311.19        46.60451
311.65        46.65226
312.10        46.35865
312.55        45.80115
313.00        45.19768
313.46        44.88719
313.91        44.92343
314.36        45.21806
314.82         45.5643
315.27        45.64724
315.72        45.37482
316.18        44.87164
316.63        44.28723
317.08        43.85985
317.53        43.65031
317.99         43.5678
318.44        43.53817
318.89         43.4343
319.35        43.21198
319.80        42.91885
320.25        42.57917
320.70        42.22638
321.16        41.87157
321.61        41.50608
322.06        41.12725
322.51        40.74283
322.97        40.35011
323.42        39.96264
323.87        39.58248
324.32        39.21434
324.78        38.85182
325.23        38.50692
325.68        38.15667
326.13        37.77195
326.59        37.34919
327.04        36.92104
327.49        36.51635
327.94        36.18628
328.39        35.94085
328.85        35.74569
329.30        35.61219
329.75        35.50138
330.20        35.39309
330.66        35.26964
331.11        35.13408
331.56        34.93275
332.01        34.65444
332.46        34.30757
332.92        33.91148
333.37          33.521
333.82        33.16003
334.27        32.83581
334.72        32.55579
335.17        32.32797
335.63        32.14312
336.08        32.00766
336.53        31.92219
336.98        31.89794
337.43        31.92249
337.88        31.98928
338.34        31.99806
338.79          31.835
339.24        31.46528
339.69        30.92039
340.14        30.36579
340.59        30.08217
341.05        30.11955
341.50        30.40423
341.95        30.73647
342.40        30.80074
342.85        30.52964
343.30        30.03398
343.75        29.47113
344.20        29.10018
344.66        28.98948
345.11        29.02338
345.56        29.13577
346.01        29.22019
346.46        29.22391
346.91        29.19823
347.36        29.07569
347.81        28.74015
348.26        28.20635
348.72        27.54058
349.17        26.89559
349.62        26.60649
350.07        26.74392
350.52        27.19212
350.97        27.76579
351.42        28.18277
351.87        28.35271
352.32        28.34425
352.77        28.19392
353.22        27.96852
353.67        27.70739
354.13        27.40148
354.58        27.06992
355.03        26.78879
355.48        26.58313
355.93        26.46196
356.38        26.40194
356.83        26.35016
357.28         26.2859
357.73        26.20672
358.18        26.13438
358.63        26.10858
359.08        26.12649
359.53        26.16776
359.98        26.16014
360.43        25.99786
360.88        25.67247
361.33        25.22629
361.78        24.76636
362.23        24.46783
362.68        24.37019
363.13        24.41297
363.58        24.50302
364.03        24.49287
364.48        24.33949
364.93        24.09085
365.38        23.77915
365.83         23.4626
366.28        23.17364
366.73        22.89271
367.18        22.64924
367.63        22.49122
368.08        22.41805
368.53        22.41962
368.98        22.43653
369.43        22.36763
369.88        22.19662
370.33        21.95962
370.78        21.70907
371.23        21.54022
371.68        21.48184
372.13        21.49151
372.58        21.56105
373.03        21.67675
373.48        21.80885
373.93        21.95235
374.38        22.02895
374.83        21.91983
375.28        21.61454
375.72          21.145
376.17        20.64445
376.62        20.29218
377.07        20.14428
377.52        20.15263
377.97        20.24637
378.42        20.30782
378.87        20.29675
379.32        20.24546
379.77        20.17495
380.22        20.11415
380.67        20.07067
381.11        20.02987
381.56        19.96679
382.01        19.86656
382.46        19.72664
382.91        19.55373
383.36        19.38194
383.81        19.25668
384.26        19.18752
384.71        19.17211
385.15        19.15437
385.60        19.05292
386.05        18.85596
386.50        18.58633
386.95        18.33858
387.40        18.26119
387.85        18.37243
388.29        18.61417
388.74        18.85739
389.19        18.91417
389.64         18.7514
390.09        18.42358
390.54        18.05597
390.98        17.84374
391.43        17.84854
391.88        17.99292
392.33        18.15382
392.78        18.15471
393.23        17.97185
393.67        17.66475
394.12        17.36674
394.57        17.19748
395.02        17.18261
395.47        17.27715
395.91        17.41139
396.36         17.4468
396.81        17.35477
397.26        17.17672
397.71        16.99388
398.15        16.90959
398.60        16.96374
399.05        17.10678
399.50        17.25727
399.95        17.30199
400.39        17.21716
400.84        17.03192
401.29        16.83269
401.74        16.77581
402.18        16.90291
402.63        17.15414
403.08        17.40278
403.53        17.44867
403.97        17.25546
404.42        16.90224
404.87        16.52661
405.32        16.35327
405.76        16.43307
406.21        16.68691
406.66        16.99626
407.11        17.17674
407.55        17.17791
408.00        17.06134
408.45        16.88375
408.90        16.70116
409.34        16.56943
409.79        16.54589
410.24        16.59093
410.68        16.57627
411.13        16.49385
411.58        16.42007
412.03        16.36979
412.47        16.34079
412.92        16.33529
413.37        16.34311
413.81        16.37614
414.26        16.46918
414.71        16.61311
415.15        16.80137
415.60        16.95513
416.05        16.97365
416.49        16.83448
416.94        16.57585
417.39        16.28181
417.83        16.08934
418.28        16.04202
418.73        16.09599
419.17        16.19363
419.62        16.23063
420.07        16.18446
420.51        16.09102
420.96         15.9866
421.41        15.90661
421.85        15.85985
422.30        15.84175
422.74        15.84714
423.19        15.89954
423.64        15.98858
424.08        16.11543
424.53        16.23468
424.98        16.29303
425.42        16.27772
425.87        16.20636
426.31        16.09966
426.76        16.00002
427.21        15.91304
427.65        15.82194
428.10        15.75781
428.54        15.74797
428.99        15.79787
429.44        15.96838
429.88        16.15528
430.33        16.08594
430.77        15.81096
431.22        15.65643
431.66        15.67022
432.11        15.74574
432.56        15.86223
433.00        16.08862
433.45         16.2713
433.89        16.19526
434.34        15.96905
434.78         15.7468
435.23        15.50266
435.67        16.25381
436.12        15.72487
436.57        15.61869
437.01        15.34706
437.46        15.23391
437.90        15.30003
438.35        15.40014
438.79        15.49158
439.24        15.57628
439.68        15.63527
440.13        15.53932
440.57        15.36392
441.02        15.48176
441.46        15.74679
441.91        15.68576
442.35          14.972
442.80        14.70424
443.24        14.73495
443.69        14.72589
444.13        14.64779
444.58        14.61979
445.02        14.63961
445.47        14.71422
445.91        14.80278
446.36        14.80506
446.80        14.70467
447.24        14.54909
447.69        14.39123
448.13        14.28139
448.58        14.24333
449.02        14.25908
449.47        14.29737
449.91        14.30042
450.36        14.25864
450.80        14.18756
451.25        14.12143
451.69        14.09606
452.13        14.12407
452.58         14.1833
453.02        14.25166
453.47        14.29601
453.91        14.30858
454.36        14.29886
454.80        14.27332
455.24        14.24265
455.69        14.21786
456.13        14.17892
456.58        14.14526
457.02        14.13882
457.46        14.15937
457.91        14.16845
458.35        14.15579
458.79        14.13884
459.24        14.11372
459.68        14.07895
460.13        14.08166
460.57        14.05827
461.01        13.99896
461.46        14.28349
461.90        14.35045
462.34        14.19898
462.79        14.30143
463.23        14.18162
463.68        14.07924
464.12        14.00851
464.56        14.09453
465.01        14.22334
465.45        14.35117
465.89        14.42879
466.34        14.44867
466.78        14.38107
467.22        14.27374
467.67        14.30589
468.11        14.44851
468.55         14.4167
468.99        14.24294
469.44        14.21107
469.88        14.33457
470.32        14.45916
470.77        14.54059
471.21        14.58392
471.65        14.57778
472.10        14.52394
472.54         14.4554
472.98        14.45905
473.42        14.54761
473.87        14.65149
474.31        14.74406
474.75        14.87394
475.20        15.00012
475.64        14.97279
476.08        14.84628
476.52        14.83584
476.97        14.95627
477.41        15.10859
477.85        15.24126
478.29        15.31614
478.74        15.32013
479.18        15.24141
479.62        15.14794
480.06        15.14953
480.50        15.24668
480.95         15.3369
481.39        15.38882
481.83        15.42534
482.27         15.4438
482.72        15.44287
483.16         15.4435
483.60        15.48089
484.04        15.55458
484.48         15.7065
484.93        15.98789
485.37        16.11894
485.81        16.21492
486.25        16.79167
486.69        17.41173
487.14        16.77781
487.58        16.48266
488.02        17.45687
488.46        16.93202
488.90        17.18436
489.34        17.16813
489.79        17.30752
490.23        17.54293
490.67        17.71622
491.11        17.82449
491.55        17.83074
491.99         17.7746
492.43        17.78287
492.88        17.87956
493.32        17.98067
493.76        18.10187
494.20        18.30287
494.64        18.58077
495.08        18.92214
495.52        19.27097
495.96        19.51908
496.41        19.66717
496.85        19.78167
497.29        19.88892
497.73         20.0554
498.17        20.26349
498.61        20.34587
499.05        20.33354
499.49        20.45935
499.93        20.74016
500.37        20.99555
500.82        21.20413
501.26        21.50662
501.70         21.8406
502.14        21.92267
502.58        21.79787
503.02        21.79018
503.46        21.92768
503.90        22.04117
504.34        22.10775
504.78        22.16531
505.22        22.20886
505.66        22.23761
506.10        22.26302
506.54        22.29736
506.98        22.34873
507.42        22.42016
507.86        22.51116
508.30        22.61981
508.74        22.74094
509.18        22.86513
509.62         22.9981
510.06        23.14929
510.50        23.31563
510.94        23.49665
511.38        23.64743
511.82        23.69687
512.26        23.63678
512.70        23.48849
513.14        23.33747
513.58        23.31553
514.02        23.44279
514.46        23.68318
514.90        23.94251
515.34        24.00585
515.78        23.87449
516.22        23.66521
516.66        23.49278
517.10        23.20068
517.54        22.82393
517.98        23.43262
518.42        23.37012
518.86        23.62469
519.30        23.68409
519.74         23.7238
520.18         23.7442
520.62         23.7224
521.06        23.68135
521.50        23.61087
521.93        23.52151
522.37         23.4419
522.81        23.37965
523.25        23.33163
523.69        23.30301
524.13        23.29907
524.57        23.31355
525.01         23.3392
525.45        23.35483
525.89        23.32622
526.32        23.24648
526.76        23.13149
527.20        22.99283
527.64        22.85464
528.08        22.72703
528.52        22.59951
528.96         22.4914
529.40        22.42974
529.83        22.41313
530.27        22.44226
530.71        22.46152
531.15        22.38291
531.59        22.19792
532.03        21.93806
532.46        21.68392
532.90        21.58117
533.34        21.64719
533.78        21.82738
534.22        22.03899
534.66        22.15419
535.09        22.13485
535.53        22.03156
535.97        21.87573
536.41        21.71466
536.85        21.57476
537.28        21.45297
537.72         21.3806
538.16        21.34248
538.60        21.44436
539.04        21.58286
539.47        21.73469
539.91        21.86961
540.35        21.98548
540.79         21.9058
541.22         21.9458
541.66        22.00034
542.10        22.18532
542.54        22.12686
542.97        22.39518
543.41        22.55522
543.85        22.75775
544.29        22.95172
544.72        23.11462
545.16        23.27842
545.60        23.43579
546.04        23.50503
546.47        23.55271
546.91        23.83435
547.35        24.28986
547.79        24.60938
548.22        24.75226
548.66        24.82405
549.10        24.87426
549.53        25.07147
549.97        25.43056
550.41        25.51117
550.84        25.78142
551.28        25.98306
551.72        26.26118
552.15        26.53036
552.59        26.78366
553.03         27.0323
553.46        27.24737
553.90        27.39606
554.34        27.47193
554.77        27.51904
555.21        27.58736
555.65        27.56577
556.08        27.74633
556.52         27.8852
556.96        28.04094
557.39        28.20115
557.83        28.34884
558.27        28.41837
558.70        28.42648
559.14        28.46913
559.57        28.54641
560.01        28.63709
560.45        28.72166
560.88        28.75185
561.32        28.77755
561.75         28.8449
562.19        29.04828
562.63        29.17031
563.06         29.2368
563.50        29.25861
563.93        29.26911
564.37        29.50683
564.80        29.78002
565.24        29.91415
565.68        29.87164
566.11        29.92735
566.55        30.11078
566.98        30.21514
567.42        30.21985
567.85        30.55676
568.29        30.44172
568.72        30.76592
569.16        31.22013
569.60        31.61971
570.03        31.68494
570.47        31.88355
570.90        32.02156
571.34        32.26786
571.77        31.83603
572.21        32.60031
572.64        32.68381
573.08        32.92939
573.51        32.87426
573.95        33.40575
574.38        33.63905
574.82        33.94487
