SpectraSmart Spectrum 2.9.0.0
--------- Device Information -----------
Spectrum Name :  反射率_0
Saving Time :  2024/04/20 01:01:15
Spectro-Module Model Name : SE2030-DUVN
Spectro-Module Serial Number : OS361AC55029948
Wavelength Start : 200
Wavelength End : 1025
Wavelength Unit : Wavelength(nm)
Spectrum Unit : Reflectance(%)
-----------Spectrum Setting ------------
Integration Time : 30ms
Average : 10
Boxcar : 0
Background removal :  enabled
linearity correction :  enabled
SC :  disabled
Intensity correction :  disabled
DWT denoise :  enabled
savitzky-golay :  disabled
FFT :  disabled
Running average :  disabled
Kalman :  disabled
High pass :  disabled
---------------BEGIN--------------------
Wavelength(nm)             Reflectance(%)
200.29               0
200.75        61.54664
201.21        63.58252
201.67        67.86203
202.13        74.16167
202.58        81.95377
203.04        91.26035
203.50        98.97907
203.96        98.43122
204.42        90.47743
204.88        80.21003
205.34        71.46336
205.80        65.50855
206.26        61.19916
206.72        57.05111
207.18        53.26986
207.64        52.71807
208.10         57.5286
208.55        66.42065
209.01          74.033
209.47        76.99586
209.93        75.95683
210.39        72.22242
210.85        68.06844
211.31        66.05867
211.77         66.5765
212.23        69.36517
212.69        73.40906
213.14        74.78117
213.60        71.86471
214.06        67.81979
214.52        65.12433
214.98        65.24038
215.44        67.77805
215.90        71.87501
216.36        76.91699
216.81        80.83743
217.27        82.21072
217.73         82.0201
218.19         80.0349
218.65        75.73642
219.11        69.26197
219.57        60.24528
220.02        51.11983
220.48        48.46595
220.94        54.19815
221.40        66.97279
221.86        81.25975
222.32        88.58962
222.77        87.10846
223.23         79.6799
223.69        70.80154
224.15        67.03513
224.61        69.03002
225.06        73.70335
225.52        78.36662
225.98        80.72864
226.44        80.73881
226.90        79.40243
227.36        77.79794
227.81        77.51908
228.27        79.10234
228.73        81.51514
229.19        83.58945
229.65         84.0789
230.10        82.97337
230.56        81.12139
231.02        79.23359
231.48          78.223
231.93         78.1027
232.39        78.51555
232.85        78.99726
233.31        78.93004
233.77        78.15494
234.22        76.93995
234.68        75.42831
235.14        73.79233
235.60         72.2336
236.05         70.7552
236.51        69.59528
236.97        69.07346
237.43        69.25729
237.88        70.37092
238.34        72.00851
238.80         73.4077
239.26        73.82671
239.71        73.19013
240.17        71.76237
240.63        70.62148
241.08        70.12844
241.54        70.06277
242.00        69.74109
242.46        67.68634
242.91        63.08858
243.37        54.91819
243.83        43.94613
244.28        37.78711
244.74        43.64237
245.20        59.58845
245.66         75.1784
246.11        81.95877
246.57        79.43005
247.03         68.4308
247.48        50.85439
247.94        41.92178
248.40        46.50529
248.85        54.76646
249.31        61.47441
249.77        65.33199
250.22        67.08643
250.68        67.96093
251.14        68.11106
251.59        67.30079
252.05        65.73538
252.51        63.50589
252.96        60.69432
253.42        58.03248
253.88         56.1169
254.33        55.02711
254.79        55.95308
255.25         59.6719
255.70        65.41698
256.16         72.0246
256.62        77.50585
257.07        79.65373
257.53        78.72848
257.99        75.71817
258.44        71.66342
258.90        68.75629
259.35        66.95354
259.81        66.17521
260.27        65.57783
260.72        64.45194
261.18        63.04991
261.63        61.23339
262.09        59.77066
262.55        59.15386
263.00        59.28207
263.46        59.99268
263.91        60.46998
264.37        60.09394
264.83        58.83821
265.28        56.95146
265.74        55.28659
266.19        54.55025
266.65        54.88842
267.11        55.84682
267.56        56.83477
268.02        57.01762
268.47        56.23699
268.93        54.80281
269.38        53.07137
269.84        51.83687
270.30        51.29514
270.75        51.21409
271.21        51.29789
271.66        51.08498
272.12        50.45579
272.57        49.56423
273.03        48.62445
273.48         47.8562
273.94        47.38156
274.39        47.06723
274.85        46.82395
275.31        46.47179
275.76        45.93768
276.22        45.29886
276.67        44.61931
277.13        44.12911
277.58        43.78275
278.04        43.55687
278.49        43.20822
278.95         42.4992
279.40        41.37667
279.86        40.06004
280.31        38.73233
280.77         37.8164
281.22        37.30309
281.68        37.09638
282.13        36.99488
282.59        36.76253
283.04        36.31744
283.50        35.78078
283.95        35.18565
284.41        34.63727
284.86        34.13372
285.32        33.65937
285.77        33.21854
286.22        32.90392
286.68        32.71837
287.13        32.61903
287.59        32.51495
288.04        32.22276
288.50        31.74174
288.95        31.09148
289.41        30.42708
289.86        29.91138
290.32        29.63161
290.77         29.5156
291.22        29.48202
291.68        29.37359
292.13        29.15392
292.59        28.88988
293.04        28.66771
293.50         28.6397
293.95        28.82107
294.40         29.1455
294.86        29.51085
295.31        29.77177
295.77        29.88938
296.22        29.90783
296.68        29.88568
297.13        29.89629
297.58        29.98049
298.04        30.12605
298.49        30.31959
298.95        30.57692
299.40        30.87903
299.85        31.22544
300.31        31.59963
300.76        31.96848
301.21        32.31748
301.67        32.66882
302.12        32.97718
302.58        33.23787
303.03        33.42794
303.48        33.55717
303.94        33.70161
304.39        33.94278
304.84        34.29336
305.30        34.71371
305.75         35.0745
306.20        35.19797
306.66        35.08103
307.11        34.78613
307.57        34.45509
308.02        34.22932
308.47        34.17311
308.93         34.2288
309.38        34.36317
309.83        34.57055
310.29        34.81294
310.74        35.08726
311.19        35.28651
311.65        35.24012
312.10        34.92585
312.55        34.39944
313.00        33.81931
313.46        33.43365
313.91        33.28888
314.36        33.33456
314.82        33.45557
315.27        33.48073
315.72        33.34818
316.18        33.11993
316.63        32.86053
317.08        32.67333
317.53        32.57969
317.99        32.53046
318.44        32.47611
318.89        32.33364
319.35         32.0863
319.80        31.77156
320.25         31.4381
320.70        31.16037
321.16        30.95719
321.61        30.80874
322.06        30.69057
322.51        30.56463
322.97        30.41058
323.42        30.24872
323.87        30.07025
324.32        29.86594
324.78        29.63365
325.23        29.37965
325.68        29.12234
326.13        28.90097
326.59        28.72705
327.04         28.6149
327.49        28.53832
327.94        28.45528
328.39        28.35366
328.85        28.22404
329.30        28.13103
329.75        28.14224
330.20        28.26274
330.66        28.44244
331.11        28.61155
331.56        28.60739
332.01         28.3943
332.46        28.01743
332.92        27.56952
333.37         27.2192
333.82        27.02908
334.27        26.97406
334.72        27.00285
335.17        27.02049
335.63        26.98424
336.08        26.92604
336.53        26.88954
336.98        26.95493
337.43        27.13085
337.88        27.38589
338.34        27.59222
338.79        27.59389
339.24        27.34633
339.69        26.89983
340.14        26.43919
340.59        26.27178
341.05        26.45277
341.50        26.89377
341.95        27.38432
342.40        27.59706
342.85        27.45997
343.30        27.08846
343.75         26.6357
344.20         26.3523
344.66        26.30688
345.11         26.3875
345.56        26.53969
346.01        26.67592
346.46        26.74863
346.91        26.80458
347.36        26.77126
347.81        26.52363
348.26        26.07578
348.72        25.50099
349.17        24.94805
349.62        24.74548
350.07        24.95912
350.52         25.4649
350.97        26.09208
351.42        26.58366
351.87        26.85035
352.32        26.95571
352.77        26.89553
353.22        26.67152
353.67        26.31715
354.13        25.84871
354.58         25.3532
355.03         25.0108
355.48         24.8682
355.93        24.90251
356.38        25.02523
356.83        25.07978
357.28        25.01842
357.73        24.86888
358.18        24.70163
358.63        24.63681
359.08        24.69396
359.53         24.8249
359.98        24.91767
360.43        24.80975
360.88        24.47866
361.33        23.98525
361.78        23.46872
362.23        23.15324
362.68        23.08898
363.13        23.19819
363.58        23.35205
364.03        23.35042
364.48         23.1399
364.93        22.78613
365.38        22.36099
365.83        21.98707
366.28        21.71544
366.73         21.5099
367.18        21.35986
367.63        21.25054
368.08        21.16612
368.53         21.1128
368.98         21.0701
369.43        20.99755
369.88        20.88716
370.33        20.75043
370.78        20.59213
371.23        20.42919
371.68        20.27274
372.13        20.11244
372.58        19.98604
373.03        19.95533
373.48        20.02048
373.93        20.15746
374.38        20.27727
374.83        20.24357
375.28        20.03059
375.72        19.66886
376.17        19.27196
376.62        18.98522
377.07        18.85551
377.52        18.84313
377.97         18.8832
378.42        18.87329
378.87        18.78368
379.32        18.64395
379.77        18.50028
380.22        18.41714
380.67         18.4056
381.11        18.44546
381.56        18.46855
382.01        18.38406
382.46        18.17507
382.91        17.87188
383.36        17.56794
383.81         17.4007
384.26        17.39706
384.71         17.5225
385.15        17.66471
385.60        17.65506
386.05        17.46098
386.50         17.1338
386.95        16.80745
387.40        16.69238
387.85        16.82181
388.29         17.1133
388.74         17.4116
389.19        17.49694
389.64        17.32863
390.09        16.97602
390.54          16.574
390.98        16.33124
391.43        16.31552
391.88        16.44611
392.33        16.60338
392.78        16.61565
393.23        16.45905
393.67        16.19393
394.12        15.94333
394.57        15.81783
395.02        15.84036
395.47        15.96387
395.91        16.12647
396.36        16.20433
396.81        16.16586
397.26        16.04445
397.71        15.89546
398.15        15.78729
398.60        15.75872
399.05         15.7787
399.50        15.80164
399.95        15.76303
400.39        15.65028
400.84         15.4829
401.29        15.32388
401.74        15.28644
402.18        15.40002
402.63        15.61724
403.08        15.83851
403.53        15.90546
403.97        15.78632
404.42        15.54021
404.87         15.2701
405.32        15.14727
405.76        15.21079
406.21        15.40137
406.66        15.62867
407.11        15.75177
407.55        15.73362
408.00        15.62201
408.45        15.46658
408.90        15.31362
409.34        15.20947
409.79         15.2093
410.24        15.26802
410.68        15.25304
411.13        15.15643
411.58        15.05364
412.03         14.9704
412.47        14.92747
412.92        14.93248
413.37        14.96615
413.81        15.03422
414.26        15.16048
414.71        15.33241
415.15        15.55023
415.60        15.72688
416.05         15.7467
416.49        15.58733
416.94        15.28985
417.39        14.96656
417.83        14.80042
418.28        14.84074
418.73         15.0277
419.17        15.26112
419.62        15.36983
420.07         15.3179
420.51        15.16306
420.96        14.97895
421.41        14.86116
421.85        14.83268
422.30        14.86608
422.74        14.93257
423.19        15.02016
423.64        15.10948
424.08        15.21599
424.53        15.30177
424.98        15.32419
425.42        15.27838
425.87        15.17866
426.31        15.05419
426.76        14.96143
427.21        14.90709
427.65        14.87101
428.10        14.86954
428.54        14.90252
428.99        14.96779
429.44        15.13232
429.88        15.30335
430.33        15.23259
430.77        14.97119
431.22        14.81982
431.66        14.83283
432.11        14.92507
432.56        15.07741
433.00        15.35541
433.45        15.58209
433.89        15.49311
434.34        15.18673
434.78        14.83837
435.23        14.47691
435.67        15.11758
436.12        14.65399
436.57         14.6464
437.01        14.51152
437.46        14.49455
437.90          14.594
438.35        14.68795
438.79        14.74459
439.24        14.78074
439.68        14.78913
440.13        14.64616
440.57        14.43369
441.02        14.51841
441.46        14.76614
441.91        14.72838
442.35        14.09427
442.80         13.8909
443.24        13.97531
443.69        14.02756
444.13         13.9999
444.58        13.97625
445.02        13.95164
445.47        13.94393
445.91        13.94096
446.36        13.89244
446.80        13.79436
447.24        13.67739
447.69        13.57615
448.13        13.51229
448.58        13.49967
449.02        13.53083
449.47        13.57289
449.91        13.56585
450.36        13.50221
450.80        13.39493
451.25        13.29406
451.69        13.26251
452.13        13.31593
452.58        13.42523
453.02        13.54323
453.47        13.59598
453.91         13.5687
454.36        13.48386
454.80        13.37694
455.24         13.3083
455.69        13.30082
456.13        13.31782
456.58        13.35182
457.02        13.38576
457.46        13.41123
457.91        13.40684
458.35         13.3755
458.79        13.35082
459.24        13.33555
459.68        13.32075
460.13        13.35228
460.57        13.37244
461.01        13.36816
461.46        13.69927
461.90        13.81956
462.34        13.71086
462.79        13.82536
463.23        13.70624
463.68         13.5885
464.12        13.49351
464.56        13.54772
465.01        13.64205
465.45        13.73911
465.89         13.7961
466.34        13.80629
466.78        13.74138
467.22        13.64372
467.67        13.67852
468.11        13.81548
468.55        13.78164
468.99        13.61018
469.44        13.57641
469.88        13.69348
470.32        13.81269
470.77        13.88571
471.21        13.90842
471.65        13.86945
472.10        13.77485
472.54         13.6671
472.98        13.64675
473.42        13.72959
473.87        13.84343
474.31         13.9521
474.75        14.08424
475.20        14.19647
475.64        14.15247
476.08        14.00986
476.52         13.9809
476.97        14.08263
477.41        14.21962
477.85         14.3412
478.29          14.409
478.74        14.40866
479.18         14.3269
479.62        14.23079
480.06        14.22896
480.50        14.32033
480.95        14.40488
481.39        14.43974
481.83        14.42905
482.27        14.36852
482.72        14.26023
483.16         14.1483
483.60        14.11082
484.04        14.15168
484.48        14.29923
484.93        14.58862
485.37        14.71237
485.81        14.71017
486.25        15.25548
486.69         15.4699
487.14        14.82683
487.58        14.87788
488.02        15.46782
488.46        15.06106
488.90        15.07679
489.34        14.94561
489.79        15.04213
490.23        15.29773
490.67        15.47565
491.11        15.52868
491.55         15.4348
491.99        15.24678
492.43        15.14582
492.88        15.16813
493.32        15.19368
493.76        15.23147
494.20        15.35353
494.64        15.55653
495.08        15.80974
495.52        16.06817
495.96        16.27516
496.41         16.4129
496.85        16.46377
497.29        16.45691
497.73         16.5204
498.17        16.64405
498.61        16.65088
499.05        16.56589
499.49        16.59679
499.93        16.76038
500.37        16.91012
500.82         17.0346
501.26        17.25417
501.70        17.51692
502.14        17.59033
502.58        17.50335
503.02        17.50533
503.46        17.61309
503.90        17.69135
504.34        17.71719
504.78        17.71442
505.22        17.68232
505.66        17.62803
506.10        17.57259
506.54        17.54446
506.98        17.55613
507.42         17.6031
507.86        17.68781
508.30        17.81184
508.74        17.96428
509.18        18.13283
509.62         18.2948
510.06        18.41516
510.50        18.48557
510.94        18.52051
511.38        18.51754
511.82         18.4765
512.26        18.40839
512.70        18.31472
513.14        18.24621
513.58        18.27843
514.02         18.4131
514.46        18.62738
514.90        18.84493
515.34        18.88512
515.78        18.74476
516.22        18.55013
516.66        18.39859
517.10        18.09415
517.54        17.66796
517.98        18.27176
518.42        18.16608
518.86        18.44772
519.30         18.5761
519.74        18.72349
520.18        18.85069
520.62        18.87239
521.06        18.79991
521.50         18.6406
521.93        18.44724
522.37         18.3178
522.81        18.27749
523.25        18.30309
523.69        18.36326
524.13        18.40575
524.57        18.41206
525.01         18.3965
525.45        18.36831
525.89        18.34034
526.32        18.31671
526.76        18.29322
527.20        18.25963
527.64        18.20678
528.08        18.13307
528.52        18.03932
528.96        17.94935
529.40        17.89671
529.83        17.88618
530.27        17.91549
530.71         17.9386
531.15        17.88349
531.59        17.74277
532.03        17.54168
532.46        17.35021
532.90        17.29366
533.34        17.38478
533.78        17.57697
534.22        17.78782
534.66        17.89083
535.09        17.85229
535.53        17.72034
535.97        17.54368
536.41        17.39754
536.85        17.31102
537.28        17.27063
537.72        17.27691
538.16        17.27691
538.60        17.34673
539.04        17.41552
539.47        17.48716
539.91        17.57141
540.35        17.67399
540.79         17.6399
541.22        17.70391
541.66        17.75296
542.10        17.87215
542.54        17.76806
542.97         17.9124
543.41        17.97687
543.85        18.08826
544.29        18.20193
544.72        18.28734
545.16        18.34868
545.60        18.37919
546.04         18.3257
546.47        18.26318
546.91        18.42598
547.35        18.77245
547.79         19.0462
548.22         19.1944
548.66        19.26513
549.10        19.28756
549.53        19.40378
549.97        19.62407
550.41        19.60674
550.84        19.71949
551.28        19.76637
551.72        19.88564
552.15        20.05788
552.59        20.28335
553.03        20.55426
553.46         20.8083
553.90        20.96945
554.34        21.02315
554.77        20.99464
555.21        20.94152
555.65        20.94551
556.08        21.02662
556.52        21.15892
556.96        21.31365
557.39          21.474
557.83        21.61758
558.27         21.6977
558.70        21.72721
559.14        21.76846
559.57        21.82089
560.01         21.8785
560.45         21.9189
560.88        21.88161
561.32        21.81414
561.75         21.7851
562.19        21.88531
562.63        21.94404
563.06        21.98016
563.50        22.04513
563.93        22.13213
564.37        22.27063
564.80        22.35454
565.24        22.47685
565.68        22.57468
566.11        22.64433
566.55        22.70433
566.98        22.66915
567.42        22.57859
567.85        22.88949
568.29         22.9661
568.72        23.24118
569.16        23.48483
569.60        23.69316
570.03        23.83452
570.47         23.9371
570.90        23.89797
571.34        24.15584
571.77        23.94789
572.21        24.20253
572.64        24.37198
573.08         24.4576
573.51        24.71852
573.95        25.21815
574.38        25.28501
574.82        25.44444
