SpectraSmart Spectrum 2.9.0.0
--------- Device Information -----------
Spectrum Name :  反射率_0
Saving Time :  2024/04/20 00:56:39
Spectro-Module Model Name : SE2030-DUVN
Spectro-Module Serial Number : OS361AC55029948
Wavelength Start : 200
Wavelength End : 1025
Wavelength Unit : Wavelength(nm)
Spectrum Unit : Reflectance(%)
-----------Spectrum Setting ------------
Integration Time : 30ms
Average : 10
Boxcar : 0
Background removal :  enabled
linearity correction :  enabled
SC :  disabled
Intensity correction :  disabled
DWT denoise :  enabled
savitzky-golay :  disabled
FFT :  disabled
Running average :  disabled
Kalman :  disabled
High pass :  disabled
---------------BEGIN--------------------
Wavelength(nm)             Reflectance(%)
200.29               0
200.75        65.30545
201.21        64.09916
201.67        64.82172
202.13        69.10206
202.58        77.63052
203.04        90.94569
203.50        104.6373
203.96        107.6042
204.42        99.29237
204.88         86.5811
205.34         75.7763
205.80        70.01104
206.26        68.31776
206.72        69.49706
207.18        73.36042
207.64        77.09496
208.10        77.61038
208.55        76.39077
209.01        74.25213
209.47        72.84226
209.93        72.28477
210.39        71.69665
210.85        71.29245
211.31        71.58662
211.77        72.53799
212.23        74.35369
212.69        76.12968
213.14        75.12074
213.60        70.97183
214.06        66.61353
214.52        63.71491
214.98         62.9645
215.44        63.92546
215.90        65.90606
216.36        69.10036
216.81        73.32957
217.27        77.68143
217.73        82.14481
218.19        84.92777
218.65         83.7209
219.11        78.32905
219.57        68.70718
220.02        57.73655
220.48        53.16457
220.94        57.50132
221.40        69.14078
221.86        82.39097
222.32        88.38509
222.77        85.34883
223.23        76.71207
223.69        67.17346
224.15        63.46615
224.61        66.04255
225.06         71.2879
225.52        76.67942
225.98        80.26633
226.44        81.94177
226.90        82.72982
227.36        82.66901
227.81        81.52374
228.27        79.84095
228.73        77.65836
229.19        75.80374
229.65        75.29216
230.10        75.97964
230.56        77.52436
231.02         79.1869
231.48        80.12687
231.93        80.18346
232.39        79.70846
232.85        78.98686
233.31        78.51355
233.77        78.42752
234.22        78.58749
234.68        78.76186
235.14        78.49841
235.60        77.73959
236.05        76.68239
236.51         75.7625
236.97        75.61012
237.43        76.43738
237.88        78.44741
238.34        81.06008
238.80        83.02648
239.26        83.26746
239.71        81.85731
240.17        79.45154
240.63        77.73709
241.08        77.23114
241.54        77.52415
242.00        77.82117
242.46        76.45385
242.91          72.575
243.37        65.36372
243.83        55.38725
244.28        49.12312
244.74        52.94163
245.20        65.50429
245.66        78.22666
246.11        83.97022
246.57        82.15147
247.03        73.50466
247.48        59.61588
247.94         52.7682
248.40        56.73606
248.85        63.67216
249.31         69.1534
249.77        71.96221
250.22        72.74002
250.68        72.36397
251.14        71.55373
251.59        71.54272
252.05        73.09463
252.51        76.15432
252.96         78.9003
253.42        78.50651
253.88        75.02907
254.33        70.09385
254.79        67.46545
255.25        70.57073
255.70        78.51819
256.16        88.75241
256.62        98.08266
257.07        103.0096
257.53        103.6665
257.99        101.6067
258.44        97.73168
258.90        94.20707
259.35        91.30762
259.81        89.48381
260.27        88.23797
260.72        87.19969
261.18        86.57781
261.63        85.81899
262.09        85.46986
262.55        85.56968
263.00        85.84941
263.46        86.39443
263.91        86.34164
264.37        85.18082
264.83        82.93394
265.28        79.90131
265.74        77.14229
266.19         75.5297
266.65        75.29601
267.11        75.88757
267.56        76.65045
268.02        76.70036
268.47        75.81125
268.93        74.31522
269.38        72.48103
269.84        70.96603
270.30        69.95335
270.75        69.24126
271.21        68.68495
271.66          68.028
272.12        67.19685
272.57        66.27944
273.03        65.35612
273.48        64.41781
273.94        63.55486
274.39         62.6906
274.85        61.89523
275.31        61.17858
275.76        60.48701
276.22        59.84151
276.67         59.1489
277.13        58.44841
277.58        57.66071
278.04        56.87299
278.49        55.97974
278.95        54.97477
279.40        53.81617
279.86        52.64568
280.31        51.50851
280.77        50.67835
281.22        50.09147
281.68        49.72284
282.13        49.40798
282.59        48.99628
283.04        48.41756
283.50        47.77564
283.95        47.08712
284.41        46.46295
284.86        45.89173
285.32        45.38709
285.77        44.93007
286.22        44.58999
286.68        44.37167
287.13        44.21325
287.59        44.08243
288.04        43.85695
288.50        43.54322
288.95        43.12889
289.41        42.67026
289.86         42.1639
290.32        41.68215
290.77        41.20856
291.22        40.80907
291.68          40.545
292.13        40.41882
292.59        40.44377
293.04        40.57853
293.50        40.78538
293.95         41.0356
294.40        41.33484
294.86         41.6929
295.31        42.13457
295.77        42.65805
296.22        43.23737
296.68        43.83504
297.13        44.37465
297.58        44.84452
298.04        45.27828
298.49         45.6983
298.95        46.18856
299.40        46.74864
299.85         47.3498
300.31        47.98729
300.76        48.63451
301.21        49.27838
301.67        49.95659
302.12        50.57881
302.58        51.09824
303.03        51.48375
303.48        51.78362
303.94        52.13469
304.39        52.69388
304.84        53.49233
305.30        54.45491
305.75        55.40041
306.20        56.09049
306.66        56.49397
307.11        56.66488
307.57        56.73985
308.02        56.82733
308.47        57.00129
308.93        57.21785
309.38        57.46424
309.83        57.79327
310.29        58.19263
310.74        58.65198
311.19         59.0551
311.65        59.20605
312.10        59.06568
312.55        58.69083
313.00        58.26804
313.46        58.08936
313.91        58.19731
314.36        58.52496
314.82        58.87619
315.27        58.95928
315.72        58.69108
316.18         58.1895
316.63        57.62152
317.08        57.26212
317.53        57.17357
317.99        57.25674
318.44        57.38731
318.89        57.34893
319.35         57.0799
319.80        56.65619
320.25        56.16996
320.70        55.76725
321.16        55.48533
321.61        55.28455
322.06        55.10012
322.51        54.83917
322.97        54.46519
323.42        54.02151
323.87        53.55173
324.32        53.13101
324.78        52.77154
325.23        52.47361
325.68        52.17313
326.13        51.77734
326.59        51.27095
327.04        50.71957
327.49        50.20629
327.94        49.87228
328.39        49.74428
328.85        49.74477
329.30        49.84134
329.75        49.89128
330.20        49.83789
330.66        49.69544
331.11        49.48234
331.56        49.16206
332.01        48.74673
332.46        48.24063
332.92        47.71848
333.37        47.34874
333.82        47.17127
334.27        47.17027
334.72        47.26132
335.17        47.28613
335.63        47.17636
336.08        46.97937
336.53        46.76165
336.98        46.66414
337.43        46.71397
337.88        46.86633
338.34        46.96919
338.79        46.83086
339.24        46.39829
339.69        45.74295
340.14        45.07545
340.59        44.74535
341.05        44.82305
341.50        45.20099
341.95        45.65439
342.40        45.83495
342.85        45.65841
343.30        45.24471
343.75        44.73124
344.20        44.34393
344.66        44.15473
345.11        44.06483
345.56        44.05303
346.01        44.08671
346.46        44.13071
346.91        44.21201
347.36        44.23812
347.81        44.05135
348.26        43.64843
348.72        43.10467
349.17        42.55536
349.62        42.30251
350.07        42.41156
350.52        42.76848
350.97        43.23199
351.42        43.59112
351.87        43.76625
352.32        43.80757
352.77        43.70023
353.22         43.4255
353.67        43.01192
354.13        42.49184
354.58         41.9375
355.03        41.51347
355.48        41.26733
355.93        41.17604
356.38        41.19098
356.83        41.21957
357.28        41.22134
357.73         41.2048
358.18        41.16975
358.63        41.12108
359.08        41.05246
359.53        40.94806
359.98        40.78028
360.43        40.51458
360.88        40.15524
361.33        39.72713
361.78        39.28913
362.23        38.93581
362.68        38.69341
363.13        38.53373
363.58        38.41316
364.03        38.25861
364.48        38.04005
364.93        37.77141
365.38        37.45428
365.83        37.09845
366.28        36.71859
366.73        36.31775
367.18        35.91742
367.63        35.55071
368.08        35.23001
368.53        34.95687
368.98        34.72451
369.43        34.51276
369.88        34.31412
370.33        34.13386
370.78        33.96984
371.23        33.82182
371.68        33.68932
372.13        33.56298
372.58        33.45214
373.03        33.37727
373.48        33.33332
373.93        33.30479
374.38        33.25388
374.83        33.12403
375.28        32.90193
375.72        32.59436
376.17        32.25583
376.62        31.93505
377.07        31.65962
377.52        31.42618
377.97        31.22863
378.42        31.05333
378.87        30.89484
379.32        30.75638
379.77        30.64613
380.22        30.57189
380.67        30.52775
381.11        30.50925
381.56        30.46978
382.01        30.35892
382.46        30.16699
382.91        29.90655
383.36        29.63481
383.81         29.4382
384.26         29.3346
384.71        29.30776
385.15        29.28533
385.60        29.16611
386.05        28.93066
386.50        28.61457
386.95         28.3135
387.40        28.17715
387.85         28.2287
388.29        28.40251
388.74        28.59589
389.19        28.63964
389.64        28.49816
390.09        28.21372
390.54        27.88193
390.98        27.64798
391.43         27.5721
391.88         27.5962
392.33        27.62494
392.78         27.5206
393.23        27.27331
393.67        26.92849
394.12        26.62666
394.57        26.47017
395.02        26.48091
395.47        26.61507
395.91        26.80681
396.36        26.91169
396.81        26.89535
397.26        26.78778
397.71        26.65401
398.15        26.57349
398.60        26.59545
399.05        26.67581
399.50        26.74553
399.95        26.70788
400.39        26.54565
400.84        26.28173
401.29        26.01001
401.74        25.90035
402.18        25.99878
402.63        26.24591
403.08        26.49631
403.53        26.51621
403.97        26.26326
404.42        25.82681
404.87        25.37216
405.32        25.17055
405.76        25.28036
406.21        25.60844
406.66        26.00083
407.11        26.21821
407.55         26.1978
408.00        26.01782
408.45        25.76656
408.90         25.5331
409.34        25.39628
409.79        25.44372
410.24        25.58868
410.68         25.5929
411.13        25.43912
411.58        25.25314
412.03        25.09291
412.47        25.01778
412.92        25.04626
413.37        25.14478
413.81        25.29224
414.26        25.47737
414.71        25.67325
415.15        25.88778
415.60        26.04062
416.05        26.03529
416.49        25.85599
416.94        25.53769
417.39        25.17964
417.83        24.94388
418.28        24.88053
418.73        24.94056
419.17          25.055
419.62        25.10282
420.07        25.05471
420.51        24.95195
420.96        24.83358
421.41        24.73356
421.85         24.6592
422.30        24.60821
422.74        24.58282
423.19        24.62837
423.64        24.73545
424.08        24.90904
424.53        25.07526
424.98        25.14081
425.42        25.08738
425.87        24.94241
426.31        24.77078
426.76        24.68267
427.21        24.69064
427.65        24.75284
428.10        24.84607
428.54        24.89784
428.99        24.89465
429.44        24.97405
429.88        25.05199
430.33        24.82841
430.77        24.40278
431.22        24.23883
431.66        24.36063
432.11        24.52107
432.56        24.66432
433.00        24.92745
433.45        25.11386
433.89        24.92722
434.34        24.55487
434.78        24.27837
435.23        24.04896
435.67        25.13001
436.12        24.50381
436.57        24.39034
437.01        24.02537
437.46        23.88861
437.90        24.01373
438.35        24.17386
438.79        24.28902
439.24        24.35463
439.68         24.3499
440.13         24.0876
440.57        23.73415
441.02        23.93887
441.46        24.48575
441.91         24.6063
442.35        23.71531
442.80        23.45221
443.24        23.57997
443.69        23.58164
444.13        23.43096
444.58        23.34818
445.02        23.34711
445.47        23.42681
445.91        23.53826
446.36        23.54764
446.80        23.43181
447.24        23.26298
447.69         23.0943
448.13        22.95874
448.58        22.88331
449.02        22.85391
449.47        22.85057
449.91        22.83133
450.36        22.79229
450.80        22.74257
451.25        22.70948
451.69        22.71094
452.13        22.75603
452.58         22.8269
453.02        22.90374
453.47        22.96486
453.91        23.00236
454.36        23.01932
454.80        23.01568
455.24        22.98918
455.69        22.95086
456.13         22.8785
456.58        22.80376
457.02        22.76174
457.46        22.75529
457.91        22.72536
458.35        22.66661
458.79        22.63186
459.24         22.6151
459.68        22.60962
460.13        22.66759
460.57        22.65648
461.01        22.54993
461.46        22.97388
461.90        23.03894
462.34        22.78178
462.79        22.96351
463.23        22.80504
463.68        22.67266
464.12        22.56592
464.56        22.67653
465.01        22.83953
465.45        22.98256
465.89        23.02462
466.34        22.95918
466.78        22.73935
467.22        22.47349
467.67        22.49502
468.11        22.76821
468.55        22.83055
468.99        22.68049
469.44        22.68712
469.88        22.85232
470.32        22.95044
470.77        22.96134
471.21        22.97036
471.65        22.97899
472.10        22.96031
472.54        22.92693
472.98        22.94603
473.42        23.02197
473.87        23.07512
474.31        23.09514
474.75        23.20784
475.20        23.36133
475.64        23.30489
476.08        23.11147
476.52        23.09688
476.97        23.27592
477.41        23.50581
477.85        23.70378
478.29        23.78956
478.74        23.74066
479.18         23.6019
479.62        23.38707
480.06        23.37113
480.50        23.52542
480.95        23.68254
481.39        23.78133
481.83        23.84361
482.27        23.86193
482.72        23.82817
483.16        23.76208
483.60        23.75827
484.04        23.83529
484.48        23.90403
484.93        24.03382
485.37        24.41058
485.81        24.55938
486.25        25.13718
486.69        25.78448
487.14        25.04553
487.58        24.52934
488.02        25.73796
488.46        25.13884
488.90        25.41521
489.34        25.27612
489.79        25.47626
490.23        25.90573
490.67         26.0339
491.11          25.915
491.55        25.89399
491.99         26.0021
492.43        26.06358
492.88        26.08823
493.32        26.16223
493.76        26.30254
494.20        26.50027
494.64        26.75371
495.08        27.05461
495.52        27.35103
495.96        27.58456
496.41        27.74308
496.85        27.78801
497.29        27.77689
497.73        27.93472
498.17        28.23914
498.61        28.38215
499.05        28.37475
499.49        28.52309
499.93        28.83937
500.37        29.07706
500.82        29.23604
501.26         29.5538
501.70        29.95543
502.14        30.04063
502.58        29.85585
503.02        29.81731
503.46        29.95686
503.90        30.05643
504.34        30.09288
504.78        30.12894
505.22        30.16215
505.66        30.18349
506.10        30.21289
506.54        30.27648
506.98        30.38037
507.42        30.52087
507.86        30.67508
508.30        30.80438
508.74        30.89702
509.18        30.95776
509.62        31.01326
510.06        31.10677
510.50        31.24702
510.94        31.42379
511.38        31.59037
511.82        31.67175
512.26        31.65327
512.70        31.55595
513.14        31.44972
513.58        31.44029
514.02        31.54237
514.46        31.72758
514.90        31.91912
515.34        31.92196
515.78        31.77046
516.22        31.55269
516.66        31.37677
517.10        31.09589
517.54        30.74126
517.98        31.27198
518.42        31.21809
518.86        31.49291
519.30        31.63531
519.74        31.79082
520.18        31.91688
520.62        31.92749
521.06        31.83132
521.50        31.63906
521.93        31.41126
522.37        31.25791
522.81        31.20826
523.25        31.23669
523.69         31.3039
524.13        31.34459
524.57        31.33635
525.01        31.29543
525.45        31.23826
525.89        31.18944
526.32        31.15477
526.76        31.12689
527.20        31.08359
527.64        30.99764
528.08        30.86578
528.52        30.69683
528.96        30.53192
529.40        30.43043
529.83        30.40077
530.27        30.43418
530.71        30.46867
531.15         30.4086
531.59        30.24096
532.03        30.00083
532.46        29.76316
532.90        29.66676
533.34        29.72673
533.78        29.88944
534.22        30.07909
534.66         30.1797
535.09        30.15551
535.53        30.05745
535.97        29.91029
536.41        29.74952
536.85        29.59921
537.28        29.46355
537.72        29.38407
538.16         29.3377
538.60        29.47041
539.04        29.63801
539.47        29.81252
539.91        29.96235
540.35        30.08642
540.79        29.94131
541.22        29.95752
541.66        29.99001
542.10        30.19579
542.54        30.06865
542.97        30.37955
543.41        30.52942
543.85        30.72211
544.29        30.88794
544.72        31.00952
545.16        31.14834
545.60        31.29724
546.04        31.34622
546.47        31.36229
546.91        31.64893
547.35        32.12296
547.79        32.38757
548.22        32.43235
548.66        32.45855
549.10        32.53564
549.53        32.86065
549.97        33.40623
550.41        33.51859
550.84        33.79277
551.28        33.91352
551.72        34.10556
552.15        34.31319
552.59        34.55004
553.03        34.81426
553.46        35.05273
553.90        35.22526
554.34        35.31871
554.77        35.34821
555.21        35.36673
555.65        35.44126
556.08         35.5815
556.52        35.76282
556.96        35.94363
557.39        36.10309
557.83        36.21828
558.27        36.21808
558.70        36.14753
559.14        36.15221
559.57        36.23654
560.01        36.37401
560.45        36.52221
560.88        36.55648
561.32        36.53387
561.75        36.60838
562.19        36.89008
562.63        36.93202
563.06        36.81068
563.50        36.85259
563.93        37.04201
564.37        37.24471
564.80        37.28138
565.24        37.41437
565.68        37.57454
566.11        37.73062
566.55        37.90319
566.98        38.02823
567.42        38.07264
567.85        38.46971
568.29        38.22767
568.72        38.52721
569.16        39.00201
569.60        39.30592
570.03        39.38551
570.47        39.53919
570.90        39.59826
571.34        39.90902
571.77        39.67391
572.21        40.10608
572.64        40.21007
573.08        40.37359
573.51        40.58826
573.95        41.24122
574.38        41.54834
574.82        41.62931
