SpectraSmart Spectrum 2.9.0.0
--------- Device Information -----------
Spectrum Name :  反射率_0
Saving Time :  2024/04/20 01:02:03
Spectro-Module Model Name : SE2030-DUVN
Spectro-Module Serial Number : OS361AC55029948
Wavelength Start : 200
Wavelength End : 1025
Wavelength Unit : Wavelength(nm)
Spectrum Unit : Reflectance(%)
-----------Spectrum Setting ------------
Integration Time : 30ms
Average : 10
Boxcar : 0
Background removal :  enabled
linearity correction :  enabled
SC :  disabled
Intensity correction :  disabled
DWT denoise :  enabled
savitzky-golay :  disabled
FFT :  disabled
Running average :  disabled
Kalman :  disabled
High pass :  disabled
---------------BEGIN--------------------
Wavelength(nm)             Reflectance(%)
200.29               0
200.75        80.06441
201.21        81.08434
201.67        84.87991
202.13        92.53756
202.58        104.2795
203.04        120.4079
203.50        135.1717
203.96         135.635
204.42         122.598
204.88        105.0683
205.34        90.92001
205.80        83.90669
206.26        82.74583
206.72        86.17395
207.18        94.59348
207.64        104.2009
208.10        109.1409
208.55        110.1447
209.01        107.7034
209.47        103.9795
209.93        99.99754
210.39        95.07011
210.85        91.04259
211.31        90.30067
211.77         93.0503
212.23        99.63678
212.69        108.1063
213.14        110.3175
213.60        103.5781
214.06        94.04681
214.52        86.80608
214.98        84.49033
215.44        86.27336
215.90        90.70737
216.36        97.14494
216.81        103.2813
217.27        107.2436
217.73         110.023
218.19        111.0609
218.65        109.6278
219.11        106.0555
219.57        100.0248
220.02        94.31286
220.48        95.85301
220.94        106.4514
221.40         124.278
221.86         143.287
222.32         154.474
222.77        155.8309
223.23        150.5477
223.69        142.7365
224.15        138.5075
224.61        139.0429
225.06        141.6949
225.52        145.2071
225.98        148.1945
226.44        150.5233
226.90        152.7552
227.36        154.9419
227.81        156.6137
228.27        157.7636
228.73        158.2124
229.19        157.7853
229.65        156.3729
230.10        154.1538
230.56        151.9147
231.02        150.0608
231.48        149.3346
231.93        149.5843
232.39        150.5035
232.85        151.6986
233.31        152.7063
233.77        153.3151
234.22        153.8001
234.68        153.5915
235.14        151.7276
235.60        148.2615
236.05        143.5173
236.51        138.9774
236.97        136.8699
237.43        137.6975
237.88        141.6654
238.34        146.9353
238.80        149.1416
239.26        145.4142
239.71        136.9736
240.17        126.2486
240.63        117.4042
241.08        111.6741
241.54        108.0501
242.00        105.9783
242.46        104.1616
242.91        101.9761
243.37        99.29449
243.83        96.71925
244.28        96.94582
244.74        101.2384
245.20        107.6153
245.66         112.231
246.11        112.8253
246.57        108.8531
247.03          99.985
247.48        86.28178
247.94        76.58622
248.40        75.93523
248.85        79.14058
249.31        82.66133
249.77        85.08865
250.22        86.68163
250.68        88.27895
251.14        89.98017
251.59        91.45107
252.05        92.62636
252.51        93.62677
252.96        94.61783
253.42        96.24976
253.88        98.70801
254.33        101.5105
254.79        105.3427
255.25        110.6271
255.70        116.8668
256.16        123.4009
256.62        129.3442
257.07         133.719
257.53        136.7779
257.99        138.7894
258.44        138.8373
258.90          137.13
259.35        133.9074
259.81        131.1528
260.27        129.2873
260.72        128.7383
261.18        129.7902
261.63         131.206
262.09        133.0514
262.55        134.4594
263.00        134.9535
263.46        135.1529
263.91        134.4746
264.37         133.063
264.83        130.9088
265.28        128.0887
265.74        125.5309
266.19        123.6769
266.65         122.876
267.11        122.7189
267.56        122.7917
268.02        122.6391
268.47        122.0343
268.93        121.1729
269.38        120.1134
269.84        119.1546
270.30        118.3436
270.75         117.553
271.21        116.7135
271.66        115.6416
272.12        114.3335
272.57        112.8137
273.03         111.242
273.48        109.6937
273.94        108.3327
274.39        107.0631
274.85        105.9264
275.31        104.7675
275.76        103.4982
276.22        102.2255
276.67         100.942
277.13        99.92601
277.58        99.05115
278.04        98.33746
278.49        97.45527
278.95        96.20886
279.40        94.46999
279.86         92.5532
280.31        90.54835
280.77        88.91274
281.22        87.58557
281.68        86.53917
282.13        85.61174
282.59        84.75571
283.04        83.84839
283.50        82.98663
283.95        82.03755
284.41        80.96795
284.86        79.70507
285.32        78.35771
285.77        76.96583
286.22        75.74459
286.68        74.78169
287.13        73.96774
287.59        73.30585
288.04          72.643
288.50        71.98463
288.95        71.28805
289.41        70.59541
289.86        69.85083
290.32        69.11662
290.77        68.36173
291.22        67.62823
291.68        66.95016
292.13         66.3167
292.59        65.77122
293.04         65.3214
293.50        65.03558
293.95        64.89764
294.40        64.89314
294.86        64.98206
295.31        65.09784
295.77        65.21797
296.22        65.34553
296.68        65.47227
297.13        65.57806
297.58        65.66185
298.04        65.72669
298.49        65.78423
298.95        65.91428
299.40        66.09782
299.85        66.31709
300.31        66.53018
300.76        66.63391
301.21        66.62663
301.67        66.58813
302.12        66.50368
302.58        66.46734
303.03        66.45649
303.48        66.48292
303.94        66.60523
304.39        66.84748
304.84        67.21249
305.30        67.66202
305.75        68.06698
306.20        68.28416
306.66        68.30688
307.11        68.15025
307.57        67.90416
308.02        67.59227
308.47        67.27776
308.93        66.95018
309.38        66.64671
309.83        66.50298
310.29        66.52687
310.74        66.68249
311.19        66.80846
311.65        66.63651
312.10         66.1157
312.55        65.33652
313.00        64.53652
313.46        64.08202
313.91        64.02707
314.36         64.2709
314.82        64.58093
315.27        64.61052
315.72        64.25566
316.18        63.65656
316.63        62.97417
317.08        62.47689
317.53        62.23344
317.99        62.14341
318.44        62.12449
318.89        62.03146
319.35        61.81475
319.80        61.52992
320.25        61.21036
320.70        60.90589
321.16         60.6269
321.61        60.35838
322.06         60.0808
322.51        59.77946
322.97        59.44007
323.42        59.08471
323.87        58.72219
324.32        58.37158
324.78        58.03213
325.23        57.73173
325.68        57.43705
326.13        57.10506
326.59        56.73055
327.04        56.35393
327.49        56.03811
327.94        55.89881
328.39        55.94784
328.85        56.11257
329.30        56.34036
329.75        56.44143
330.20        56.35699
330.66        56.11863
331.11        55.80584
331.56        55.47745
332.01        55.17355
332.46        54.87752
332.92        54.62127
333.37        54.50245
333.82        54.52723
334.27         54.6945
334.72         54.9309
335.17        55.09834
335.63        55.13547
336.08        55.08726
336.53        55.00472
336.98        55.01588
337.43        55.14622
337.88        55.34956
338.34        55.51455
338.79        55.51643
339.24        55.30764
339.69        54.94304
340.14        54.54348
340.59         54.3053
341.05        54.27741
341.50         54.4136
341.95        54.61161
342.40        54.71202
342.85        54.67337
343.30         54.5493
343.75        54.40282
344.20        54.33421
344.66        54.36607
345.11        54.43982
345.56        54.52451
346.01        54.57259
346.46        54.56308
346.91        54.52272
347.36        54.43129
347.81        54.24959
348.26        53.99187
348.72        53.69833
349.17         53.4213
349.62         53.3126
350.07        53.39748
350.52        53.61206
350.97        53.87983
351.42        54.08709
351.87        54.18646
352.32        54.20192
352.77        54.10498
353.22        53.85598
353.67        53.47446
354.13        53.00462
354.58        52.51408
355.03        52.16151
355.48        51.98722
355.93        51.95695
356.38        52.01594
356.83        52.06829
357.28        52.07098
357.73        52.03477
358.18        51.95321
358.63        51.82167
359.08        51.64177
359.53        51.41174
359.98        51.13081
360.43        50.80162
360.88        50.43404
361.33        50.03714
361.78        49.65387
362.23        49.35119
362.68        49.14196
363.13        49.00501
363.58        48.88108
364.03        48.67462
364.48          48.355
364.93        47.93861
365.38         47.4671
365.83        47.02039
366.28        46.62987
366.73        46.28236
367.18         45.9464
367.63        45.56888
368.08        45.14485
368.53        44.70327
368.98         44.2914
369.43        43.97144
369.88        43.75231
370.33        43.61156
370.78        43.49864
371.23         43.3329
371.68        43.09443
372.13        42.80488
372.58        42.51754
373.03        42.32559
373.48        42.24556
373.93        42.23322
374.38        42.23066
374.83        42.15094
375.28        41.96706
375.72        41.69925
376.17        41.38102
376.62        41.02678
377.07        40.66384
377.52        40.29565
377.97         39.9678
378.42        39.74997
378.87        39.64684
379.32        39.63235
379.77        39.64972
380.22        39.60661
380.67        39.47768
381.11        39.29338
381.56        39.05538
382.01        38.80203
382.46        38.54932
382.91        38.27511
383.36        38.01362
383.81        37.81514
384.26        37.68339
384.71        37.62355
385.15        37.54139
385.60        37.30418
386.05        36.89527
386.50        36.35984
386.95        35.86091
387.40        35.65674
387.85        35.78397
388.29        36.13285
388.74        36.51869
389.19        36.63931
389.64        36.43419
390.09        35.98321
390.54        35.45411
390.98        35.10762
391.43        35.03688
391.88        35.14175
392.33        35.26532
392.78        35.18217
393.23        34.87008
393.67         34.4077
394.12        33.99484
394.57        33.79053
395.02        33.82777
395.47        34.03765
395.91        34.32486
396.36        34.48629
396.81        34.47151
397.26        34.33033
397.71        34.14494
398.15        34.01578
398.60        34.00806
399.05        34.06297
399.50        34.11451
399.95        34.07166
400.39        33.91652
400.84        33.67241
401.29        33.41635
401.74        33.28749
402.18        33.32644
402.63         33.4817
403.08        33.63812
403.53        33.60613
403.97        33.35167
404.42        32.95407
404.87        32.54702
405.32        32.35182
405.76        32.41433
406.21        32.65678
406.66        32.95891
407.11        33.13211
407.55        33.12648
408.00        33.01022
408.45        32.83399
408.90        32.60277
409.34        32.38759
409.79        32.33749
410.24        32.40365
410.68        32.37428
411.13        32.24242
411.58        32.12807
412.03        32.05235
412.47        32.00422
412.92        31.98338
413.37        31.98656
413.81        32.01706
414.26        32.10008
414.71        32.22456
415.15        32.39075
415.60        32.52483
416.05        32.54744
416.49        32.43777
416.94         32.2154
417.39        31.95749
417.83        31.78808
418.28        31.74516
418.73        31.79297
419.17        31.85233
419.62        31.79348
420.07        31.59806
420.51        31.31554
420.96        31.04692
421.41        30.91558
421.85        30.93833
422.30        31.08679
422.74        31.28231
423.19        31.45749
423.64        31.57472
424.08        31.66735
424.53        31.71651
424.98        31.74116
425.42        31.75265
425.87        31.73627
426.31        31.69186
426.76        31.63217
427.21        31.54843
427.65        31.43624
428.10        31.32464
428.54        31.23995
428.99        31.20213
429.44        31.29624
429.88        31.40792
430.33        31.24526
430.77        30.86657
431.22        30.67288
431.66        30.70871
432.11        30.83963
432.56        31.02205
433.00        31.31721
433.45        31.53409
433.89        31.41722
434.34        31.10344
434.78        30.89639
435.23        30.74074
435.67        31.49153
436.12        30.76213
436.57        30.62012
437.01        30.41891
437.46        30.37188
437.90        30.53337
438.35        30.31234
438.79        30.65386
439.24        30.65001
439.68        30.58322
440.13        30.23329
440.57        29.82319
441.02        30.10937
441.46        30.82297
441.91        31.14746
442.35         30.2524
442.80        29.91566
443.24        29.89237
443.69        29.85776
444.13         29.7855
444.58        29.71063
445.02        29.65334
445.47        29.75916
445.91        29.96439
446.36        30.02436
446.80        29.90518
447.24        29.71903
447.69        29.53556
448.13        29.40257
448.58        29.35194
449.02        29.35469
449.47        29.37965
449.91         29.3683
450.36        29.31285
450.80        29.23021
451.25        29.14897
451.69        29.08271
452.13        29.04837
452.58        29.03427
453.02        29.03926
453.47        29.07484
453.91        29.13436
454.36        29.20759
454.80        29.27373
455.24        29.28266
455.69        29.23387
456.13        29.14087
456.58        29.04095
457.02         28.9186
457.46        28.81296
457.91        28.77386
458.35        28.78765
458.79        28.81153
459.24        28.83059
459.68        28.90194
460.13        29.06929
460.57        29.09761
461.01        28.94399
461.46        29.43296
461.90        29.44699
462.34        29.07819
462.79        29.30966
463.23        29.13735
463.68        29.01152
464.12        28.90423
464.56         29.0497
465.01         29.2468
465.45        29.41672
465.89        29.46978
466.34        29.39767
466.78        29.15223
467.22        28.85434
467.67        28.85022
468.11        29.11234
468.55        29.18352
468.99         29.0444
469.44        29.02656
469.88        29.12774
470.32        29.13927
470.77        29.06941
471.21        29.04103
471.65        29.06597
472.10        29.10406
472.54        29.14189
472.98        29.21331
473.42        29.30894
473.87        29.33868
474.31        29.31316
474.75        29.43222
475.20        29.63837
475.64        29.60149
476.08        29.38672
476.52        29.35647
476.97        29.52488
477.41         29.7162
477.85        29.85989
478.29        29.92944
478.74        29.91131
479.18        29.76622
479.62        29.59955
480.06        29.58328
480.50        29.71115
480.95         29.8019
481.39         29.8153
481.83        29.82792
482.27        29.83555
482.72        29.80793
483.16        29.77794
483.60        29.79497
484.04        29.87234
484.48        30.05256
484.93        30.35616
485.37        30.37348
485.81        30.54518
486.25        30.67167
486.69        32.24215
487.14        31.35845
487.58        30.40014
488.02        31.17957
488.46        30.89629
488.90        31.17087
489.34         30.8333
489.79        30.91152
490.23        31.31615
490.67        31.45966
491.11        31.37928
491.55        31.38896
491.99        31.49484
492.43        31.52555
492.88        31.48464
493.32        31.44422
493.76        31.45021
494.20        31.54326
494.64        31.73387
495.08        32.03268
495.52        32.35857
495.96        32.53737
496.41        32.58054
496.85        32.60929
497.29        32.67107
497.73        32.86237
498.17        33.14404
498.61        33.23932
499.05        33.17406
499.49         33.2933
499.93        33.61196
500.37        33.83332
500.82        33.95395
501.26        34.25635
501.70        34.65296
502.14        34.67381
502.58        34.38667
503.02        34.29524
503.46        34.43848
503.90        34.55837
504.34        34.61023
504.78        34.63749
505.22         34.6297
505.66        34.58256
506.10         34.5389
506.54        34.56176
506.98        34.66484
507.42        34.83357
507.86        35.01756
508.30        35.13367
508.74        35.16154
509.18        35.12253
509.62        35.07398
510.06        35.10653
510.50        35.24163
510.94        35.45515
511.38        35.67733
511.82        35.79541
512.26         35.7826
512.70         35.6701
513.14        35.54345
513.58        35.53207
514.02        35.65647
514.46         35.8804
514.90        36.11112
515.34        36.12523
515.78        35.96311
516.22        35.70557
516.66        35.48213
517.10        35.19057
517.54        34.86906
517.98        35.40884
518.42        35.40434
518.86        35.67685
519.30        35.78522
519.74        35.87912
520.18        35.94249
520.62        35.93122
521.06        35.86272
521.50        35.73573
521.93        35.58636
522.37        35.48488
522.81        35.44979
523.25        35.46679
523.69        35.51635
524.13        35.56458
524.57        35.59494
525.01        35.61042
525.45        35.60992
525.89        35.59086
526.32        35.55352
526.76        35.50446
527.20        35.43198
527.64        35.32475
528.08        35.18649
528.52        35.01917
528.96        34.87099
529.40         34.8128
529.83        34.84948
530.27        34.96759
530.71        35.07948
531.15        35.04959
531.59        34.85695
532.03        34.54869
532.46         34.2267
532.90        34.07475
533.34        34.12162
533.78        34.30548
534.22        34.53212
534.66        34.65604
535.09        34.63325
535.53        34.52231
535.97        34.36837
536.41        34.23803
536.85        34.15738
537.28        34.11876
537.72        34.12743
538.16        34.09077
538.60        34.16884
539.04        34.21889
539.47        34.26175
539.91        34.34209
540.35        34.47859
540.79        34.36894
541.22        34.47018
541.66        34.55836
542.10        34.79538
542.54        34.61326
542.97        34.92052
543.41        35.05858
543.85         35.2703
544.29        35.46521
544.72         35.6004
545.16        35.71432
545.60        35.79383
546.04        35.72403
546.47        35.61794
546.91        35.87578
547.35        36.41263
547.79        36.76057
548.22        36.85939
548.66        36.86575
549.10        36.84518
549.53        37.04384
549.97        37.47125
550.41        37.46741
550.84        37.72115
551.28        37.85722
551.72         38.0934
552.15        38.31349
552.59        38.51886
553.03        38.72773
553.46        38.90258
553.90        39.02994
554.34        39.10193
554.77        39.12211
555.21        39.13826
555.65        39.20995
556.08        39.34446
556.52        39.52271
556.96        39.70055
557.39        39.85675
557.83        39.96686
558.27        39.94736
558.70        39.85804
559.14        39.87695
559.57        40.01006
560.01        40.22356
560.45        40.44255
560.88         40.4933
561.32        40.43425
561.75        40.42578
562.19        40.62954
562.63        40.66727
563.06         40.6086
563.50        40.67838
563.93        40.84473
564.37        41.03474
564.80        41.04583
565.24        41.11795
565.68        41.18887
566.11        41.27098
566.55        41.39709
566.98         41.4911
567.42        41.51402
567.85        41.93008
568.29        41.65492
568.72        41.98313
569.16        42.53305
569.60        42.89793
570.03        43.00134
570.47         43.2709
570.90        43.50312
571.34        43.62295
571.77        43.34307
572.21        43.82165
572.64        43.99982
573.08        44.21831
573.51        43.88102
573.95        44.67756
574.38        45.22566
574.82        45.27941
