SpectraSmart Spectrum 2.9.0.0
--------- Device Information -----------
Spectrum Name :  反射率_0
Saving Time :  2024/04/20 00:17:52
Spectro-Module Model Name : SE2030-DUVN
Spectro-Module Serial Number : OS361AC55029948
Wavelength Start : 200
Wavelength End : 1025
Wavelength Unit : Wavelength(nm)
Spectrum Unit : Reflectance(%)
-----------Spectrum Setting ------------
Integration Time : 30ms
Average : 10
Boxcar : 0
Background removal :  enabled
linearity correction :  enabled
SC :  disabled
Intensity correction :  disabled
DWT denoise :  enabled
savitzky-golay :  disabled
FFT :  disabled
Running average :  disabled
Kalman :  disabled
High pass :  disabled
---------------BEGIN--------------------
Wavelength(nm)             Reflectance(%)
200.29               0
200.75        68.64182
201.21         69.7999
201.67         73.0223
202.13        78.87656
202.58        87.38115
203.04        98.76968
203.50        109.1576
203.96        109.6817
204.42        100.8331
204.88        88.73432
205.34        78.78119
205.80        73.46659
206.26        71.79376
206.72        72.69698
207.18        76.11299
207.64        79.81694
208.10        81.04633
208.55         80.7928
209.01        79.09328
209.47         77.0071
209.93        74.86989
210.39        72.28461
210.85        69.97626
211.31         68.8457
211.77        68.88571
212.23        70.19026
212.69        71.99966
213.14         71.8556
213.60        69.07388
214.06        65.97744
214.52          64.245
214.98        64.91214
215.44        67.71211
215.90        72.07964
216.36        77.66499
216.81        82.78207
217.27        85.94164
217.73        87.69448
218.19        87.70583
218.65        85.54186
219.11        81.45701
219.57        75.28591
220.02         68.8337
220.48        67.24207
220.94        71.92706
221.40        81.70295
221.86        92.99131
222.32        100.2589
222.77        102.0442
223.23        100.3207
223.69        96.73404
224.15        93.84364
224.61        92.59251
225.06        92.08615
225.52        92.49612
225.98        94.09747
226.44        96.74627
226.90        100.3893
227.36        104.2168
227.81         106.317
228.27        106.3718
228.73        104.9035
229.19        102.7307
229.65        100.8672
230.10        99.49194
230.56        98.55653
231.02        97.89024
231.48        97.42898
231.93        97.02927
232.39        96.77615
232.85        96.57137
233.31        96.32487
233.77        95.99071
234.22        95.59426
234.68        94.98402
235.14        93.87659
235.60        92.32149
236.05        90.47805
236.51        88.77155
236.97        87.78689
237.43          87.655
237.88         88.5257
238.34        89.84598
238.80        90.82229
239.26        90.71309
239.71        89.59676
240.17        87.66634
240.63        85.81222
241.08        84.36239
241.54        83.14693
242.00        81.66092
242.46        78.71204
242.91        73.60193
243.37          65.159
243.83        54.17237
244.28          48.228
244.74        54.31437
245.20        70.48687
245.66        86.16904
246.11        92.84314
246.57        89.94192
247.03        78.09707
247.48        59.08859
247.94         48.7509
248.40        52.74269
248.85        61.00249
249.31         67.8627
249.77         71.6666
250.22        73.20196
250.68        73.80833
251.14        73.96391
251.59        74.13892
252.05        74.79636
252.51        75.84206
252.96        76.73779
253.42         77.0021
253.88        76.76456
254.33        76.32683
254.79        77.39763
255.25        81.35706
255.70        87.59158
256.16        94.83268
256.62        101.2176
257.07         104.711
257.53        105.5202
257.99        104.4459
258.44        101.9187
258.90        99.50772
259.35        97.29432
259.81        96.04267
260.27        95.18797
260.72        94.30409
261.18         93.7283
261.63        92.88762
262.09        92.60712
262.55        93.26582
263.00        94.48603
263.46        96.14146
263.91        96.97308
264.37           96.09
264.83        93.53449
265.28        89.83503
265.74        86.34732
266.19        84.28001
266.65        83.96002
267.11        84.69663
267.56         85.7318
268.02        86.07053
268.47        85.43291
268.93        84.18948
269.38        82.60178
269.84        81.29942
270.30        80.44411
270.75        79.80839
271.21        79.23183
271.66        78.44484
272.12        77.38907
272.57        76.16571
273.03        74.91549
273.48        73.70282
273.94        72.66403
274.39        71.72514
274.85        70.92116
275.31        70.18677
275.76        69.44159
276.22        68.70296
276.67        67.95121
277.13        67.35861
277.58         66.8223
278.04        66.38297
278.49        65.72211
278.95         64.5623
279.40        62.84782
279.86        60.86985
280.31        58.92951
280.77         57.6832
281.22        57.11152
281.68        57.05775
282.13        57.14303
282.59        56.91406
283.04        56.21942
283.50        55.27613
283.95        54.21014
284.41        53.30608
284.86        52.58626
285.32         52.0034
285.77        51.48133
286.22        51.02111
286.68        50.62016
287.13        50.25679
287.59        49.93077
288.04         49.5404
288.50         49.1032
288.95        48.58327
289.41        48.05058
289.86        47.52165
290.32        47.06571
290.77        46.65662
291.22        46.30839
291.68        46.00433
292.13        45.73543
292.59        45.54448
293.04        45.46035
293.50        45.56153
293.95         45.8403
294.40        46.26733
294.86        46.78524
295.31        47.30971
295.77        47.81396
296.22        48.30935
296.68        48.80681
297.13        49.31002
297.58        49.82618
298.04         50.3515
298.49        50.87932
298.95        51.45586
299.40        52.05934
299.85          52.673
300.31        53.27885
300.76        53.82386
301.21        54.30297
301.67        54.77113
302.12        55.17365
302.58        55.52559
303.03        55.80608
303.48        56.05059
303.94        56.37261
304.39         56.8874
304.84        57.61286
305.30        58.48151
305.75        59.31973
306.20        59.90494
306.66        60.21037
307.11        60.28323
307.57        60.24517
308.02        60.17942
308.47        60.15997
308.93        60.15148
309.38        60.17336
309.83        60.33009
310.29        60.61591
310.74        61.00337
311.19        61.33364
311.65        61.34083
312.10         60.9788
312.55        60.34079
313.00        59.65805
313.46        59.28994
313.91        59.29535
314.36        59.57611
314.82        59.93157
315.27        60.06282
315.72        59.86799
316.18         59.4646
316.63        58.96004
317.08        58.53932
317.53        58.25649
317.99         58.0402
318.44        57.85656
318.89        57.64221
319.35        57.37664
319.80        57.09622
320.25         56.8134
320.70        56.54097
321.16         56.2768
321.61        56.01796
322.06        55.75389
322.51        55.48033
322.97        55.18514
323.42        54.88041
323.87        54.56049
324.32        54.22662
324.78         53.8712
325.23        53.51807
325.68        53.15432
326.13        52.76969
326.59        52.36929
327.04        51.99397
327.49        51.66724
327.94          51.436
328.39        51.30371
328.85        51.21891
329.30        51.21021
329.75        51.23861
330.20        51.27581
330.66        51.30094
331.11        51.27303
331.56        51.06069
332.01        50.64996
332.46        50.07582
332.92        49.45287
333.37        49.01861
333.82        48.83828
334.27        48.87809
334.72        49.03608
335.17        49.12408
335.63        49.06174
336.08        48.90918
336.53        48.74218
336.98        48.71397
337.43        48.85402
337.88        49.10909
338.34        49.31134
338.79        49.25029
339.24        48.86544
339.69        48.22779
340.14         47.5662
340.59        47.26018
341.05        47.38751
341.50        47.83864
341.95         48.3543
342.40        48.53173
342.85        48.28473
343.30        47.75474
343.75        47.14273
344.20        46.77729
344.66        46.74555
345.11        46.90502
345.56        47.15866
346.01         47.3537
346.46         47.4202
346.91        47.42198
347.36        47.30324
347.81        46.96478
348.26        46.42589
348.72        45.74339
349.17        45.06789
349.62        44.72584
350.07        44.79092
350.52        45.15991
350.97        45.65578
351.42        46.00628
351.87        46.12066
352.32        46.05561
352.77        45.85703
353.22        45.60622
353.67        45.34092
354.13        45.05549
354.58        44.71671
355.03        44.32827
355.48        43.90984
355.93        43.49336
356.38        43.14491
356.83        42.95278
357.28        42.91905
357.73        42.99392
358.18        43.09079
358.63        43.07029
359.08         42.8866
359.53         42.5815
359.98        42.17711
360.43        41.70769
360.88        41.20359
361.33        40.66495
361.78        40.15543
362.23        39.78271
362.68        39.56614
363.13        39.47144
363.58        39.42373
364.03        39.29846
364.48        39.05164
364.93        38.70706
365.38        38.28192
365.83         37.8187
366.28        37.34685
366.73        36.86294
367.18        36.39238
367.63        35.97266
368.08        35.61583
368.53        35.32632
368.98        35.08802
369.43        34.86271
369.88        34.63881
370.33        34.42467
370.78        34.22567
371.23        34.05695
371.68        33.92022
372.13        33.79614
372.58        33.68732
373.03        33.60486
373.48        33.53824
373.93        33.47566
374.38        33.37308
374.83        33.16228
375.28        32.83385
375.72        32.40524
376.17        31.95127
376.62        31.55364
377.07        31.24985
377.52         31.0253
377.97        30.86761
378.42        30.75182
378.87        30.66116
379.32        30.59677
379.77        30.54677
380.22        30.48986
380.67        30.41732
381.11        30.33321
381.56        30.21385
382.01        30.05136
382.46        29.84722
382.91        29.59862
383.36        29.35189
383.81        29.17413
384.26        29.07666
384.71        29.05584
385.15        29.02641
385.60        28.86557
386.05        28.55701
386.50        28.14268
386.95        27.76216
387.40        27.63477
387.85        27.79033
388.29        28.13552
388.74        28.50685
389.19        28.65034
389.64        28.51505
390.09        28.16926
390.54         27.7552
390.98        27.49305
391.43        27.46128
391.88        27.57562
392.33        27.70144
392.78        27.64683
393.23        27.39077
393.67        26.99623
394.12        26.63628
394.57         26.4564
395.02        26.48474
395.47        26.66535
395.91        26.89679
396.36        26.97251
396.81        26.85333
397.26        26.60445
397.71        26.34452
398.15        26.22923
398.60        26.31622
399.05        26.52117
399.50        26.74767
399.95        26.86321
400.39         26.8356
400.84         26.7048
401.29        26.52868
401.74         26.4127
402.18         26.3987
402.63        26.44713
403.08        26.50527
403.53        26.48261
403.97        26.36096
404.42        26.18674
404.87        26.02811
405.32        25.99507
405.76        26.10515
406.21        26.31628
406.66        26.55014
407.11        26.68584
407.55        26.69458
408.00        26.61713
408.45        26.49984
408.90        26.35697
409.34        26.24206
409.79        26.27481
410.24         26.3921
410.68        26.38384
411.13        26.24146
411.58        26.07686
412.03        25.93821
412.47        25.87074
412.92        25.88912
413.37         25.9716
413.81        26.09848
414.26        26.25726
414.71        26.42566
415.15        26.61349
415.60        26.75761
416.05        26.79037
416.49        26.69902
416.94        26.50612
417.39        26.28416
417.83        26.15255
418.28        26.14817
418.73        26.23125
419.17        26.34588
419.62        26.39469
420.07        26.35702
420.51        26.26832
420.96        26.16652
421.41        26.08275
421.85        26.02365
422.30        25.99139
422.74        25.98937
423.19         26.0653
423.64        26.20889
424.08        26.42298
424.53        26.62952
424.98        26.72884
425.42        26.70066
425.87        26.57616
426.31        26.41829
426.76        26.33512
427.21        26.34078
427.65        26.39255
428.10        26.48429
428.54        26.56926
428.99        26.63478
429.44        26.81549
429.88        26.99091
430.33        26.79158
430.77        26.31884
431.22        26.09776
431.66        26.18027
432.11        26.32398
432.56        26.48905
433.00        26.85306
433.45        27.17606
433.89        27.04228
434.34        26.63462
434.78        26.29143
435.23        25.97923
435.67          27.156
436.12        26.43005
436.57        26.32953
437.01        25.98076
437.46        25.88109
437.90        26.05888
438.35        26.27969
438.79        26.45731
439.24        26.56592
439.68        26.57827
440.13        26.32855
440.57        25.98443
441.02        26.15421
441.46        26.64182
441.91        26.80668
442.35        25.97806
442.80        25.74482
443.24         25.8485
443.69         25.8284
444.13        25.66896
444.58        25.58374
445.02        25.59114
445.47        25.69568
445.91        25.83832
446.36        25.86348
446.80        25.74453
447.24        25.56439
447.69        25.38277
448.13        25.23974
448.58        25.16588
449.02        25.14195
449.47        25.15169
449.91        25.15873
450.36        25.15727
450.80        25.15323
451.25        25.15892
451.69        25.16701
452.13        25.18423
452.58        25.20179
453.02        25.21862
453.47        25.24499
453.91        25.27888
454.36        25.31189
454.80        25.33196
455.24        25.31419
455.69        25.26518
456.13        25.17425
456.58        25.07403
457.02        24.99904
457.46        24.95546
457.91        24.87603
458.35        24.78114
458.79        24.77081
459.24        24.83976
459.68        24.96479
460.13        25.14831
460.57        25.17959
461.01         25.0201
461.46        25.34431
461.90        25.21354
462.34        24.96839
462.79        25.13794
463.23         25.0496
463.68        25.05817
464.12         25.0069
464.56        25.11275
465.01        25.22418
465.45        25.30641
465.89        25.32275
466.34        25.27529
466.78        25.08983
467.22        24.85744
467.67        24.90429
468.11        25.17819
468.55        25.18316
468.99        24.93631
469.44        24.87019
469.88        24.99616
470.32        25.06155
470.77        25.04352
471.21        25.03188
471.65        25.02726
472.10        25.00285
472.54        24.97255
472.98        25.00711
473.42        25.10772
473.87        25.18274
474.31        25.21731
474.75        25.34618
475.20        25.51157
475.64        25.44182
476.08        25.21223
476.52        25.16134
476.97        25.30844
477.41        25.49588
477.85        25.64914
478.29        25.72323
478.74        25.70045
479.18        25.55253
479.62        25.38759
480.06        25.37889
480.50        25.52543
480.95        25.66364
481.39        25.73172
481.83        25.75791
482.27        25.73024
482.72        25.62887
483.16        25.52328
483.60        25.52389
484.04        25.63837
484.48        25.94135
484.93        26.40974
485.37        26.51789
485.81        26.29949
486.25        26.86041
486.69        27.59929
487.14        26.84272
487.58        26.66854
488.02        27.15631
488.46        27.08357
488.90        27.14381
489.34        26.79622
489.79        26.89359
490.23        27.34788
490.67        27.54796
491.11        27.47693
491.55        27.42348
491.99        27.42621
492.43        27.43755
492.88        27.47379
493.32        27.52601
493.76        27.61409
494.20        27.76943
494.64        27.99011
495.08        28.30295
495.52        28.63638
495.96         28.7918
496.41         28.8062
496.85        28.89412
497.29        29.07797
497.73        29.31859
498.17        29.57212
498.61        29.66375
499.05        29.62553
499.49        29.74129
499.93        30.03103
500.37        30.24965
500.82        30.38776
501.26        30.67642
501.70        31.03596
502.14        31.05643
502.58        30.80474
503.02        30.73862
503.46        30.89353
503.90        31.03277
504.34        31.11016
504.78        31.15512
505.22        31.15617
505.66        31.11627
506.10        31.07148
506.54        31.07423
506.98        31.14074
507.42        31.26016
507.86        31.40918
508.30        31.54825
508.74        31.66191
509.18        31.75473
509.62        31.84374
510.06        31.95583
510.50        32.09558
510.94        32.25578
511.38         32.3959
511.82        32.45365
512.26        32.41851
512.70        32.30735
513.14        32.19084
513.58        32.17476
514.02        32.27396
514.46         32.4642
514.90        32.66131
515.34        32.65681
515.78        32.48523
516.22        32.23264
516.66        32.02648
517.10        31.75297
517.54        31.44753
517.98        32.05004
518.42        32.07243
518.86        32.36413
519.30        32.46064
519.74        32.52375
520.18        32.55249
520.62         32.5274
521.06        32.47083
521.50        32.37006
521.93        32.24976
522.37        32.16081
522.81        32.11647
523.25        32.11396
523.69        32.13145
524.13        32.13025
524.57        32.09911
525.01          32.043
525.45        31.98776
525.89        31.97463
526.32        32.00722
526.76        32.07359
527.20        32.12172
527.64        32.07455
528.08        31.92024
528.52        31.68421
528.96           31.44
529.40        31.29886
529.83        31.28176
530.27        31.36223
530.71        31.45979
531.15         31.4497
531.59        31.30689
532.03        31.07484
532.46        30.82875
532.90         30.7067
533.34        30.72878
533.78        30.84589
534.22        30.98906
534.66        31.05427
535.09        31.00965
535.53        30.90119
535.97        30.76225
536.41        30.64041
536.85        30.55571
537.28        30.50665
537.72        30.50205
538.16        30.46413
538.60        30.53716
539.04        30.59057
539.47        30.63994
539.91        30.72141
540.35        30.85031
540.79         30.7566
541.22        30.85063
541.66        30.93399
542.10        31.15183
542.54        30.99428
542.97        31.27299
543.41        31.39581
543.85         31.5804
544.29        31.74861
544.72        31.86423
545.16        31.96419
545.60        32.03888
546.04        31.98579
546.47        31.90871
546.91        32.17041
547.35        32.69412
547.79         33.0563
548.22        33.19777
548.66        33.25237
549.10        33.27881
549.53        33.50352
549.97        33.93372
550.41        33.96774
550.84        34.22887
551.28        34.37498
551.72        34.61751
552.15         34.8737
552.59          35.145
553.03        35.44003
553.46        35.69491
553.90        35.85205
554.34        35.90018
554.77         35.8601
555.21        35.81175
555.65        35.86707
556.08        36.04464
556.52         36.3051
556.96        36.58008
557.39        36.80782
557.83        36.95164
558.27        36.94709
558.70        36.85285
559.14        36.83802
559.57        36.91456
560.01        37.05281
560.45        37.19818
560.88        37.20673
561.32        37.13818
561.75        37.15808
562.19         37.4041
562.63        37.46398
563.06        37.41608
563.50        37.56732
563.93        37.86906
564.37        38.13624
564.80        38.17507
565.24        38.27386
565.68        38.36851
566.11        38.45636
566.55        38.57335
566.98        38.59645
567.42        38.53494
567.85        39.01256
568.29        38.97025
568.72         39.3256
569.16        39.70357
569.60        39.99878
570.03        40.16167
570.47         40.2878
570.90        40.21991
571.34        40.67808
571.77         40.4288
572.21        40.94462
572.64        41.06624
573.08        41.21388
573.51        41.42103
573.95        41.83738
574.38        42.23621
574.82        42.42494
