SpectraSmart Spectrum 2.9.0.0
--------- Device Information -----------
Spectrum Name :  反射率_0
Saving Time :  2024/04/20 00:33:00
Spectro-Module Model Name : SE2030-DUVN
Spectro-Module Serial Number : OS361AC55029948
Wavelength Start : 200
Wavelength End : 1025
Wavelength Unit : Wavelength(nm)
Spectrum Unit : Reflectance(%)
-----------Spectrum Setting ------------
Integration Time : 30ms
Average : 10
Boxcar : 0
Background removal :  enabled
linearity correction :  enabled
SC :  disabled
Intensity correction :  disabled
DWT denoise :  enabled
savitzky-golay :  disabled
FFT :  disabled
Running average :  disabled
Kalman :  disabled
High pass :  disabled
---------------BEGIN--------------------
Wavelength(nm)             Reflectance(%)
200.29               0
200.75        55.09594
201.21        57.51064
201.67        62.62458
202.13        69.66924
202.58        77.83089
203.04        87.35622
203.50        95.25404
203.96        95.10179
204.42        87.68005
204.88        77.67975
205.34        69.19585
205.80        63.89128
206.26        60.73355
206.72        58.51603
207.18        57.06295
207.64         56.6469
208.10        57.60987
208.55        60.27368
209.01         62.3968
209.47        62.81824
209.93        61.75394
210.39        59.64834
210.85        57.34081
211.31        55.78357
211.77        54.99069
212.23        54.61884
212.69        54.48226
213.14        54.31799
213.60          53.795
214.06        53.75822
214.52        54.01505
214.98        54.44237
215.44        54.98777
215.90        55.29178
216.36        55.94218
216.81        58.00143
217.27        61.26653
217.73        65.33931
218.19        67.92407
218.65        65.88412
219.11        58.76216
219.57        46.86784
220.02        33.18343
220.48        25.86047
220.94        27.87485
221.40        37.71661
221.86        50.14957
222.32        56.91863
222.77        56.03264
223.23        50.24261
223.69        43.49526
224.15        41.40548
224.61         44.2322
225.06        49.04414
225.52        53.27217
225.98        54.93584
226.44        54.03653
226.90        51.59941
227.36        48.59821
227.81        46.60833
228.27        46.45451
228.73        47.35426
229.19        48.66584
229.65        49.68353
230.10         50.2183
230.56        50.54179
231.02        50.78312
231.48        51.10057
231.93        51.46841
232.39        51.80505
232.85        51.94712
233.31        51.70007
233.77        51.05092
234.22        50.10728
234.68        49.05844
235.14        48.13178
235.60        47.48011
236.05        47.11257
236.51        47.07544
236.97        47.40591
237.43        48.17789
237.88        49.66437
238.34        51.80037
238.80        54.31382
239.26         56.6255
239.71        58.32708
240.17        59.33998
240.63        60.45464
241.08        61.97744
241.54        63.66838
242.00        64.84697
242.46        64.12957
242.91        60.79066
243.37        54.00063
243.83         44.3107
244.28        38.08079
244.74         41.6862
245.20        54.04523
245.66        66.45753
246.11        71.36212
246.57        68.08282
247.03        57.28484
247.48        41.43412
247.94        35.70243
248.40        43.00415
248.85        52.96349
249.31        60.42854
249.77        64.34361
250.22        65.71975
250.68        65.83278
251.14        65.12114
251.59        64.11961
252.05        63.47169
252.51        63.14986
252.96        62.88783
253.42        62.59999
253.88        62.37207
254.33        62.25345
254.79        63.53539
255.25        67.19836
255.70        72.62192
256.16        78.73613
256.62        83.67211
257.07        85.35131
257.53        84.11345
257.99        80.95528
258.44        76.95013
258.90        74.30502
259.35        72.87399
259.81        72.55313
260.27        72.37775
260.72         71.5815
261.18        70.44516
261.63        68.75095
262.09        67.35374
262.55        66.82514
263.00        67.00255
263.46        67.70143
263.91         67.9061
264.37        66.79733
264.83        64.40823
265.28        61.17213
265.74        58.20606
266.19        56.54902
266.65        56.40844
267.11         57.1869
267.56        58.17121
268.02        58.36241
268.47        57.53252
268.93        56.02964
269.38        54.17593
269.84        52.71189
270.30        51.83626
270.75        51.32679
271.21        50.95272
271.66        50.35772
272.12        49.44341
272.57        48.33782
273.03        47.23036
273.48        46.29689
273.94        45.64521
274.39        45.16506
274.85        44.75401
275.31         44.2121
275.76        43.47173
276.22        42.61522
276.67        41.74881
277.13        41.16095
277.58        40.81698
278.04        40.66721
278.49        40.42831
278.95        39.79683
279.40        38.70781
279.86        37.39183
280.31        36.06459
280.77        35.18753
281.22        34.76201
281.68        34.67611
282.13        34.69975
282.59        34.54993
283.04        34.14245
283.50        33.61555
283.95        33.05151
284.41        32.61766
284.86        32.32866
285.32        32.15466
285.77        32.04418
286.22        32.00278
286.68        32.01019
287.13        32.03354
287.59        32.05955
288.04         32.0253
288.50        31.93988
288.95         31.7838
289.41        31.58246
289.86        31.29176
290.32        30.97555
290.77        30.65172
291.22        30.41323
291.68         30.3594
292.13         30.5123
292.59        30.86108
293.04        31.37049
293.50        32.00321
293.95         32.7177
294.40        33.50452
294.86        34.33155
295.31        35.16001
295.77        35.97937
296.22        36.79146
296.68        37.58812
297.13        38.34352
297.58        39.06456
298.04        39.75986
298.49        40.47593
298.95        41.33121
299.40        42.31635
299.85        43.38738
300.31        44.44384
300.76        45.31686
301.21        45.97516
301.67        46.50436
302.12        46.94113
302.58        47.42239
303.03         47.9563
303.48        48.53306
303.94        49.17979
304.39        49.88654
304.84        50.64568
305.30        51.43584
305.75        52.17094
306.20        52.75413
306.66        53.18279
307.11        53.46217
307.57         53.6409
308.02        53.70232
308.47        53.69846
308.93        53.63702
309.38        53.58786
309.83        53.72262
310.29        54.05277
310.74        54.52226
311.19        54.95887
311.65        55.08071
312.10        54.82819
312.55        54.29709
313.00        53.69103
313.46         53.3243
313.91        53.25542
314.36        53.40599
314.82          53.619
315.27        53.66742
315.72        53.47437
316.18        53.13618
316.63         52.7452
317.08         52.4576
317.53        52.30964
317.99        52.23135
318.44        52.17086
318.89        52.03564
319.35        51.79945
319.80        51.50736
320.25        51.18081
320.70        50.85181
321.16        50.53083
321.61        50.20924
322.06        49.90535
322.51        49.65855
322.97        49.46044
323.42        49.31052
323.87        49.14554
324.32        48.86817
324.78        48.45145
325.23        47.94576
325.68        47.40397
326.13        46.92924
326.59        46.56018
327.04        46.30007
327.49         46.1287
327.94        46.01805
328.39        45.94633
328.85           45.89
329.30        45.87955
329.75        45.88908
330.20        45.89806
330.66         45.8726
331.11        45.79342
331.56        45.57267
332.01        45.20218
332.46        44.71278
332.92        44.17303
333.37        43.72978
333.82        43.43196
334.27        43.27116
334.72        43.21673
335.17        43.20373
335.63        43.18922
336.08        43.19666
336.53        43.23547
336.98        43.34299
337.43        43.51147
337.88        43.71753
338.34        43.84179
338.79        43.75092
339.24        43.40782
339.69        42.85868
340.14         42.2921
340.59        42.02398
341.05          42.116
341.50        42.48211
341.95        42.90991
342.40        43.06482
342.85        42.87245
343.30         42.4498
343.75        41.94806
344.20         41.6159
344.66        41.52255
345.11        41.55524
345.56        41.66376
346.01        41.76859
346.46        41.82206
346.91        41.86602
347.36        41.81868
347.81        41.54189
348.26        41.04182
348.72        40.38676
349.17        39.73455
349.62        39.42427
350.07        39.52991
350.52        39.93754
350.97        40.45981
351.42        40.81176
351.87        40.90409
352.32        40.80595
352.77        40.57174
353.22        40.29536
353.67        40.01972
354.13        39.73107
354.58        39.41153
355.03        39.08453
355.48        38.76788
355.93        38.48882
356.38         38.2682
356.83        38.12411
357.28        38.04733
357.73        38.00541
358.18        37.97884
358.63        37.94019
359.08        37.86717
359.53         37.7667
359.98        37.57976
360.43        37.21771
360.88        36.68542
361.33        36.02098
361.78        35.36243
362.23        34.93682
362.68         34.7916
363.13        34.85222
363.58        34.97488
364.03        34.93158
364.48        34.65518
364.93        34.20491
365.38        33.65606
365.83        33.14517
366.28        32.72763
366.73        32.36737
367.18        32.04063
367.63        31.71047
368.08        31.36873
368.53        31.04409
368.98        30.75336
369.43        30.50715
369.88        30.30621
370.33        30.14168
370.78        29.99431
371.23        29.84046
371.68         29.6714
372.13        29.48237
372.58        29.29969
373.03        29.17216
373.48        29.10015
373.93        29.05937
374.38        28.98737
374.83         28.7882
375.28        28.44536
375.72        27.98661
376.17         27.4981
376.62        27.07851
377.07        26.77175
377.52        26.55816
377.97        26.42109
378.42        26.32967
378.87        26.26435
379.32        26.22706
379.77        26.20806
380.22        26.18944
380.67        26.16187
381.11        26.12623
381.56        26.05194
382.01        25.91778
382.46        25.72266
382.91        25.46842
383.36        25.21031
383.81        25.03016
384.26        24.94191
384.71        24.93489
385.15        24.92157
385.60        24.77199
386.05        24.46882
386.50        24.05963
386.95        23.67456
387.40        23.51869
387.85        23.62243
388.29        23.89749
388.74        24.20355
389.19        24.32803
389.64        24.22359
390.09        23.94878
390.54        23.60401
390.98        23.34301
391.43        23.23412
391.88        23.22168
392.33        23.22762
392.78        23.14112
393.23        22.94976
393.67        22.68409
394.12         22.4622
394.57         22.3682
395.02        22.41679
395.47         22.5736
395.91         22.7567
396.36        22.79959
396.81        22.67302
397.26        22.42297
397.71        22.16318
398.15        22.04596
398.60        22.12166
399.05        22.31834
399.50        22.52363
399.95        22.57718
400.39        22.44677
400.84        22.18049
401.29        21.87885
401.74        21.72525
402.18        21.77853
402.63        21.97214
403.08        22.19443
403.53        22.26591
403.97        22.14627
404.42        21.90658
404.87        21.64897
405.32        21.53989
405.76        21.61576
406.21        21.81495
406.66        22.04712
407.11        22.17406
407.55        22.16032
408.00        22.05556
408.45        21.90757
408.90        21.74269
409.34        21.61238
409.79        21.60806
410.24        21.67997
410.68        21.65944
411.13        21.53981
411.58        21.41817
412.03        21.32155
412.47         21.2649
412.92        21.25653
413.37        21.27985
413.81        21.34884
414.26        21.50231
414.71        21.72652
415.15        22.01492
415.60        22.25961
416.05        22.31511
416.49        22.15052
416.94        21.81377
417.39        21.43068
417.83        21.20646
418.28        21.19967
418.73        21.34552
419.17        21.54386
419.62        21.62531
420.07        21.55304
420.51        21.38785
420.96        21.20095
421.41        21.07721
421.85        21.03687
422.30        21.05834
422.74        21.11887
423.19        21.22447
423.64        21.35565
424.08        21.52368
424.53         21.6738
424.98        21.74142
425.42        21.71419
425.87        21.61075
426.31        21.46902
426.76        21.35973
427.21        21.29296
427.65        21.24331
428.10        21.22819
428.54        21.25045
428.99        21.31071
429.44        21.48733
429.88        21.66747
430.33        21.56701
430.77        21.23966
431.22        21.02907
431.66        21.00425
432.11        21.09371
432.56        21.27228
433.00        21.59304
433.45        21.83997
433.89         21.7253
434.34        21.39758
434.78        21.06598
435.23        20.71885
435.67        21.75434
436.12        21.12947
436.57        21.10592
437.01        20.86702
437.46        20.80266
437.90         20.9279
438.35        21.06302
438.79        21.15359
439.24        21.20688
439.68        21.21003
440.13          20.992
440.57        20.69527
441.02          20.879
441.46        21.35168
441.91        21.46118
442.35        20.69126
442.80         20.4308
443.24        20.48911
443.69        20.49545
444.13         20.4133
444.58        20.34768
445.02        20.30609
445.47        20.33518
445.91        20.40926
446.36        20.41871
446.80        20.34701
447.24        20.25322
447.69        20.16293
448.13        20.07262
448.58        19.99899
449.02        19.93711
449.47        19.88984
449.91        19.85375
450.36        19.83325
450.80        19.82616
451.25        19.83456
451.69        19.84051
452.13        19.84558
452.58        19.84422
453.02        19.84451
453.47        19.86384
453.91        19.90316
454.36        19.95442
454.80        19.99033
455.24        19.96464
455.69        19.87895
456.13        19.73195
456.58         19.5833
457.02        19.50886
457.46        19.51916
457.91        19.54534
458.35        19.55892
458.79         19.5685
459.24        19.55967
459.68        19.53788
460.13        19.56042
460.57        19.53019
461.01        19.43092
461.46        19.79358
461.90        19.84877
462.34        19.62159
462.79        19.76664
463.23        19.61754
463.68         19.4915
464.12        19.38815
464.56        19.47466
465.01        19.60798
465.45        19.72988
465.89        19.77595
466.34        19.73936
466.78        19.57643
467.22         19.3724
467.67        19.40207
468.11        19.63128
468.55        19.66551
468.99        19.50891
469.44        19.48765
469.88        19.60694
470.32        19.67088
470.77        19.66523
471.21        19.66813
471.65        19.67983
472.10        19.67662
472.54        19.66006
472.98        19.67472
473.42        19.72126
473.87        19.73405
474.31        19.71379
474.75        19.78093
475.20        19.89473
475.64        19.83945
476.08         19.6702
476.52        19.64494
476.97        19.77631
477.41        19.94476
477.85        20.08907
478.29        20.16847
478.74        20.16823
479.18        20.06474
479.62        19.94839
480.06          19.967
480.50        20.11808
480.95        20.26347
481.39        20.34508
481.83        20.37029
482.27        20.32864
482.72        20.21895
483.16        20.09394
483.60        20.02925
484.04        20.02994
484.48        20.17774
484.93        20.50773
485.37        20.54751
485.81        20.49454
486.25        21.15124
486.69        21.90366
487.14        21.24722
487.58        20.80805
488.02        21.78969
488.46        21.24356
488.90        21.46164
489.34        21.34157
489.79        21.41288
490.23        21.62307
490.67        21.81135
491.11        21.94679
491.55        21.89447
491.99        21.70882
492.43        21.64263
492.88        21.72943
493.32        21.81049
493.76         21.8878
494.20        22.03122
494.64        22.23567
495.08        22.50097
495.52         22.7811
495.96        22.95625
496.41         23.0455
496.85        23.16624
497.29        23.32669
497.73        23.52456
498.17        23.72481
498.61        23.76622
499.05        23.69176
499.49        23.77081
499.93        24.02707
500.37        24.25132
500.82        24.42082
501.26        24.69872
501.70        25.01291
502.14        25.04051
502.58         24.8381
503.02        24.77446
503.46        24.88906
503.90        24.98533
504.34        25.03246
504.78        25.06123
505.22        25.06527
505.66        25.04632
506.10        25.03297
506.54        25.06598
506.98        25.15451
507.42        25.28551
507.86        25.43454
508.30        25.56139
508.74        25.65098
509.18        25.71064
509.62        25.75192
510.06        25.79374
510.50        25.84405
510.94         25.9014
511.38        25.95241
511.82        25.97639
512.26        25.97159
512.70        25.94467
513.14        25.92947
513.58         25.9733
514.02        26.07571
514.46        26.22302
514.90        26.36694
515.34        26.36627
515.78        26.25034
516.22        26.10611
516.66        26.01322
517.10        25.76699
517.54        25.38703
517.98         25.9239
518.42        25.80784
518.86        26.04407
519.30         26.1462
519.74        26.26672
520.18        26.36569
520.62        26.35982
521.06        26.25928
521.50        26.07473
521.93        25.86271
522.37        25.72474
522.81        25.68677
523.25        25.72414
523.69        25.79774
524.13        25.84403
524.57        25.84098
525.01        25.80284
525.45        25.74767
525.89        25.70366
526.32        25.67666
526.76        25.65823
527.20        25.62212
527.64         25.5337
528.08        25.38984
528.52        25.20448
528.96        25.02396
529.40        24.91543
529.83        24.89017
530.27        24.93441
530.71        24.98863
531.15        24.96017
531.59        24.83295
532.03        24.63905
532.46        24.44166
532.90        24.35858
533.34        24.40397
533.78        24.53371
534.22        24.68497
534.66        24.76294
535.09        24.73756
535.53        24.64805
535.97        24.52074
536.41        24.39347
536.85        24.28603
537.28        24.20095
537.72         24.1536
538.16        24.09501
538.60        24.14271
539.04        24.18906
539.47        24.24561
539.91         24.3378
540.35        24.47441
540.79        24.44184
541.22        24.55383
541.66         24.6331
542.10        24.79473
542.54        24.64035
542.97        24.83615
543.41        24.94573
543.85        25.14751
544.29        25.36522
544.72        25.55173
545.16        25.70897
545.60        25.82067
546.04        25.81296
546.47        25.76832
546.91        25.97915
547.35        26.38692
547.79        26.64952
548.22         26.7364
548.66         26.7805
549.10        26.83262
549.53        27.06837
549.97        27.47617
550.41        27.53424
550.84        27.73928
551.28        27.82755
551.72        27.98599
552.15        28.17447
552.59        28.40088
553.03        28.65991
553.46        28.89746
553.90        29.06225
554.34        29.14113
554.77        29.15355
555.21        29.14795
555.65        29.18719
556.08        29.28442
556.52        29.41751
556.96        29.56218
557.39          29.718
557.83         29.8644
558.27        29.93328
558.70        29.94151
559.14        29.97654
559.57        30.03762
560.01        30.11682
560.45        30.18957
560.88         30.1804
561.32        30.14848
561.75        30.18262
562.19        30.38923
562.63        30.49765
563.06        30.53227
563.50         30.5883
563.93        30.66647
564.37        30.81798
564.80        30.89944
565.24        31.03479
565.68        31.15418
566.11        31.25544
566.55        31.35786
566.98        31.40496
567.42        31.39224
567.85        31.72289
568.29        31.58718
568.72        31.92249
569.16        32.38843
569.60        32.77748
570.03        32.85349
570.47         32.9747
570.90        32.94796
571.34        33.31053
571.77        33.20722
572.21         33.4294
572.64        33.71877
573.08        33.95958
573.51        34.00669
573.95        34.66248
574.38        34.81884
574.82        35.08694
