SpectraSmart Spectrum 2.9.0.0
--------- Device Information -----------
Spectrum Name :  反射率_0
Saving Time :  2024/04/20 00:56:13
Spectro-Module Model Name : SE2030-DUVN
Spectro-Module Serial Number : OS361AC55029948
Wavelength Start : 200
Wavelength End : 1025
Wavelength Unit : Wavelength(nm)
Spectrum Unit : Reflectance(%)
-----------Spectrum Setting ------------
Integration Time : 30ms
Average : 10
Boxcar : 0
Background removal :  enabled
linearity correction :  enabled
SC :  disabled
Intensity correction :  disabled
DWT denoise :  enabled
savitzky-golay :  disabled
FFT :  disabled
Running average :  disabled
Kalman :  disabled
High pass :  disabled
---------------BEGIN--------------------
Wavelength(nm)             Reflectance(%)
200.29               0
200.75        71.56921
201.21        69.97883
201.67        69.05312
202.13        71.63396
202.58        79.10571
203.04         91.4546
203.50        104.3023
203.96        106.7672
204.42        98.31665
204.88        85.99675
205.34        75.51709
205.80        69.38874
206.26        66.53492
206.72        65.45586
207.18        66.00504
207.64        67.60437
208.10        69.27529
208.55        71.50108
209.01        72.76221
209.47        72.62697
209.93         71.4668
210.39        69.51123
210.85         67.5267
211.31        66.48752
211.77        66.46017
212.23        67.21625
212.69        68.75839
213.14        70.44083
213.60        71.10555
214.06        71.52136
214.52        71.65622
214.98        71.56763
215.44        71.28727
215.90        70.41805
216.36         69.7487
216.81        70.99837
217.27        74.29902
217.73        79.13622
218.19        82.89797
218.65        82.02825
219.11        76.00359
219.57        65.25154
220.02        52.83938
220.48        46.93938
220.94        50.36298
221.40        61.24098
221.86        74.16663
222.32        80.76396
222.77        79.11766
223.23        72.38103
223.69         64.3531
224.15        60.49642
224.61        61.48363
225.06        64.58758
225.52         68.0079
225.98        70.45952
226.44         71.7964
226.90        72.68961
227.36        73.11335
227.81        72.69004
228.27        71.77869
228.73        70.45352
229.19        69.15039
229.65        68.42768
230.10        68.26624
230.56        68.52548
231.02        69.04842
231.48        69.71074
231.93         70.3703
232.39         71.0898
232.85        71.60612
233.31        71.55678
233.77        70.89517
234.22        69.72345
234.68        68.34454
235.14        67.24075
235.60        66.62591
236.05        66.44326
236.51        66.57083
236.97        66.77597
237.43        67.00844
237.88        67.52772
238.34        68.25422
238.80        69.46882
239.26        71.03322
239.71        72.60136
240.17        73.68197
240.63         74.2962
241.08        74.57241
241.54        74.52929
242.00        73.91547
242.46        72.03979
242.91        68.49372
243.37        62.35815
243.83        54.40038
244.28        50.73909
244.74         56.7022
245.20        70.54724
245.66         83.5717
246.11        88.99152
246.57        86.43758
247.03        76.40125
247.48        60.57203
247.94        52.68222
248.40        56.95827
248.85        64.52719
249.31        70.64011
249.77        73.97313
250.22        75.24253
250.68        75.61237
251.14        75.33289
251.59        74.54014
252.05        73.61476
252.51        72.57454
252.96         71.4785
253.42        70.82367
253.88        70.89345
254.33        71.59838
254.79        73.72909
255.25        77.72182
255.70        82.95963
256.16        88.53659
256.62        93.17303
257.07        95.48724
257.53        95.67311
257.99         94.2766
258.44        91.44606
258.90        88.41602
259.35        85.44679
259.81         83.4372
260.27        81.99791
260.72        80.80345
261.18        80.05367
261.63        79.14137
262.09        78.77078
262.55        79.24654
263.00        80.23134
263.46        81.62984
263.91        82.26815
264.37        81.24214
264.83        78.62069
265.28        74.90821
265.74        71.45135
266.19        69.53885
266.65        69.43139
267.11        70.40533
267.56        71.61281
268.02        71.89319
268.47        70.97191
268.93         69.2894
269.38        67.18826
269.84        65.44511
270.30        64.30135
270.75        63.51049
271.21        62.95084
271.66        62.41877
272.12        61.81665
272.57        61.20284
273.03        60.56629
273.48        59.75086
273.94        58.81929
274.39        57.77063
274.85        56.71916
275.31         55.7488
275.76        54.85242
276.22         54.0317
276.67        53.27388
277.13        52.72121
277.58        52.28397
278.04         51.9793
278.49        51.56219
278.95        50.81161
279.40         49.6561
279.86        48.30368
280.31        46.90675
280.77        45.88034
281.22        45.20684
281.68        44.81631
282.13        44.51972
282.59        44.11562
283.04        43.53263
283.50        42.90335
283.95        42.26253
284.41        41.72959
284.86        41.29621
285.32        40.94864
285.77        40.67468
286.22        40.55082
286.68        40.56673
287.13        40.65665
287.59        40.73248
288.04        40.60426
288.50        40.27447
288.95        39.75818
289.41        39.19451
289.86        38.71192
290.32        38.40898
290.77        38.23669
291.22        38.16763
291.68        38.12138
292.13        38.07624
292.59         38.0862
293.04        38.20604
293.50        38.54502
293.95        39.09663
294.40        39.80608
294.86        40.57809
295.31        41.27548
295.77        41.86417
296.22        42.38298
296.68        42.87461
297.13        43.39318
297.58        43.96586
298.04        44.57146
298.49        45.21656
298.95         45.9612
299.40        46.78048
299.85        47.65876
300.31        48.51937
300.76        49.22208
301.21        49.75175
301.67        50.18785
302.12        50.56911
302.58          51.044
303.03        51.61292
303.48        52.25909
303.94        52.99413
304.39        53.78035
304.84        54.60103
305.30        55.43877
305.75        56.20345
306.20        56.79908
306.66        57.22782
307.11        57.49373
307.57        57.66116
308.02        57.73178
308.47        57.76303
308.93        57.75938
309.38        57.77596
309.83        57.96426
310.29        58.33183
310.74        58.82709
311.19        59.28613
311.65        59.44072
312.10        59.22931
312.55        58.73569
313.00        58.15883
313.46        57.80695
313.91        57.73521
314.36        57.87261
314.82         58.0457
315.27        58.00346
315.72        57.67099
316.18        57.15493
316.63        56.59397
317.08        56.21536
317.53        56.06459
317.99        56.05058
318.44        56.05767
318.89        55.88743
319.35        55.48814
319.80        54.93457
320.25        54.31654
320.70        53.77718
321.16        53.35539
321.61        53.01324
322.06        52.70701
322.51        52.37377
322.97        51.98119
323.42        51.56549
323.87        51.12682
324.32        50.66887
324.78        50.18935
325.23        49.70378
325.68        49.20981
326.13        48.72071
326.59        48.24628
327.04        47.81908
327.49        47.44968
327.94        47.15915
328.39        46.94227
328.85        46.75677
329.30         46.6289
329.75        46.52767
330.20        46.43084
330.66          46.314
331.11         46.1491
331.56        45.82831
332.01        45.33739
332.46         44.7054
332.92        44.01805
333.37        43.45512
333.82        43.07268
334.27        42.85497
334.72        42.74004
335.17        42.60932
335.63        42.41043
336.08        42.18623
336.53        41.99403
336.98        41.94807
337.43        42.06113
337.88        42.28767
338.34        42.46503
338.79        42.38834
339.24        41.99738
339.69        41.35518
340.14        40.67797
340.59        40.32944
341.05        40.38662
341.50        40.74923
341.95        41.17958
342.40        41.30647
342.85        41.04722
343.30        40.52984
343.75        39.93836
344.20        39.57175
344.66        39.51001
345.11        39.62752
345.56        39.82682
346.01        39.95365
346.46        39.94712
346.91        39.87211
347.36        39.70762
347.81        39.40929
348.26        38.99834
348.72        38.50822
349.17        38.02974
349.62        37.79276
350.07        37.84304
350.52        38.10561
350.97         38.4472
351.42        38.66206
351.87         38.6859
352.32        38.56819
352.77        38.34601
353.22        38.08433
353.67        37.81979
354.13          37.555
354.58        37.28291
355.03        37.03913
355.48        36.83983
355.93        36.69462
356.38        36.61636
356.83        36.61639
357.28        36.67698
357.73        36.76515
358.18        36.83838
358.63        36.83258
359.08        36.72466
359.53        36.53921
359.98         36.2615
360.43        35.86969
360.88         35.3852
361.33        34.82912
361.78        34.31123
362.23        34.00832
362.68        33.95066
363.13        34.07765
363.58        34.25641
364.03        34.27728
364.48        34.07921
364.93        33.71216
365.38        33.24859
365.83        32.82159
366.28        32.48491
366.73        32.20766
367.18        31.96206
367.63        31.70427
368.08        31.42516
368.53         31.1507
368.98        30.91304
369.43        30.74802
369.88        30.65884
370.33         30.6306
370.78        30.61154
371.23         30.5225
371.68        30.34302
372.13        30.08508
372.58        29.82093
373.03        29.67593
373.48        29.67191
373.93        29.76462
374.38        29.84957
374.83        29.76653
375.28        29.48468
375.72        29.05141
376.17        28.58757
376.62         28.2459
377.07        28.07911
377.52        28.04288
377.97        28.07856
378.42        28.09551
378.87        28.05876
379.32        27.98613
379.77        27.90411
380.22        27.84884
380.67        27.82427
381.11        27.82049
381.56        27.77228
382.01        27.60051
382.46        27.29941
382.91        26.90117
383.36        26.51526
383.81        26.30281
384.26        26.29037
384.71         26.4317
385.15        26.59437
385.60        26.58226
386.05        26.35304
386.50        25.97208
386.95        25.57066
387.40        25.35691
387.85        25.37505
388.29        25.54289
388.74        25.74798
389.19        25.81512
389.64        25.70196
390.09        25.45306
390.54        25.15818
390.98        24.94887
391.43        24.88224
391.88        24.90917
392.33           24.93
392.78        24.80374
393.23        24.52322
393.67        24.13156
394.12        23.79336
394.57         23.6545
395.02        23.73627
395.47        23.98296
395.91        24.27064
396.36        24.35397
396.81        24.18319
397.26        23.83544
397.71        23.45658
398.15        23.24504
398.60        23.26748
399.05        23.43358
399.50        23.63349
399.95        23.71239
400.39        23.63293
400.84        23.44301
401.29        23.21405
401.74        23.07584
402.18        23.07379
402.63        23.15404
403.08        23.24558
403.53        23.23229
403.97        23.08877
404.42         22.8709
404.87        22.64735
405.32        22.52984
405.76        22.54284
406.21        22.64353
406.66        22.77595
407.11         22.8537
407.55        22.85172
408.00        22.80154
408.45        22.71704
408.90        22.56429
409.34        22.38149
409.79        22.28826
410.24        22.26268
410.68        22.17326
411.13        22.02396
411.58        21.89673
412.03        21.81215
412.47        21.77529
412.92        21.78516
413.37        21.82714
413.81        21.90014
414.26        22.01819
414.71        22.16562
415.15        22.34527
415.60        22.47028
416.05        22.43303
416.49        22.21675
416.94        21.86102
417.39        21.48613
417.83        21.28576
418.28        21.30957
418.73        21.49253
419.17        21.72221
419.62        21.81101
420.07        21.71744
420.51        21.50461
420.96        21.25353
421.41        21.06693
421.85        20.97286
422.30        20.94973
422.74        20.97144
423.19        21.03616
423.64        21.12383
424.08        21.24954
424.53        21.36919
424.98        21.43566
425.42         21.4383
425.87        21.38582
426.31        21.29825
426.76         21.2205
427.21        21.15438
427.65        21.08077
428.10        21.02307
428.54        20.99232
428.99        20.99628
429.44        21.12658
429.88        21.27659
430.33          21.138
430.77        20.78415
431.22        20.62619
431.66         20.7002
432.11        20.83248
432.56        20.98596
433.00         21.2283
433.45         21.3849
433.89         21.2805
434.34        21.01476
434.78        20.64566
435.23        20.22552
435.67        20.92891
436.12        20.55594
436.57        20.56372
437.01        20.34464
437.46        20.25819
437.90         20.3123
438.35        20.32738
438.79        20.27881
439.24        20.23864
439.68        20.20898
440.13        20.01251
440.57        19.76182
441.02        19.95721
441.46        20.40619
441.91        20.48185
442.35        19.70896
442.80          19.466
443.24        19.55648
443.69        19.54675
444.13        19.40717
444.58        19.31196
445.02        19.27208
445.47        19.29294
445.91        19.34598
446.36        19.33914
446.80        19.25595
447.24        19.14761
447.69         19.0457
448.13        18.95775
448.58         18.8999
449.02        18.86442
449.47        18.83813
449.91        18.79231
450.36        18.72779
450.80        18.65174
451.25         18.5893
451.69        18.55849
452.13        18.56929
452.58        18.60687
453.02        18.65761
453.47        18.70432
453.91        18.73939
454.36        18.76262
454.80        18.76913
455.24        18.74953
455.69         18.7121
456.13        18.64379
456.58        18.57058
457.02        18.52167
457.46        18.50134
457.91        18.45853
458.35        18.40332
458.79        18.39777
459.24         18.4372
459.68        18.50844
460.13        18.62664
460.57        18.63689
461.01        18.51133
461.46        18.77618
461.90        18.73921
462.34        18.48734
462.79        18.65238
463.23        18.58782
463.68        18.56052
464.12         18.5145
464.56        18.59356
465.01         18.6795
465.45        18.74594
465.89        18.77029
466.34        18.75421
466.78        18.64445
467.22        18.49886
467.67        18.54443
468.11        18.73965
468.55        18.71747
468.99        18.51284
469.44        18.48223
469.88        18.63895
470.32        18.78273
470.77        18.86109
471.21        18.88809
471.65        18.85374
472.10        18.75913
472.54        18.64701
472.98        18.62579
473.42        18.71151
473.87        18.81559
474.31           18.91
474.75         19.0686
475.20        19.23733
475.64        19.21888
476.08        19.06595
476.52        19.02818
476.97         19.1227
477.41        19.23495
477.85        19.31912
478.29        19.35996
478.74        19.35153
479.18        19.26763
479.62        19.19004
480.06        19.25076
480.50        19.44191
480.95        19.63177
481.39          19.759
481.83        19.82063
482.27        19.80868
482.72        19.73048
483.16        19.63388
483.60        19.59874
484.04         19.6496
484.48         19.7953
484.93        20.06622
485.37        20.22074
485.81        20.49516
486.25        20.84308
486.69        21.92359
487.14        21.26022
487.58        20.59797
488.02        21.47452
488.46        21.24643
488.90        21.56139
489.34         21.3302
489.79        21.45391
490.23         21.8525
490.67        22.05695
491.11        22.07237
491.55        22.05463
491.99        22.04139
492.43         22.0517
492.88        22.10603
493.32        22.16889
493.76        22.26595
494.20        22.44966
494.64        22.71925
495.08        23.07966
495.52        23.45351
495.96        23.66771
496.41        23.73634
496.85        23.80195
497.29        23.90998
497.73        24.10919
498.17        24.37826
498.61        24.54097
499.05        24.60428
499.49        24.78369
499.93        25.08754
500.37        25.31571
500.82        25.47705
501.26        25.79414
501.70        26.20439
502.14        26.34882
502.58        26.25488
503.02         26.2716
503.46        26.42239
503.90        26.51986
504.34        26.54812
504.78        26.56941
505.22        26.58444
505.66        26.59053
506.10        26.60974
506.54        26.65379
506.98        26.72552
507.42        26.89575
507.86        27.01582
508.30        27.15327
508.74        27.25701
509.18        27.33284
509.62        27.39819
510.06        27.48461
510.50        27.60063
510.94        27.74021
511.38        27.86782
511.82        27.92623
512.26        27.90722
512.70        27.82833
513.14        27.75507
513.58         27.7856
514.02        27.93092
514.46        28.16221
514.90         28.4009
515.34        28.45441
515.78        28.34355
516.22        28.16152
516.66        28.01196
517.10         27.7339
517.54         27.3577
517.98        27.89568
518.42        27.80079
518.86        28.02199
519.30        28.08144
519.74        28.14109
520.18        28.18526
520.62        28.16732
521.06        28.10358
521.50        27.98963
521.93        27.85853
522.37        27.77486
522.81         27.7517
523.25         27.7736
523.69        27.81107
524.13        27.81613
524.57        27.77401
525.01        27.69647
525.45        27.60169
525.89         27.5183
526.32        27.45417
526.76        27.40416
527.20         27.3483
527.64        27.25984
528.08         27.1345
528.52         26.9801
528.96        26.83087
529.40        26.73631
529.83        26.70255
530.27        26.72082
530.71        26.73723
531.15        26.66932
531.59        26.50659
532.03        26.28068
532.46        26.05643
532.90        25.95491
533.34        25.98976
533.78        26.11475
534.22        26.26773
534.66        26.35354
535.09        26.34048
535.53        26.26956
535.97        26.15553
536.41        26.01826
536.85        25.87675
537.28        25.73972
537.72        25.64788
538.16         25.5881
538.60        25.69143
539.04        25.83029
539.47         25.9852
539.91         26.1354
540.35        26.27977
540.79        26.20332
541.22        26.27057
541.66        26.33583
542.10         26.5326
542.54        26.41997
542.97        26.68879
543.41        26.83456
543.85        27.04209
544.29        27.24625
544.72        27.41598
545.16        27.58182
545.60        27.73387
546.04        27.78073
546.47        27.80432
546.91        28.10981
547.35        28.62756
547.79        28.98869
548.22        29.14782
548.66        29.23437
549.10        29.30396
549.53        29.55303
549.97        29.98582
550.41        30.06284
550.84        30.33335
551.28        30.50017
551.72        30.75129
552.15        31.01431
552.59        31.29003
553.03         31.5815
553.46        31.83912
553.90          32.023
554.34        32.12292
554.77        32.15416
555.21        32.16698
555.65        32.22663
556.08        32.34638
556.52        32.50541
556.96        32.67469
557.39        32.84948
557.83        33.00684
558.27        33.07082
558.70        33.06931
559.14        33.11445
559.57        33.20714
560.01        33.33493
560.45        33.45305
560.88        33.45103
561.32        33.39073
561.75        33.37811
562.19        33.55544
562.63        33.66441
563.06        33.73552
563.50        33.85593
563.93        34.00599
564.37        34.18896
564.80        34.28709
565.24        34.41319
565.68        34.51563
566.11        34.62304
566.55        34.76519
566.98        34.83303
567.42        34.83671
567.85         35.3159
568.29        35.32472
568.72         35.7551
569.16        36.24267
569.60        36.59489
570.03         36.6901
570.47        36.78813
570.90        36.77634
571.34        37.03379
571.77        36.83329
572.21        37.57178
572.64         37.6281
573.08        37.92196
573.51        38.02477
573.95        38.50266
574.38        38.89664
574.82        39.25423
