SpectraSmart Spectrum 2.9.0.0
--------- Device Information -----------
Spectrum Name :  反射率_0
Saving Time :  2024/04/20 00:40:12
Spectro-Module Model Name : SE2030-DUVN
Spectro-Module Serial Number : OS361AC55029948
Wavelength Start : 200
Wavelength End : 1025
Wavelength Unit : Wavelength(nm)
Spectrum Unit : Reflectance(%)
-----------Spectrum Setting ------------
Integration Time : 30ms
Average : 10
Boxcar : 0
Background removal :  enabled
linearity correction :  enabled
SC :  disabled
Intensity correction :  disabled
DWT denoise :  enabled
savitzky-golay :  disabled
FFT :  disabled
Running average :  disabled
Kalman :  disabled
High pass :  disabled
---------------BEGIN--------------------
Wavelength(nm)             Reflectance(%)
200.29               0
200.75        58.71553
201.21        57.66518
201.67        58.56497
202.13        62.60867
202.58         70.2257
203.04        81.76123
203.50        93.53941
203.96        96.30232
204.42        89.46661
204.88        78.80132
205.34        69.30785
205.80        63.17237
206.26        59.33802
206.72        56.27881
207.18        53.65535
207.64        52.07724
208.10        52.58382
208.55         55.6436
209.01        58.94981
209.47        61.17931
209.93        62.23892
210.39        62.27473
210.85        61.68838
211.31        61.03027
211.77        60.32483
212.23        59.41616
212.69        57.97971
213.14        56.05806
213.60          54.142
214.06        53.23915
214.52        53.32117
214.98        54.29963
215.44        56.04247
215.90        58.32111
216.36         61.3204
216.81        64.83334
217.27        68.08578
217.73         71.0249
218.19        72.38676
218.65        70.52435
219.11        65.31583
219.57        56.77646
220.02        47.05313
220.48        42.29321
220.94        44.52418
221.40        52.62167
221.86        62.47009
222.32        67.58849
222.77        66.43243
223.23        61.23722
223.69         55.0956
224.15        52.49129
224.61        53.78231
225.06        56.72999
225.52        59.45596
225.98        60.48962
226.44        59.76948
226.90        58.05518
227.36        55.92023
227.81        54.23675
228.27        53.69755
228.73        53.86674
229.19        54.51505
229.65        55.40429
230.10        56.34011
230.56        57.34555
231.02         58.3555
231.48        59.34089
231.93        60.21267
232.39        60.96087
232.85        61.39151
233.31        61.25632
233.77        60.53738
234.22        59.34928
234.68        57.91743
235.14         56.5638
235.60        55.49931
236.05        54.74893
236.51        54.35798
236.97        54.32191
237.43        54.66622
237.88        55.63647
238.34        57.15401
238.80        59.11557
239.26        61.09676
239.71        62.74795
240.17        63.77051
240.63        64.56551
241.08        65.33785
241.54        65.90128
242.00        65.87485
242.46        64.39297
242.91        60.89917
243.37        54.54943
243.83        45.59719
244.28        39.08641
244.74        40.49718
245.20        49.56515
245.66        59.14206
246.11         62.4043
246.57        58.51102
247.03        48.04483
247.48        33.64048
247.94        29.90611
248.40        38.54038
248.85        49.12467
249.31        56.95414
249.77        61.45066
250.22        63.71823
250.68         64.9967
251.14         65.5032
251.59        65.09528
252.05        64.01381
252.51        62.35706
252.96        60.34063
253.42        58.81849
253.88        58.23697
254.33        58.43262
254.79        60.23985
255.25        64.14471
255.70        69.47907
256.16        75.31372
256.62        80.03058
257.07        81.82421
257.53        80.97477
257.99        78.31065
258.44        74.59167
258.90        71.69827
259.35           69.63
259.81        68.51358
260.27        67.67358
260.72        66.53783
261.18        65.31762
261.63        63.75966
262.09        62.50352
262.55        61.86305
263.00        61.72782
263.46        62.03912
263.91        62.07755
264.37        61.33729
264.83        59.79838
265.28        57.66889
265.74        55.76376
266.19        54.74004
266.65        54.74417
267.11        55.35143
267.56        56.00022
268.02        55.88133
268.47        54.84452
268.93        53.19756
269.38        51.28474
269.84        49.88841
270.30        49.20378
270.75        48.99153
271.21         48.9897
271.66        48.78892
272.12        48.25457
272.57        47.50869
273.03        46.65926
273.48        45.77068
273.94        44.94914
274.39        44.13372
274.85         43.3616
275.31        42.63491
275.76        41.92461
276.22        41.25644
276.67        40.62723
277.13        40.15248
277.58        39.76814
278.04        39.48823
278.49        39.12023
278.95        38.48306
279.40        37.53101
279.86        36.43507
280.31        35.33918
280.77        34.61017
281.22        34.22562
281.68        34.09629
282.13        34.03693
282.59         33.8287
283.04        33.39984
283.50        32.86874
283.95         32.2668
284.41        31.68571
284.86        31.14069
285.32        30.64166
285.77        30.21994
286.22        30.00123
286.68        29.98699
287.13         30.1028
287.59        30.25959
288.04        30.28968
288.50        30.17321
288.95        29.91924
289.41        29.59211
289.86         29.2131
290.32        28.85929
290.77        28.52207
291.22        28.25685
291.68        28.11108
292.13        28.09733
292.59        28.22262
293.04        28.48638
293.50        28.89908
293.95        29.43236
294.40        30.06161
294.86        30.72051
295.31        31.31983
295.77        31.83423
296.22        32.27539
296.68        32.67818
297.13        33.08436
297.58        33.52315
298.04         33.9984
298.49        34.49711
298.95        35.03914
299.40        35.60617
299.85        36.18487
300.31        36.78475
300.76        37.40971
301.21        38.04394
301.67        38.70221
302.12        39.27301
302.58        39.66148
303.03        39.84093
303.48        39.87286
303.94         39.9254
304.39        40.21397
304.84        40.77956
305.30        41.52936
305.75        42.26958
306.20        42.72805
306.66        42.86543
307.11        42.76376
307.57        42.56031
308.02        42.38073
308.47        42.30159
308.93         42.2703
309.38        42.29608
309.83        42.45132
310.29        42.71589
310.74        43.06848
311.19         43.3602
311.65         43.3471
312.10        42.98725
312.55        42.35976
313.00        41.66142
313.46        41.19968
313.91        41.03191
314.36        41.08574
314.82        41.21164
315.27        41.18652
315.72        40.93888
316.18        40.56163
316.63        40.14454
317.08        39.83009
317.53        39.65147
317.99        39.54128
318.44        39.45354
318.89        39.31215
319.35        39.08812
319.80        38.80841
320.25        38.48251
320.70        38.12256
321.16        37.73624
321.61        37.33033
322.06        36.91173
322.51        36.49836
322.97        36.09483
323.42        35.71006
323.87        35.35466
324.32        35.04714
324.78        34.78002
325.23        34.55576
325.68        34.33014
326.13        34.03619
326.59        33.66049
327.04        33.24585
327.49        32.83597
327.94        32.50812
328.39        32.28339
328.85        32.12065
329.30        32.03803
329.75         32.0119
330.20        32.02073
330.66        32.04612
331.11        32.05621
331.56        31.94398
332.01        31.68588
332.46        31.29709
332.92        30.84526
333.37        30.46645
333.82        30.20696
334.27        30.05653
334.72        29.95552
335.17        29.79496
335.63        29.53841
336.08        29.22552
336.53        28.94839
336.98        28.86739
337.43        29.00878
337.88        29.32339
338.34        29.62014
338.79        29.63675
339.24        29.29956
339.69        28.68401
340.14         28.0319
340.59        27.75145
341.05        27.92376
341.50         28.4248
341.95        28.98874
342.40        29.20522
342.85        28.98257
343.30         28.4665
343.75        27.85074
344.20        27.44946
344.66        27.35192
345.11        27.42612
345.56        27.59415
346.01        27.73288
346.46         27.7821
346.91        27.79842
347.36        27.72155
347.81        27.44334
348.26        26.98004
348.72        26.39679
349.17          25.826
349.62        25.57167
350.07        25.69983
350.52        26.10255
350.97        26.63414
351.42        27.07232
351.87        27.33515
352.32        27.47305
352.77        27.46973
353.22        27.30702
353.67        27.00735
354.13        26.58969
354.58        26.13087
355.03        25.79707
355.48        25.63363
355.93        25.61949
356.38        25.68278
356.83        25.69524
357.28        25.61626
357.73        25.46853
358.18        25.30864
358.63        25.23134
359.08        25.25265
359.53        25.33734
359.98        25.38891
360.43        25.26665
360.88        24.95306
361.33         24.4987
361.78        24.03542
362.23        23.77698
362.68        23.76412
363.13        23.91627
363.58        24.09752
364.03        24.09735
364.48         23.8624
364.93         23.4654
365.38        22.98062
365.83        22.53699
366.28        22.19328
366.73        21.91344
367.18         21.7112
367.63        21.60654
368.08        21.58541
368.53        21.64373
368.98        21.71564
369.43        21.69054
369.88        21.54722
370.33        21.31498
370.78        21.04997
371.23        20.85728
371.68         20.7712
372.13        20.75612
372.58        20.79322
373.03        20.85039
373.48        20.90012
373.93        20.94347
374.38        20.94571
374.83        20.85168
375.28        20.65524
375.72        20.36655
376.17        20.04527
376.62         19.7509
377.07        19.51638
377.52        19.33391
377.97        19.21409
378.42        19.16796
378.87        19.18218
379.32        19.24123
379.77        19.30801
380.22        19.32436
380.67        19.27466
381.11        19.17893
381.56        19.03004
382.01        18.84002
382.46        18.62557
382.91        18.38534
383.36        18.17467
383.81        18.07497
384.26        18.09324
384.71         18.2088
385.15        18.33001
385.60        18.31676
386.05        18.14286
386.50        17.85303
386.95        17.54746
387.40        17.38744
387.85        17.40633
388.29        17.54408
388.74         17.7099
389.19        17.77264
389.64        17.70051
390.09         17.5302
390.54        17.32292
390.98        17.16793
391.43        17.10785
391.88        17.10525
392.33        17.10316
392.78        17.02163
393.23        16.85507
393.67        16.62668
394.12        16.42933
394.57        16.33219
395.02        16.34733
395.47          16.447
395.91        16.57044
396.36        16.59405
396.81        16.49377
397.26        16.30114
397.71        16.09634
398.15        15.98467
398.60        16.00619
399.05         16.1174
399.50        16.23393
399.95        16.23466
400.39        16.09656
400.84        15.85231
401.29        15.60196
401.74        15.52697
402.18        15.67412
402.63        15.97273
403.08         16.2784
403.53        16.36501
403.97        16.18704
404.42        15.82878
404.87        15.43014
405.32        15.22045
405.76        15.25622
406.21        15.46025
406.66        15.72069
407.11        15.86325
407.55        15.84111
408.00        15.71453
408.45        15.54315
408.90        15.38879
409.34        15.30146
409.79        15.32552
410.24        15.41036
410.68        15.41794
411.13        15.33651
411.58        15.24331
412.03         15.1576
412.47        15.08864
412.92        15.04493
413.37        15.01418
413.81         15.0146
414.26        15.08869
414.71        15.22838
415.15        15.42768
415.60        15.59725
416.05        15.61607
416.49         15.4578
416.94        15.16622
417.39        14.84161
417.83        14.64771
418.28        14.63265
418.73        14.74209
419.17        14.89952
419.62         14.9715
420.07        14.92768
420.51        14.81168
420.96        14.67175
421.41        14.56345
421.85        14.50136
422.30        14.47393
422.74        14.46735
423.19        14.49036
423.64        14.53006
424.08        14.59255
424.53        14.64409
424.98        14.65047
425.42        14.60601
425.87        14.52446
426.31        14.41632
426.76        14.30708
427.21        14.19848
427.65        14.07942
428.10        13.98959
428.54        13.97174
428.99        14.03437
429.44        14.22463
429.88        14.43477
430.33        14.39936
430.77        14.15924
431.22        14.01055
431.66        14.00966
432.11        14.08329
432.56        14.21663
433.00        14.46644
433.45        14.67488
433.89        14.60308
434.34        14.34092
434.78        14.06225
435.23        13.77661
435.67        14.35211
436.12        13.90144
436.57         13.8202
437.01        13.61051
437.46        13.53358
437.90         13.5996
438.35        13.68747
438.79        13.75281
439.24        13.79075
439.68        13.78676
440.13        13.62862
440.57        13.40667
441.02        13.48194
441.46        13.73074
441.91        13.72766
442.35        13.15384
442.80         12.9303
443.24        12.92121
443.69         12.8461
444.13        12.69576
444.58        12.60211
445.02        12.57337
445.47        12.60621
445.91        12.66884
446.36        12.68136
446.80        12.62514
447.24        12.53774
447.69        12.44496
448.13         12.3572
448.58        12.29026
449.02        12.23947
449.47        12.19745
449.91        12.14746
450.36        12.09207
450.80        12.03469
451.25        11.99881
451.69         12.0049
452.13        12.05715
452.58        12.13647
453.02        12.21786
453.47        12.26137
453.91        12.25849
454.36        12.21952
454.80         12.1544
455.24        12.08256
455.69        12.02086
456.13         11.9547
456.58        11.90575
457.02        11.89754
457.46        11.93074
457.91        11.97088
458.35        12.00583
458.79        12.04317
459.24        12.07462
459.68        12.09387
460.13        12.13931
460.57        12.15202
461.01        12.12167
461.46        12.37733
461.90        12.42779
462.34        12.26322
462.79        12.29378
463.23        12.11307
463.68         11.9494
464.12        11.85017
464.56        11.92995
465.01        12.08011
465.45        12.23971
465.89        12.33114
466.34        12.34182
466.78        12.25924
467.22        12.13716
467.67        12.14986
468.11        12.27871
468.55        12.27075
468.99        12.15112
469.44        12.15927
469.88         12.3027
470.32         12.4503
470.77        12.54719
471.21        12.57264
471.65        12.51398
472.10        12.38142
472.54        12.22931
472.98        12.17671
473.42        12.24491
473.87        12.36159
474.31        12.48017
474.75         12.6022
475.20         12.6843
475.64        12.61439
476.08        12.45586
476.52        12.41465
476.97        12.50992
477.41        12.65035
477.85        12.78597
478.29        12.87482
478.74         12.8998
479.18        12.85102
479.62        12.78596
480.06        12.79748
480.50        12.88582
480.95        12.96425
481.39        12.99831
481.83        12.99731
482.27        12.95738
482.72        12.87901
483.16        12.80278
483.60        12.78956
484.04        12.85048
484.48        13.03055
484.93        13.34065
485.37        13.44549
485.81        13.44512
486.25        13.80387
486.69        14.45996
487.14        13.75846
487.58        13.79821
488.02         14.5374
488.46        14.10396
488.90          14.141
489.34          13.938
489.79        14.03596
490.23        14.35195
490.67        14.51963
491.11        14.51167
491.55        14.43022
491.99        14.32472
492.43        14.27635
492.88         14.3133
493.32        14.36638
493.76        14.44045
494.20        14.58118
494.64        14.78518
495.08        15.02714
495.52        15.27707
495.96        15.50334
496.41        15.69305
496.85        15.82234
497.29        15.90194
497.73        16.02978
498.17        16.19029
498.61        16.21734
499.05        16.15016
499.49        16.21711
499.93         16.4396
500.37        16.66331
500.82        16.85833
501.26        17.11749
501.70        17.38453
502.14        17.43938
502.58        17.32584
503.02        17.31323
503.46        17.42621
503.90          17.526
504.34        17.58523
504.78        17.61997
505.22        17.62471
505.66        17.60583
506.10        17.58473
506.54        17.59021
506.98        17.63316
507.42        17.70856
507.86        17.80858
508.30        17.91931
508.74        18.03122
509.18        18.14102
509.62        18.24945
510.06        18.35793
510.50        18.46585
510.94        18.57536
511.38        18.66377
511.82        18.69665
512.26        18.67125
512.70         18.5957
513.14        18.52422
513.58        18.53963
514.02        18.64832
514.46         18.8257
514.90        18.99967
515.34        18.99754
515.78        18.82037
516.22        18.59572
516.66        18.42283
517.10        18.10608
517.54        17.67516
517.98        18.28037
518.42        18.17837
518.86        18.45902
519.30        18.58017
519.74        18.71664
520.18        18.82878
520.62        18.83162
521.06        18.73771
521.50        18.55299
521.93        18.33936
522.37        18.20935
522.81        18.18952
523.25        18.25275
523.69        18.34869
524.13        18.39567
524.57        18.36956
525.01        18.29195
525.45        18.19591
525.89        18.13291
526.32        18.11541
526.76        18.12824
527.20        18.13408
527.64           18.08
528.08        17.95645
528.52        17.78083
528.96        17.60627
529.40        17.51062
529.83        17.50789
530.27        17.57904
530.71         17.6556
531.15        17.63029
531.59        17.48534
532.03        17.25837
532.46        17.02884
532.90        16.93673
533.34        17.00081
533.78        17.16828
534.22         17.3599
534.66        17.45513
535.09        17.41976
535.53        17.30179
535.97         17.1399
536.41        16.99159
536.85         16.8841
537.28         16.8109
537.72         16.7857
538.16        16.77844
538.60        16.86781
539.04        16.97639
539.47        17.09965
539.91        17.23495
540.35        17.38194
540.79        17.39008
541.22        17.48653
541.66        17.55366
542.10        17.67681
542.54        17.56997
542.97        17.70734
543.41        17.77693
543.85        17.90871
544.29        18.05531
544.72        18.18711
545.16        18.30954
545.60        18.41225
546.04        18.43775
546.47        18.44923
546.91        18.66408
547.35         19.0367
547.79        19.31498
548.22        19.45245
548.66         19.5104
549.10        19.52457
549.53        19.63539
549.97        19.86421
550.41          19.882
550.84        20.06103
551.28        20.19912
551.72        20.41177
552.15        20.63263
552.59        20.85311
553.03        21.09654
553.46        21.29714
553.90        21.44852
554.34        21.53608
554.77        21.57067
555.21        21.58912
555.65        21.64021
556.08        21.73466
556.52        21.85823
556.96        21.99339
557.39        22.14013
557.83        22.28267
558.27        22.36874
558.70        22.40997
559.14         22.4691
559.57        22.54434
560.01        22.62961
560.45        22.70346
560.88        22.70517
561.32        22.68049
561.75        22.69654
562.19        22.83938
562.63        22.91691
563.06        22.94905
563.50        23.00047
563.93        23.07001
564.37        23.19732
564.80        23.27455
565.24        23.39353
565.68        23.50532
566.11        23.61517
566.55        23.73775
566.98        23.82667
567.42        23.87745
567.85         24.1842
568.29        24.12667
568.72        24.44243
569.16        24.87109
569.60         25.1702
570.03        25.29955
570.47        25.41301
570.90        25.42511
571.34        25.78944
571.77        25.67204
572.21        26.09061
572.64        26.32231
573.08        26.43542
573.51        26.53879
573.95        27.14204
574.38        27.33241
574.82        27.57013
