SpectraSmart Spectrum 2.9.0.0
--------- Device Information -----------
Spectrum Name :  反射率_0
Saving Time :  2024/04/20 00:55:13
Spectro-Module Model Name : SE2030-DUVN
Spectro-Module Serial Number : OS361AC55029948
Wavelength Start : 200
Wavelength End : 1025
Wavelength Unit : Wavelength(nm)
Spectrum Unit : Reflectance(%)
-----------Spectrum Setting ------------
Integration Time : 30ms
Average : 10
Boxcar : 0
Background removal :  enabled
linearity correction :  enabled
SC :  disabled
Intensity correction :  disabled
DWT denoise :  enabled
savitzky-golay :  disabled
FFT :  disabled
Running average :  disabled
Kalman :  disabled
High pass :  disabled
---------------BEGIN--------------------
Wavelength(nm)             Reflectance(%)
200.29               0
200.75        63.41853
201.21        63.22881
201.67        64.74297
202.13        68.93588
202.58        76.02724
203.04        86.13911
203.50        95.59685
203.96        95.87637
204.42        87.28748
204.88        75.79243
205.34         65.9428
205.80        59.34071
206.26        54.76452
206.72        50.63918
207.18        46.83832
207.64        45.38075
208.10        48.15455
208.55        54.44696
209.01        60.60741
209.47        64.54383
209.93        66.34917
210.39        66.59711
210.85        65.70982
211.31        64.19978
211.77        62.03398
212.23        58.63097
212.69        54.36123
213.14        51.99176
213.60        52.56199
214.06        55.27571
214.52        57.79093
214.98        58.55658
215.44        57.74772
215.90        55.55923
216.36        53.25606
216.81        53.75367
217.27        57.69997
217.73         63.8298
218.19        69.15726
218.65        69.82837
219.11         65.1554
219.57        55.75674
220.02        44.00641
220.48        36.66074
220.94        36.33049
221.40         41.8965
221.86        49.67237
222.32        53.76614
222.77        52.70823
223.23        48.51168
223.69        44.19313
224.15        43.89235
224.61        47.42774
225.06        52.36021
225.52        56.32556
225.98        57.46426
226.44        55.84433
226.90         52.4049
227.36        48.29865
227.81        45.54915
228.27        45.14063
228.73        46.18371
229.19        47.82547
229.65        49.07325
230.10        49.67595
230.56        49.97986
231.02        50.17543
231.48         50.4874
231.93        50.90578
232.39        51.32931
232.85        51.53308
233.31        51.24382
233.77        50.43402
234.22        49.21198
234.68        47.90635
235.14        46.97759
235.60        46.61672
236.05        46.77778
236.51        47.23026
236.97        47.58316
237.43        47.76044
237.88        47.95551
238.34        48.35847
238.80        49.75129
239.26        52.24789
239.71        55.31595
240.17        57.98995
240.63        59.59307
241.08        60.12255
241.54        59.77039
242.00        58.55297
242.46         56.2914
242.91        52.70916
243.37        46.80064
243.83        39.30421
244.28        36.02725
244.74        42.08382
245.20        56.03376
245.66        68.70784
246.11         72.5591
246.57        67.05641
247.03        52.34758
247.48        32.08654
247.94        26.39461
248.40         37.9539
248.85        52.51802
249.31        63.34471
249.77        69.14937
250.22        71.47383
250.68        72.08753
251.14        71.41132
251.59         69.8589
252.05        67.99673
252.51         65.6628
252.96        63.13513
253.42        61.38522
253.88        60.81376
254.33        61.33985
254.79        63.36928
255.25        66.82237
255.70        71.14332
256.16         75.7056
256.62         79.3749
257.07         80.9372
257.53        80.55753
257.99        78.61901
258.44        75.55159
258.90        72.84625
259.35        70.53812
259.81        69.07615
260.27        67.77027
260.72        65.98602
261.18        63.98569
261.63        61.53897
262.09        59.58101
262.55        58.85713
263.00        59.22382
263.46        60.38148
263.91        61.20339
264.37        60.70359
264.83        58.87742
265.28        56.14811
265.74        53.65121
266.19        52.48356
266.65        52.81649
267.11        54.02064
267.56        55.27987
268.02        55.44897
268.47        54.30666
268.93        52.27016
269.38        49.82078
269.84        47.97036
270.30         47.0114
270.75        46.66695
271.21         46.5887
271.66        46.23614
272.12        45.45522
272.57        44.42101
273.03        43.38604
273.48         42.6274
273.94        42.25238
274.39        42.09028
274.85        41.94255
275.31        41.49271
275.76        40.66757
276.22        39.61063
276.67        38.52276
277.13         37.8175
277.58        37.49924
278.04        37.47683
278.49        37.43126
278.95        36.99638
279.40         36.0872
279.86        34.93981
280.31        33.77389
280.77        33.05067
281.22         32.7674
281.68        32.79387
282.13        32.88874
282.59         32.7522
283.04        32.30465
283.50        31.70135
283.95         31.0362
284.41        30.48648
284.86        30.08012
285.32        29.78638
285.77         29.5872
286.22        29.53253
286.68        29.60203
287.13        29.74988
287.59         29.9048
288.04        29.92385
288.50        29.80382
288.95        29.55291
289.41        29.25174
289.86         28.9482
290.32        28.72036
290.77        28.54679
291.22        28.46827
291.68        28.50898
292.13        28.66995
292.59        28.96178
293.04        29.36578
293.50        29.86856
293.95         30.4409
294.40        31.06475
294.86        31.71404
295.31        32.36161
295.77        32.99966
296.22        33.63383
296.68        34.25092
297.13        34.81182
297.58        35.32559
298.04        35.80981
298.49        36.32258
298.95        36.99785
299.40        37.82858
299.85        38.75885
300.31         39.6861
300.76        40.44175
301.21        40.99174
301.67        41.42736
302.12        41.76285
302.58        42.09266
303.03        42.42717
303.48        42.76068
303.94        43.18191
304.39        43.78146
304.84         44.5603
305.30        45.46436
305.75        46.31213
306.20        46.85363
306.66        47.06201
307.11        47.00151
307.57         46.8303
308.02        46.70624
308.47         46.7136
308.93        46.80007
309.38        46.94588
309.83        47.17794
310.29        47.47274
310.74        47.82606
311.19        48.12697
311.65        48.18975
312.10        47.98007
312.55        47.55225
313.00        47.07113
313.46        46.79553
313.91        46.76943
314.36         46.9402
314.82        47.15936
315.27        47.20882
315.72        47.01934
316.18        46.67276
316.63        46.28785
317.08        46.06001
317.53        46.02618
317.99        46.10752
318.44        46.19074
318.89        46.08333
319.35         45.7392
319.80        45.23014
320.25        44.66121
320.70        44.19872
321.16        43.88762
321.61         43.6853
322.06        43.52609
322.51        43.30833
322.97        42.98987
323.42         42.6103
323.87        42.19848
324.32        41.80473
324.78        41.43922
325.23        41.10209
325.68        40.75111
326.13        40.33069
326.59        39.83612
327.04        39.31577
327.49        38.84002
327.94        38.52406
328.39        38.38546
328.85         38.3613
329.30        38.40607
329.75        38.37646
330.20        38.22081
330.66         37.9565
331.11        37.62299
331.56        37.22528
332.01        36.78183
332.46        36.28812
332.92        35.79344
333.37        35.40299
333.82        35.14702
334.27        35.02838
334.72        34.99143
335.17        34.92781
335.63        34.79184
336.08        34.61023
336.53        34.44538
336.98        34.42275
337.43        34.55877
337.88         34.8094
338.34         35.0098
338.79        34.94637
339.24        34.55549
339.69        33.89802
340.14        33.19571
340.59        32.82002
341.05        32.85123
341.50        33.19682
341.95        33.60025
342.40        33.65931
342.85        33.29159
343.30        32.63361
343.75        31.92351
344.20         31.5485
344.66        31.59755
345.11        31.90844
345.56        32.30075
346.01        32.48893
346.46         32.3829
346.91         32.0946
347.36        31.67157
347.81        31.17172
348.26        30.65458
348.72         30.1375
349.17        29.69307
349.62        29.52149
350.07        29.65484
350.52        30.02072
350.97        30.50163
351.42        30.91478
351.87         31.1873
352.32        31.34668
352.77        31.36464
353.22        31.20946
353.67        30.90131
354.13        30.47402
354.58        30.00183
355.03        29.64614
355.48        29.45454
355.93        29.40206
356.38        29.44366
356.83        29.49416
357.28        29.51453
357.73         29.5126
358.18        29.48479
358.63        29.42834
359.08        29.33924
359.53        29.21212
359.98        29.02601
360.43        28.75422
360.88        28.40688
361.33         28.0079
361.78        27.62647
362.23        27.37241
362.68        27.26683
363.13        27.26774
363.58        27.30801
364.03        27.28124
364.48        27.15038
364.93        26.94179
365.38        26.66379
365.83        26.33795
366.28        25.98919
366.73        25.61995
367.18        25.27127
367.63        25.00694
368.08        24.83844
368.53        24.75117
368.98        24.71019
369.43        24.65174
369.88        24.55852
370.33        24.45268
370.78        24.33564
371.23        24.21537
371.68        24.09841
372.13        23.96661
372.58        23.86064
373.03         23.8537
373.48        23.94416
373.93        24.10146
374.38        24.22343
374.83        24.15308
375.28        23.86629
375.72        23.41078
376.17        22.91732
376.62        22.55749
377.07        22.39076
377.52        22.37014
377.97        22.44054
378.42        22.51278
378.87        22.54827
379.32        22.56391
379.77        22.56692
380.22        22.56536
380.67        22.55904
381.11        22.54197
381.56        22.47512
382.01        22.32338
382.46        22.08631
382.91         21.7768
383.36        21.47145
383.81        21.28043
384.26        21.22323
384.71        21.28043
385.15        21.34268
385.60        21.24448
386.05        20.95932
386.50        20.54109
386.95        20.13923
387.40        19.98931
387.85        20.12805
388.29        20.46089
388.74        20.81901
389.19        20.95694
389.64        20.82512
390.09        20.49529
390.54        20.10418
390.98        19.86303
391.43        19.84444
391.88        19.96814
392.33        20.11066
392.78         20.0969
393.23        19.90412
393.67        19.58962
394.12        19.29916
394.57        19.16376
395.02        19.20756
395.47         19.3804
395.91        19.58631
396.36        19.63778
396.81        19.49749
397.26        19.22486
397.71        18.93671
398.15        18.78855
398.60        18.83212
399.05        18.99663
399.50        19.18093
399.95        19.24297
400.39         19.1498
400.84        18.94108
401.29        18.70014
401.74        18.57895
402.18        18.62459
402.63        18.77966
403.08        18.93944
403.53        18.93635
403.97        18.73849
404.42        18.41648
404.87        18.08472
405.32        17.92838
405.76        17.98871
406.21        18.19998
406.66        18.46024
407.11        18.61126
407.55        18.61076
408.00        18.51125
408.45        18.36499
408.90        18.21617
409.34         18.1152
409.79        18.12879
410.24        18.20861
410.68        18.20635
411.13        18.11228
411.58        18.00852
412.03        17.91871
412.47        17.85615
412.92        17.82787
413.37        17.82074
413.81        17.83966
414.26        17.90694
414.71        18.01191
415.15        18.15643
415.60        18.26789
416.05        18.25572
416.49        18.10252
416.94        17.84262
417.39        17.56388
417.83        17.40904
418.28        17.41829
418.73        17.54191
419.17        17.70506
419.62        17.77908
420.07        17.73489
420.51        17.61356
420.96        17.46541
421.41        17.34787
421.85        17.27717
422.30        17.24684
422.74        17.24282
423.19        17.27564
423.64        17.33264
424.08        17.42059
424.53        17.50794
424.98        17.56608
425.42        17.58745
425.87        17.57999
426.31        17.54091
426.76        17.47868
427.21        17.38892
427.65        17.26051
428.10        17.14559
428.54        17.10649
428.99        17.16046
429.44          17.368
429.88         17.5948
430.33        17.51529
430.77        17.18101
431.22         16.9539
431.66        16.91658
432.11        17.00284
432.56        17.19907
433.00         17.5703
433.45        17.89765
433.89        17.83154
434.34        17.47045
434.78        17.05057
435.23        16.62605
435.67        17.29228
436.12        16.80259
436.57        16.80183
437.01        16.66335
437.46         16.6526
437.90        16.76632
438.35        16.87294
438.79        16.92753
439.24        16.93889
439.68        16.89978
440.13        16.66929
440.57        16.37421
441.02        16.48218
441.46        16.84525
441.91        16.93283
442.35        16.32186
442.80        16.11253
443.24        16.13607
443.69        16.05217
444.13        15.86185
444.58        15.74885
445.02        15.73056
445.47        15.79472
445.91        15.90077
446.36        15.94692
446.80        15.90841
447.24        15.83529
447.69        15.75178
448.13        15.65978
448.58        15.57631
449.02         15.4959
449.47        15.42321
449.91        15.36081
450.36        15.31479
450.80        15.28335
451.25        15.27169
451.69        15.26829
452.13        15.27439
452.58        15.28434
453.02        15.29707
453.47        15.31106
453.91        15.32655
454.36        15.34195
454.80        15.34821
455.24        15.33157
455.69        15.29673
456.13        15.23144
456.58        15.17092
457.02        15.15837
457.46        15.19768
457.91        15.24152
458.35        15.26571
458.79        15.27084
459.24        15.24986
459.68        15.20852
460.13        15.21024
460.57         15.2072
461.01        15.18931
461.46        15.55766
461.90        15.68919
462.34        15.56355
462.79        15.69224
463.23        15.56056
463.68        15.42735
464.12        15.30412
464.56        15.33426
465.01        15.40014
465.45        15.47563
465.89        15.53638
466.34        15.57576
466.78        15.55068
467.22        15.49231
467.67        15.56068
468.11        15.71441
468.55        15.65453
468.99        15.42504
469.44        15.34843
469.88        15.44611
470.32        15.54676
470.77         15.6127
471.21        15.66438
471.65        15.68977
472.10        15.68553
472.54        15.66803
472.98        15.69793
473.42        15.78125
473.87        15.85257
474.31         15.8994
474.75        16.00059
475.20         16.1189
475.64        16.08555
476.08        15.95281
476.52        15.94176
476.97        16.06609
477.41        16.22598
477.85        16.36662
478.29        16.44646
478.74        16.45219
479.18         16.3686
479.62        16.27528
480.06        16.30149
480.50        16.44692
480.95        16.59506
481.39        16.69483
481.83        16.74623
482.27        16.74034
482.72         16.6819
483.16        16.61163
483.60        16.59094
484.04         16.6285
484.48        16.78358
484.93        17.08888
485.37        17.21173
485.81        17.29978
486.25         17.9246
486.69        18.51618
487.14        18.03232
487.58        17.85128
488.02        18.54077
488.46        18.17281
488.90        18.31718
489.34        18.25389
489.79        18.41013
490.23        18.72016
490.67        18.94067
491.11        19.04909
491.55        19.06486
491.99        19.02345
492.43        19.02407
492.88        19.08891
493.32         19.1418
493.76        19.20938
494.20        19.36145
494.64        19.59991
495.08        19.93439
495.52        20.29875
495.96        20.51308
496.41        20.60085
496.85        20.75176
497.29        20.97342
497.73        21.20206
498.17        21.40668
498.61        21.48012
499.05        21.46003
499.49        21.56588
499.93        21.81893
500.37        22.04685
500.82        22.23106
501.26         22.5062
501.70        22.81696
502.14        22.90405
502.58        22.81042
503.02         22.8317
503.46        22.99209
503.90        23.13909
504.34        23.23433
504.78        23.28384
505.22        23.28081
505.66        23.23465
506.10        23.18698
506.54        23.19966
506.98         23.2902
507.42        23.44379
507.86        23.62963
508.30        23.79561
508.74        23.92189
509.18        24.01591
509.62         24.0963
510.06        24.19371
510.50         24.3152
510.94        24.45262
511.38        24.57089
511.82        24.61614
512.26        24.58063
512.70        24.48196
513.14        24.38293
513.58        24.37699
514.02        24.47609
514.46        24.65536
514.90         24.8431
515.34        24.86047
515.78        24.72296
516.22         24.5358
516.66        24.39944
517.10        24.13692
517.54        23.77559
517.98         24.3765
518.42        24.31618
518.86        24.59019
519.30        24.69438
519.74        24.79393
520.18        24.86438
520.62        24.84633
521.06        24.75612
521.50        24.59493
521.93        24.40709
522.37        24.27551
522.81        24.22099
523.25        24.22631
523.69        24.26071
524.13        24.27247
524.57        24.24408
525.01        24.18743
525.45        24.11841
525.89         24.0612
526.32        24.02179
526.76         23.9952
527.20        23.95823
527.64        23.88037
528.08         23.7575
528.52        23.59763
528.96        23.44451
529.40        23.36271
529.83         23.3604
530.27        23.42349
530.71        23.48359
531.15        23.43414
531.59        23.25987
532.03        23.00025
532.46        22.73717
532.90        22.61697
533.34        22.66065
533.78        22.81528
534.22        23.00524
534.66         23.1143
535.09        23.10631
535.53        23.02768
535.97        22.90612
536.41        22.78236
536.85        22.67793
537.28        22.59014
537.72        22.54327
538.16        22.50797
538.60        22.59569
539.04        22.70342
539.47        22.81987
539.91        22.93447
540.35        23.05036
540.79        22.97567
541.22        23.03691
541.66        23.11676
542.10        23.33191
542.54        23.29041
542.97        23.58322
543.41         23.7383
543.85        23.91308
544.29        24.05787
544.72        24.16422
545.16        24.28887
545.60        24.43027
546.04        24.49936
546.47         24.5539
546.91        24.84011
547.35        25.29119
547.79        25.59078
548.22        25.71105
548.66        25.78275
549.10        25.85894
549.53        26.10569
549.97        26.52237
550.41        26.62316
550.84        26.88979
551.28        27.06265
551.72        27.30572
552.15        27.55092
552.59        27.79893
553.03        28.05272
553.46        28.27658
553.90        28.44737
554.34        28.55829
554.77        28.61931
555.21        28.66514
555.65        28.73649
556.08        28.84172
556.52        28.96891
556.96        29.10258
557.39        29.25487
557.83        29.40911
558.27        29.49139
558.70        29.51992
559.14        29.58378
559.57        29.68043
560.01         29.8029
560.45        29.91217
560.88        29.91056
561.32        29.85555
561.75        29.84185
562.19        30.00039
562.63        30.10708
563.06        30.19225
563.50        30.33063
563.93        30.49643
564.37         30.7045
564.80        30.80053
565.24        30.91586
565.68        31.00681
566.11        31.10403
566.55        31.23375
566.98        31.34691
567.42        31.41927
567.85        31.73175
568.29        31.59262
568.72        31.87816
569.16        32.32139
569.60        32.65743
570.03         32.8474
570.47        33.05828
570.90        33.11885
571.34        33.57482
571.77        33.38287
572.21         33.6203
572.64        33.98449
573.08        34.02511
573.51        34.22088
573.95        34.66216
574.38        34.98705
574.82        35.25759
