SpectraSmart Spectrum 2.9.0.0
--------- Device Information -----------
Spectrum Name :  反射率_0
Saving Time :  2024/04/20 00:02:22
Spectro-Module Model Name : SE2030-DUVN
Spectro-Module Serial Number : OS361AC55029948
Wavelength Start : 200
Wavelength End : 1025
Wavelength Unit : Wavelength(nm)
Spectrum Unit : Reflectance(%)
-----------Spectrum Setting ------------
Integration Time : 30ms
Average : 10
Boxcar : 0
Background removal :  enabled
linearity correction :  enabled
SC :  disabled
Intensity correction :  disabled
DWT denoise :  enabled
savitzky-golay :  disabled
FFT :  disabled
Running average :  disabled
Kalman :  disabled
High pass :  disabled
---------------BEGIN--------------------
Wavelength(nm)             Reflectance(%)
200.29               0
200.75        58.73311
201.21        58.13256
201.67        59.68583
202.13        63.99648
202.58        71.18624
203.04        81.52514
203.50        92.10825
203.96        95.37436
204.42        90.58511
204.88        82.29904
205.34        74.55096
205.80        69.10466
206.26        65.03836
206.72        60.81842
207.18        56.19431
207.64        53.16372
208.10        54.18377
208.55        59.31633
209.01        64.56684
209.47        67.01432
209.93        66.80016
210.39        64.83457
210.85        62.53632
211.31         61.5658
211.77        62.16342
212.23        64.12119
212.69        66.65089
213.14        67.06335
213.60        64.44128
214.06        61.37666
214.52        59.49678
214.98        59.71603
215.44        61.73659
215.90        64.82976
216.36        68.96813
216.81        73.37509
217.27        76.88725
217.73        79.78941
218.19        80.61072
218.65        77.31063
219.11        69.73106
219.57         57.7793
220.02        44.52788
220.48        38.24883
220.94        41.82715
221.40        53.77722
221.86        68.15362
222.32        75.59888
222.77        74.02783
223.23        66.62994
223.69        58.19575
224.15        55.58892
224.61        59.11737
225.06        65.14032
225.52        70.67417
225.98        73.30824
226.44        73.00211
226.90        70.90945
227.36        67.96194
227.81        65.63824
228.27        64.80978
228.73        64.79895
229.19        65.10004
229.65        65.13289
230.10         64.7924
230.56        64.47822
231.02        64.32181
231.48        64.50968
231.93        64.96466
232.39        65.50984
232.85        66.01447
233.31        66.36162
233.77        66.47265
234.22        66.41288
234.68        65.96206
235.14        64.68394
235.60        62.62832
236.05        60.01498
236.51        57.49524
236.97        55.94746
237.43        55.61046
237.88        56.63873
238.34        58.50968
238.80         59.8579
239.26        59.66908
239.71         58.0263
240.17        55.92144
240.63        55.41606
241.08        57.01268
241.54        60.21693
242.00        63.36445
242.46        63.37856
242.91        58.76834
243.37        48.23109
243.83        32.75566
244.28        23.12838
244.74        29.87716
245.20        50.62753
245.66        70.96987
246.11        78.58924
246.57        72.56085
247.03        53.86589
247.48        26.76227
247.94        16.48742
248.40        28.38897
248.85        44.98607
249.31         57.5455
249.77        64.11177
250.22        66.37632
250.68        66.48306
251.14        65.07207
251.59        62.97261
252.05        61.01716
252.51        58.88692
252.96        56.41991
253.42        53.94609
253.88        51.84158
254.33        50.44517
254.79        50.85954
255.25        53.66762
255.70        58.21529
256.16        63.49831
256.62        67.72365
257.07        68.92503
257.53        67.33891
257.99        63.82056
258.44        59.57419
258.90        56.88767
259.35        55.59847
259.81        55.36977
260.27        55.10517
260.72        53.86724
261.18        51.94708
261.63        49.40631
262.09        47.26315
262.55        46.42495
263.00        46.81551
263.46        48.01673
263.91        49.00069
264.37        48.82494
264.83        47.47038
265.28        45.32864
265.74        43.35449
266.19        42.44595
266.65        42.75908
267.11        43.79224
267.56        44.90361
268.02        45.16489
268.47        44.41568
268.93        42.99173
269.38        41.29697
269.84         40.1954
270.30        39.88539
270.75        40.09467
271.21        40.45566
271.66        40.42382
272.12        39.85699
272.57        38.94576
273.03        37.94106
273.48        37.13491
273.94        36.66309
274.39        36.38025
274.85        36.18276
275.31        35.89156
275.76        35.43542
276.22        34.89333
276.67        34.31822
277.13        33.89165
277.58        33.58275
278.04        33.37428
278.49         33.0812
278.95        32.51969
279.40        31.65174
279.86        30.64638
280.31        29.65235
280.77        29.01878
281.22        28.72848
281.68        28.68998
282.13        28.72245
282.59        28.59875
283.04        28.25491
283.50        27.80769
283.95         27.2957
284.41        26.81427
284.86        26.37554
285.32        25.96265
285.77        25.61358
286.22         25.4588
286.68        25.48942
287.13        25.64034
287.59        25.76464
288.04        25.61807
288.50        25.18472
288.95        24.51661
289.41        23.78983
289.86        23.20858
290.32        22.87885
290.77        22.72562
291.22        22.69014
291.68        22.64607
292.13        22.56243
292.59        22.49586
293.04        22.49354
293.50        22.63604
293.95        22.92721
294.40         23.3187
294.86        23.75207
295.31        24.15477
295.77        24.50553
296.22        24.82772
296.68        25.14258
297.13        25.46015
297.58        25.80444
298.04        26.18355
298.49        26.61762
298.95        27.17148
299.40        27.84128
299.85        28.61005
300.31        29.43083
300.76        30.22936
301.21        30.97586
301.67         31.6965
302.12        32.37855
302.58        33.06496
303.03        33.73941
303.48        34.39896
303.94        35.06451
304.39        35.73085
304.84        36.40283
305.30        37.07482
305.75        37.69469
306.20        38.20495
306.66        38.61817
307.11        38.93963
307.57        39.23261
308.02        39.51849
308.47        39.82974
308.93        40.14489
309.38        40.46225
309.83        40.83194
310.29        41.23935
310.74        41.66645
311.19        42.00537
311.65        42.08373
312.10        41.87813
312.55        41.45339
313.00        40.97757
313.46        40.70826
313.91        40.69127
314.36        40.87165
314.82        41.11395
315.27        41.21676
315.72        41.10929
316.18        40.86451
316.63         40.5657
317.08        40.35173
317.53        40.25331
317.99        40.21109
318.44        40.16406
318.89        40.00741
319.35        39.71841
319.80        39.34497
320.25        38.94306
320.70        38.59786
321.16        38.33168
321.61        38.12212
322.06        37.94287
322.51        37.75554
322.97        37.53554
323.42        37.30132
323.87        37.04107
324.32        36.74135
324.78        36.39719
325.23        36.02265
325.68        35.62571
326.13        35.23244
326.59        34.85652
327.04        34.51982
327.49        34.22968
327.94        33.99715
328.39        33.81929
328.85        33.67323
329.30        33.57938
329.75        33.51635
330.20        33.47017
330.66        33.41832
331.11        33.35091
331.56        33.19981
332.01        32.94946
332.46        32.60712
332.92        32.22051
333.37        31.88722
333.82        31.64228
334.27        31.49168
334.72        31.38126
335.17        31.21253
335.63        30.95583
336.08         30.6414
336.53        30.38338
336.98        30.38255
337.43        30.66244
337.88        31.15431
338.34        31.60834
338.79         31.6679
339.24        31.23975
339.69         30.4326
340.14        29.53993
340.59        29.06184
341.05        29.11572
341.50        29.55339
341.95        30.10486
342.40        30.34849
342.85        30.17942
343.30        29.74985
343.75        29.21439
344.20        28.82071
344.66        28.64597
345.11        28.57179
345.56        28.57731
346.01         28.6354
346.46        28.70847
346.91        28.82787
347.36         28.8749
347.81        28.65044
348.26        28.15006
348.72        27.46397
349.17         26.7796
349.62        26.49214
350.07        26.68362
350.52         27.2068
350.97        27.85195
351.42        28.30356
351.87        28.46227
352.32        28.41751
352.77        28.20046
353.22        27.86649
353.67        27.46597
354.13        26.99817
354.58        26.53024
355.03        26.21375
355.48        26.08063
355.93        26.10882
356.38         26.2144
356.83        26.24717
357.28        26.16055
357.73        25.98324
358.18        25.76327
358.63        25.58916
359.08          25.482
359.53        25.40592
359.98        25.31044
360.43        25.12164
360.88         24.8299
361.33        24.47401
361.78        24.10863
362.23         23.8194
362.68        23.63022
363.13        23.50649
363.58        23.41964
364.03         23.3255
364.48        23.19949
364.93        23.05112
365.38        22.85503
365.83        22.57303
366.28        22.21045
366.73        21.78607
367.18        21.35955
367.63        21.02485
368.08        20.80363
368.53        20.67114
368.98        20.58531
369.43        20.47281
369.88        20.31374
370.33        20.13591
370.78         19.9481
371.23        19.76814
371.68        19.60701
372.13        19.44613
372.58        19.31989
373.03        19.29062
373.48        19.35503
373.93        19.48567
374.38        19.59132
374.83        19.53153
375.28        19.28265
375.72        18.88376
376.17        18.44785
376.62        18.11885
377.07        17.94832
377.52        17.89653
377.97        17.92301
378.42         17.9617
378.87        17.98141
379.32        17.99468
379.77        17.99941
380.22        17.98891
380.67        17.96108
381.11        17.91564
381.56        17.82839
382.01        17.68544
382.46        17.48957
382.91        17.24408
383.36        17.00781
383.81        16.86466
384.26        16.82843
384.71        16.88895
385.15        16.94958
385.60        16.86156
386.05        16.60559
386.50        16.23009
386.95        15.88173
387.40        15.79122
387.85         15.9908
388.29        16.38726
388.74        16.80473
389.19        16.99742
389.64        16.91498
390.09        16.62814
390.54         16.2712
390.98        16.05361
391.43        16.04553
391.88        16.16999
392.33        16.30841
392.78        16.29187
393.23        16.10168
393.67        15.80059
394.12        15.52827
394.57        15.41766
395.02        15.49479
395.47        15.71134
395.91        15.97749
396.36        16.11645
396.81        16.08471
397.26        15.93125
397.71        15.75475
398.15        15.68992
398.60        15.78107
399.05        15.96514
399.50        16.15432
399.95        16.22682
400.39        16.15705
400.84        15.98445
401.29        15.78714
401.74          15.705
402.18        15.78206
402.63        15.96535
403.08        16.16233
403.53        16.22435
403.97        16.12168
404.42        15.91644
404.87        15.70242
405.32        15.63223
405.76        15.73911
406.21        15.96521
406.66         16.2305
407.11        16.41236
407.55        16.47733
408.00        16.46832
408.45        16.41531
408.90         16.3271
409.34        16.24105
409.79        16.22719
410.24        16.26729
410.68        16.26563
411.13        16.22274
411.58        16.20485
412.03        16.21061
412.47        16.21154
412.92        16.20377
413.37        16.18767
413.81         16.1971
414.26        16.29856
414.71        16.49121
415.15        16.76126
415.60        17.00813
416.05        17.09407
416.49        16.98657
416.94        16.73283
417.39        16.44271
417.83        16.29502
418.28           16.34
418.73        16.51681
419.17        16.73513
419.62        16.84159
420.07        16.80463
420.51        16.68015
420.96         16.5324
421.41        16.43901
421.85        16.42024
422.30        16.45638
422.74        16.53109
423.19        16.65376
423.64        16.80765
424.08        16.99985
424.53        17.17783
424.98        17.27366
425.42        17.27204
425.87        17.19419
426.31        17.07307
426.76        16.97245
427.21        16.90426
427.65         16.8463
428.10        16.82766
428.54         16.8685
428.99        16.96865
429.44        17.19557
429.88        17.43324
430.33        17.38266
430.77        17.09949
431.22        16.93894
431.66         16.9616
432.11        17.06625
432.56        17.23442
433.00        17.53845
433.45        17.80525
433.89        17.78166
434.34        17.57726
434.78        17.36455
435.23        17.11656
435.67        17.96354
436.12        17.39285
436.57        17.28081
437.01        16.98298
437.46        16.86742
437.90        16.95846
438.35        17.09681
438.79        17.21697
439.24        17.28968
439.68        17.29408
440.13        17.10295
440.57        16.83752
441.02        16.96306
441.46         17.3282
441.91        17.38609
442.35         16.7307
442.80         16.5324
443.24        16.62114
443.69        16.63316
444.13        16.53506
444.58        16.46102
445.02         16.4175
445.47        16.41286
445.91        16.43212
446.36        16.41359
446.80        16.34726
447.24         16.2718
447.69        16.20761
448.13        16.14933
448.58        16.10896
449.02        16.08516
449.47         16.0707
449.91        16.04676
450.36        16.01564
450.80        15.97882
451.25        15.95827
451.69        15.97076
452.13          16.022
452.58        16.09516
453.02         16.1715
453.47        16.22366
453.91        16.24466
454.36        16.24117
454.80        16.21374
455.24        16.16416
455.69        16.10522
456.13        16.02236
456.58        15.94922
457.02        15.92578
457.46        15.95517
457.91        15.98954
458.35        16.01073
458.79        16.03005
459.24        16.03874
459.68        16.03708
460.13        16.07607
460.57        16.08085
461.01        16.03782
461.46        16.38183
461.90        16.47091
462.34        16.31085
462.79         16.4439
463.23        16.31987
463.68        16.20895
464.12        16.12006
464.56        16.19691
465.01         16.3174
465.45        16.43301
465.89        16.48885
466.34        16.47886
466.78        16.36796
467.22        16.22464
467.67        16.27459
468.11        16.48758
468.55        16.53158
468.99        16.41283
469.44        16.41146
469.88        16.53309
470.32          16.611
470.77        16.62576
471.21         16.6328
471.65        16.63195
472.10        16.61058
472.54        16.58007
472.98        16.59587
473.42          16.662
473.87        16.71398
474.31         16.7472
474.75        16.85519
475.20        16.99885
475.64        16.99604
476.08        16.88353
476.52        16.86871
476.97        16.96251
477.41        17.06671
477.85        17.14833
478.29        17.20524
478.74        17.23237
479.18        17.19967
479.62        17.16332
480.06        17.21899
480.50        17.35683
480.95         17.4658
481.39        17.51261
481.83        17.53105
482.27        17.52044
482.72        17.47108
483.16        17.41273
483.60        17.40342
484.04        17.44686
484.48         17.5787
484.93        17.84631
485.37        17.98229
485.81        18.09912
486.25        18.67745
486.69        18.96483
487.14        18.47204
487.58        18.49057
488.02         19.1097
488.46        18.88992
488.90        19.02669
489.34        18.96781
489.79        19.05953
490.23        19.26764
490.67        19.47581
491.11        19.62726
491.55        19.56233
491.99        19.34256
492.43        19.27138
492.88        19.38853
493.32        19.50476
493.76        19.61767
494.20         19.8113
494.64        20.07897
495.08        20.38921
495.52        20.69136
495.96        20.92457
496.41         21.0761
496.85        21.12267
497.29        21.12378
497.73        21.27655
498.17         21.5693
498.61        21.75856
499.05        21.83265
499.49        21.99269
499.93         22.2416
500.37        22.40552
500.82        22.49602
501.26        22.71506
501.70        23.01291
502.14        23.07386
502.58        22.94706
503.02        22.97388
503.46        23.17625
503.90        23.37705
504.34        23.51854
504.78        23.58493
505.22        23.56149
505.66        23.46207
506.10        23.34414
506.54        23.29716
506.98        23.34896
507.42        23.48096
507.86         23.6561
508.30        23.81081
508.74        23.92237
509.18        24.00219
509.62        24.07768
510.06        24.19204
510.50        24.35245
510.94        24.54421
511.38        24.71448
511.82        24.78133
512.26        24.73197
512.70        24.59444
513.14        24.45075
513.58        24.42558
514.02        24.53888
514.46        24.75421
514.90        24.99066
515.34        25.05413
515.78        24.95284
516.22        24.79555
516.66        24.67512
517.10        24.40325
517.54         24.0076
517.98        24.55042
518.42        24.43036
518.86        24.66936
519.30         24.7721
519.74        24.89795
520.18        25.00899
520.62        25.02266
521.06        24.94871
521.50        24.79435
521.93        24.61343
522.37        24.50435
522.81        24.48969
523.25        24.54329
523.69        24.62263
524.13        24.65975
524.57        24.63344
525.01        24.56203
525.45        24.46895
525.89        24.39014
526.32         24.3365
526.76        24.30053
527.20         24.2593
527.64        24.18227
528.08        24.06451
528.52        23.91488
528.96        23.77428
529.40        23.70176
529.83        23.70474
530.27         23.7709
530.71        23.83375
531.15        23.79089
531.59        23.62711
532.03        23.37781
532.46        23.12568
532.90        23.01871
533.34        23.07665
533.78        23.24714
534.22        23.44416
534.66         23.5357
535.09        23.48466
535.53        23.34249
535.97        23.15706
536.41        23.00108
536.85        22.90217
537.28        22.84846
537.72        22.84001
538.16        22.80752
538.60        22.85542
539.04        22.89238
539.47        22.93142
539.91        22.99874
540.35        23.10617
540.79        23.04971
541.22        23.13787
541.66          23.224
542.10        23.41793
542.54        23.33618
542.97        23.58703
543.41        23.72128
543.85        23.90216
544.29        24.07162
544.72        24.20602
545.16        24.34002
545.60        24.46691
546.04        24.50411
546.47        24.52389
546.91        24.79482
547.35        25.25465
547.79        25.57939
548.22        25.72455
548.66        25.79659
549.10        25.84436
549.53        26.04218
549.97        26.40288
550.41        26.46651
550.84        26.71904
551.28        26.89427
551.72        27.14552
552.15        27.38912
552.59         27.6223
553.03        27.85713
553.46        28.06091
553.90        28.21384
554.34        28.31158
554.77        28.36007
555.21        28.40295
555.65        28.49657
556.08        28.64729
556.52        28.83494
556.96        29.02156
557.39        29.18415
557.83        29.30137
558.27        29.31512
558.70        29.26404
559.14        29.26903
559.57        29.33846
560.01        29.45426
560.45         29.5789
560.88        29.61663
561.32        29.61763
561.75        29.67338
562.19        29.89084
562.63        30.01071
563.06        30.05687
563.50        30.11278
563.93        30.18241
564.37         30.3301
564.80        30.41666
565.24        30.55789
565.68        30.68399
566.11        30.79546
566.55        30.91095
566.98        30.96593
567.42        30.95514
567.85        31.28787
568.29        31.14885
568.72         31.4311
569.16        31.83247
569.60        32.11987
570.03        32.24851
570.47        32.42248
570.90        32.48202
571.34        32.80435
571.77        32.56084
572.21        32.92387
572.64        33.24352
573.08        33.48351
573.51        33.49742
573.95        33.95473
574.38        34.20356
574.82        34.43349
