SpectraSmart Spectrum 2.9.0.0
--------- Device Information -----------
Spectrum Name :  反射率_0
Saving Time :  2024/04/20 00:47:57
Spectro-Module Model Name : SE2030-DUVN
Spectro-Module Serial Number : OS361AC55029948
Wavelength Start : 200
Wavelength End : 1025
Wavelength Unit : Wavelength(nm)
Spectrum Unit : Reflectance(%)
-----------Spectrum Setting ------------
Integration Time : 30ms
Average : 10
Boxcar : 0
Background removal :  enabled
linearity correction :  enabled
SC :  disabled
Intensity correction :  disabled
DWT denoise :  enabled
savitzky-golay :  disabled
FFT :  disabled
Running average :  disabled
Kalman :  disabled
High pass :  disabled
---------------BEGIN--------------------
Wavelength(nm)             Reflectance(%)
200.29               0
200.75        54.16179
201.21        52.65935
201.67        52.72032
202.13        56.49821
202.58        64.90074
203.04        78.13807
203.50        91.78635
203.96        94.82718
204.42        86.64108
204.88        74.28961
205.34        63.49823
205.80        56.74356
206.26        52.87957
206.72        50.13978
207.18        48.59327
207.64        49.57717
208.10        53.44661
208.55         59.4603
209.01         63.7556
209.47        64.09252
209.93        61.17011
210.39        56.25619
210.85         50.7893
211.31        46.09661
211.77        42.10997
212.23        37.92039
212.69        34.28352
213.14            34.4
213.60        38.38603
214.06        44.28441
214.52        49.32512
214.98        52.37493
215.44        53.95947
215.90        54.23286
216.36        54.28395
216.81        56.23963
217.27        60.22503
217.73        65.37519
218.19        68.83319
218.65         66.7196
219.11        58.44966
219.57        44.65688
220.02        28.60681
220.48        19.15603
220.94        19.78254
221.40        28.86668
221.86        41.41556
222.32        49.41828
222.77        50.68209
223.23        47.73572
223.69        43.55202
224.15        42.35476
224.61        44.47951
225.06        47.75206
225.52        50.54512
225.98        51.79777
226.44        51.53053
226.90        50.43367
227.36         49.0154
227.81        47.96896
228.27        47.81428
228.73        48.08979
229.19        48.56402
229.65        48.99409
230.10        49.27779
230.56        49.55686
231.02        49.75643
231.48        49.78362
231.93        49.62842
232.39        49.33174
232.85        49.00248
233.31        48.86097
233.77        48.93438
234.22        49.13317
234.68        49.32367
235.14        49.16699
235.60        48.61197
236.05        47.81581
236.51        46.97568
236.97         46.3382
237.43        45.99723
237.88        46.01788
238.34        46.34797
238.80        47.11435
239.26        48.20148
239.71        49.44418
240.17        50.56565
240.63        51.69804
241.08          52.923
241.54        54.12698
242.00        54.78846
242.46        53.84378
242.91        50.65549
243.37        44.36286
243.83        35.37944
244.28         29.4506
244.74        32.49969
245.20        43.72371
245.66        55.07039
246.11        59.37176
246.57        55.98984
247.03        45.62887
247.48        31.07689
247.94        27.36081
248.40        36.25842
248.85        47.16942
249.31        55.21042
249.77        59.74665
250.22        61.91962
250.68        62.98021
251.14        63.25913
251.59        62.88386
252.05         62.1919
252.51        61.19237
252.96        59.74152
253.42        58.07716
253.88        56.61891
254.33        55.61049
254.79        56.32697
255.25         59.6621
255.70        64.95889
256.16        71.05459
256.62        76.18521
257.07        78.41779
257.53        77.90517
257.99        75.43029
258.44         71.7416
258.90        68.67789
259.35        66.34877
259.81        64.99712
260.27        63.87373
260.72        62.32139
261.18        60.55701
261.63        58.35217
262.09        56.61171
262.55        56.04027
263.00        56.48396
263.46        57.66089
263.91        58.42922
264.37        57.76331
264.83        55.69198
265.28        52.67533
265.74        49.93565
266.19        48.70602
266.65        49.15321
267.11        50.59555
267.56        52.12303
268.02        52.45338
268.47        51.34537
268.93        49.25671
269.38        46.73002
269.84         44.8808
270.30        44.02713
270.75         43.8502
271.21        43.95097
271.66        43.72332
272.12         42.9948
272.57        41.96648
273.03         40.9138
273.48         40.1485
273.94        39.78783
274.39        39.65221
274.85        39.52883
275.31        39.08957
275.76        38.25685
276.22         37.1713
276.67        36.04918
277.13        35.31929
277.58        34.98922
278.04        34.96288
278.49        34.89568
278.95        34.37526
279.40        33.32797
279.86        32.01583
280.31        30.71254
280.77        29.94629
281.22         29.7226
281.68        29.86951
282.13        30.11705
282.59         30.1139
283.04        29.76527
283.50        29.24558
283.95        28.62771
284.41        28.05329
284.86        27.55981
285.32        27.12239
285.77        26.80224
286.22        26.76928
286.68         27.0095
287.13        27.43095
287.59        27.85075
288.04        27.97033
288.50        27.75886
288.95        27.27945
289.41        26.70277
289.86        26.22287
290.32        25.95618
290.77        25.83774
291.22         25.8476
291.68        25.91779
292.13        26.03039
292.59         26.2316
293.04        26.54257
293.50        27.00375
293.95        27.59927
294.40        28.28352
294.86        29.00409
295.31        29.69949
295.77        30.34646
296.22        30.95681
296.68        31.52297
297.13        32.01453
297.58        32.44634
298.04        32.83775
298.49        33.24406
298.95        33.79198
299.40        34.48424
299.85        35.27871
300.31        36.09642
300.76        36.80646
301.21        37.37226
301.67        37.85516
302.12        38.25124
302.58         38.6223
303.03        38.96648
303.48        39.28812
303.94        39.64577
304.39        40.08827
304.84        40.62439
305.30        41.22234
305.75        41.78363
306.20        42.18206
306.66        42.40947
307.11        42.48921
307.57         42.4937
308.02        42.45472
308.47         42.4214
308.93        42.37727
309.38        42.35066
309.83        42.43917
310.29        42.63935
310.74        42.92463
311.19        43.16383
311.65        43.14269
312.10        42.82532
312.55        42.28618
313.00         41.7026
313.46        41.34908
313.91        41.26976
314.36        41.39182
314.82        41.57207
315.27        41.60097
315.72        41.40624
316.18         41.0739
316.63        40.67322
317.08        40.31815
317.53         40.0426
317.99        39.79501
318.44        39.56822
318.89        39.34686
319.35        39.12016
319.80        38.90189
320.25        38.66858
320.70        38.37701
321.16        38.01654
321.61        37.60324
322.06        37.16728
322.51        36.76711
322.97        36.41274
323.42        36.09447
323.87        35.78645
324.32        35.45087
324.78        35.07076
325.23        34.67387
325.68        34.25727
326.13        33.82201
326.59        33.37927
327.04         32.9542
327.49        32.57459
327.94        32.28912
328.39         32.1027
328.85        31.97894
329.30        31.92199
329.75        31.88485
330.20         31.8401
330.66        31.77172
331.11        31.66357
331.56        31.43729
332.01        31.08244
332.46        30.61615
332.92        30.10612
333.37        29.68351
333.82        29.39466
334.27        29.23052
334.72        29.14247
335.17        29.03732
335.63         28.8753
336.08        28.68372
336.53        28.51596
336.98        28.47319
337.43        28.56612
337.88        28.75752
338.34        28.89919
338.79        28.80023
339.24        28.40832
339.69         27.7859
340.14        27.13786
340.59        26.80846
341.05        26.86673
341.50        27.21362
341.95        27.63293
342.40        27.78564
342.85        27.59247
343.30        27.17431
343.75        26.67222
344.20        26.31605
344.66        26.17471
345.11          26.143
345.56        26.19115
346.01         26.2742
346.46        26.34925
346.91        26.44159
347.36        26.45456
347.81        26.22617
348.26        25.75772
348.72        25.13645
349.17        24.50494
349.62        24.18293
350.07        24.24926
350.52         24.5922
350.97        25.08205
351.42        25.52259
351.87        25.83028
352.32        26.04305
352.77        26.12074
353.22        26.00378
353.67        25.70546
354.13        25.26373
354.58        24.75964
355.03        24.36731
355.48        24.14164
355.93        24.05579
356.38        24.07578
356.83        24.13294
357.28        24.19093
357.73        24.25603
358.18        24.30963
358.63        24.32005
359.08        24.27745
359.53         24.1863
359.98        24.03971
360.43        23.83566
360.88        23.58787
361.33        23.30433
361.78        23.04869
362.23        22.92187
362.68        22.93542
363.13        23.05032
363.58         23.1775
364.03        23.17722
364.48         23.0139
364.93        22.72763
365.38        22.37149
365.83        22.04261
366.28        21.78206
366.73        21.56539
367.18         21.3907
367.63         21.2527
368.08        21.14158
368.53        21.06418
368.98        20.99855
369.43        20.90112
369.88        20.76701
370.33        20.61386
370.78        20.45861
371.23        20.33627
371.68        20.26063
372.13        20.21167
372.58        20.21245
373.03        20.30119
373.48         20.4631
373.93        20.67115
374.38        20.83372
374.83        20.81423
375.28        20.59175
375.72        20.20405
376.17        19.76733
376.62        19.43148
377.07         19.2518
377.52        19.19168
377.97        19.21198
378.42        19.24636
378.87        19.26466
379.32        19.28073
379.77        19.29516
380.22        19.30471
380.67        19.30727
381.11        19.30134
381.56        19.25672
382.01        19.14945
382.46        18.97936
382.91        18.75164
383.36        18.52899
383.81        18.40362
384.26        18.38836
384.71        18.46393
385.15        18.53123
385.60        18.43974
386.05        18.16739
386.50        17.76687
386.95        17.37124
387.40        17.19049
387.85        17.26227
388.29        17.50689
388.74        17.78571
389.19        17.90019
389.64        17.80613
390.09         17.5594
390.54        17.26012
390.98        17.06195
391.43        17.02172
391.88        17.07833
392.33        17.14156
392.78        17.08404
393.23        16.89324
393.67        16.61433
394.12        16.36267
394.57        16.23626
395.02        16.25367
395.47        16.37567
395.91         16.5343
396.36        16.59324
396.81        16.52155
397.26        16.35548
397.71        16.17003
398.15        16.06313
398.60        16.07508
399.05        16.16179
399.50        16.25215
399.95        16.24553
400.39        16.12127
400.84        15.90766
401.29        15.68508
401.74        15.59948
402.18        15.69164
402.63        15.90585
403.08        16.12664
403.53        16.17042
403.97        16.00085
404.42         15.6876
404.87        15.35109
405.32        15.18913
405.76        15.24663
406.21         15.4545
406.66        15.70611
407.11        15.83541
407.55        15.79932
408.00        15.65468
408.45        15.46166
408.90         15.2856
409.34        15.17904
409.79        15.18757
410.24        15.26279
410.68        15.26883
411.13        15.19266
411.58        15.10891
412.03        15.03192
412.47        14.96314
412.92        14.90843
413.37        14.85746
413.81        14.83051
414.26        14.87315
414.71        14.97989
415.15        15.14589
415.60        15.28507
416.05        15.28161
416.49        15.11066
416.94        14.81419
417.39        14.49242
417.83        14.30833
418.28        14.30735
418.73        14.43385
419.17        14.60257
419.62        14.66717
420.07        14.59595
420.51        14.43692
420.96        14.25046
421.41         14.1119
421.85        14.04068
422.30        14.01952
422.74        14.02474
423.19        14.04906
423.64        14.07591
424.08        14.11601
424.53         14.1432
424.98        14.13609
425.42        14.09287
425.87         14.0226
426.31        13.92911
426.76        13.82809
427.21        13.71894
427.65        13.59406
428.10         13.4959
428.54        13.47282
428.99        13.53362
429.44        13.71812
429.88        13.92048
430.33        13.88194
430.77        13.64094
431.22        13.48602
431.66        13.46518
432.11        13.49726
432.56        13.56828
433.00        13.73469
433.45        13.86319
433.89        13.77032
434.34        13.55135
434.78        13.34176
435.23        13.12254
435.67         13.7557
436.12        13.31357
436.57        13.23077
437.01        13.00725
437.46        12.91484
437.90        12.96878
438.35        13.05004
438.79        13.10977
439.24        13.13045
439.68        13.09795
440.13        12.91318
440.57        12.67679
441.02        12.74993
441.46        13.01902
441.91        13.07262
442.35        12.58584
442.80        12.41431
443.24        12.42529
443.69        12.35486
444.13        12.20248
444.58        12.10983
445.02         12.0886
445.47        12.13149
445.91        12.19986
446.36        12.20449
446.80        12.12631
447.24         12.0078
447.69        11.88586
448.13        11.78759
448.58        11.73141
449.02        11.70655
449.47        11.69502
449.91        11.66316
450.36        11.60883
450.80        11.54153
451.25        11.49045
451.69         11.4854
452.13        11.53411
452.58        11.61454
453.02        11.70276
453.47        11.76014
453.91        11.77807
454.36        11.76737
454.80        11.73308
455.24         11.6861
455.69        11.63935
456.13        11.57738
456.58        11.52749
457.02        11.52294
457.46        11.56562
457.91        11.62004
458.35        11.66323
458.79        11.68458
459.24        11.67675
459.68         11.6434
460.13        11.64053
460.57        11.64072
461.01        11.63957
461.46        11.94083
461.90        12.05773
462.34        11.95594
462.79        12.02614
463.23        11.87618
463.68        11.72508
464.12        11.61326
464.56        11.65675
465.01        11.75471
465.45        11.85973
465.89        11.91234
466.34        11.90343
466.78        11.81631
467.22         11.7033
467.67        11.73141
468.11        11.88077
468.55        11.90873
468.99        11.82452
469.44        11.83822
469.88        11.95421
470.32        12.04899
470.77        12.09567
471.21        12.11646
471.65        12.10693
472.10        12.06592
472.54        12.01256
472.98         12.0081
473.42        12.06263
473.87        12.12422
474.31        12.18375
474.75        12.29793
475.20        12.43457
475.64        12.46089
476.08        12.40784
476.52        12.43556
476.97         12.5516
477.41        12.68001
477.85        12.78121
478.29        12.83021
478.74        12.82024
479.18        12.73814
479.62         12.6478
480.06        12.65283
480.50        12.75344
480.95        12.85943
481.39        12.93082
481.83        12.96608
482.27        12.96073
482.72        12.92036
483.16        12.87471
483.60        12.88786
484.04        12.97302
484.48        13.11676
484.93        13.35831
485.37        13.56067
485.81        13.75548
486.25         14.1303
486.69        14.50731
487.14        13.89905
487.58        13.83088
488.02        14.75026
488.46        14.31256
488.90        14.47296
489.34        14.38386
489.79        14.51855
490.23        14.81943
490.67        15.04978
491.11        15.17052
491.55          15.129
491.99        14.97907
492.43        14.92426
492.88        14.99893
493.32        15.06532
493.76        15.13484
494.20        15.29445
494.64        15.54331
495.08        15.84655
495.52        16.15653
495.96         16.4141
496.41        16.60159
496.85        16.70182
497.29         16.7516
497.73        16.89343
498.17        17.11863
498.61        17.23986
499.05        17.26575
499.49        17.38564
499.93        17.61028
500.37        17.79306
500.82        17.93266
501.26        18.17483
501.70        18.47242
502.14        18.57486
502.58        18.51332
503.02        18.55219
503.46        18.70916
503.90        18.84404
504.34        18.92326
504.78         18.9561
505.22        18.93866
505.66        18.88036
506.10        18.81948
506.54        18.81338
506.98        18.87968
507.42        19.00512
507.86        19.16927
508.30        19.33593
508.74        19.48685
509.18        19.62387
509.62        19.74747
510.06        19.85983
510.50        19.96182
510.94        20.05347
511.38        20.11941
511.82        20.13803
512.26        20.11113
512.70        20.04814
513.14        19.99393
513.58        20.01447
514.02         20.1133
514.46        20.26938
514.90        20.42851
515.34        20.44523
515.78        20.32746
516.22        20.18659
516.66        20.09225
517.10        19.80703
517.54        19.35173
517.98        19.87012
518.42        19.68469
518.86         19.9139
519.30        20.03859
519.74        20.21315
520.18        20.38091
520.62        20.43012
521.06        20.36214
521.50        20.19207
521.93        19.97871
522.37        19.82869
522.81         19.7714
523.25        19.78161
523.69        19.82386
524.13          19.841
524.57        19.81418
525.01        19.75885
525.45        19.69603
525.89        19.65627
526.32         19.6452
526.76        19.65304
527.20        19.64723
527.64        19.58296
528.08        19.45357
528.52        19.27346
528.96        19.09414
529.40        18.99193
529.83        18.98056
530.27        19.04282
530.71        19.11259
531.15        19.08573
531.59        18.94469
532.03         18.7255
532.46        18.50368
532.90        18.41383
533.34        18.47327
533.78        18.63107
534.22        18.81131
534.66        18.89826
535.09        18.85965
535.53        18.74365
535.97        18.58669
536.41        18.44286
536.85        18.33773
537.28        18.26387
537.72        18.23947
538.16        18.23772
538.60        18.34344
539.04        18.46992
539.47        18.60139
539.91        18.71848
540.35        18.82187
540.79        18.76017
541.22        18.79755
541.66        18.83518
542.10        18.97202
542.54        18.89064
542.97        19.09334
543.41        19.23237
543.85        19.43854
544.29        19.66036
544.72        19.85347
545.16        20.00638
545.60        20.10718
546.04        20.10008
546.47         20.0693
546.91        20.27698
547.35        20.68169
547.79        21.00208
548.22        21.18418
548.66        21.28918
549.10        21.35043
549.53        21.52233
549.97        21.81597
550.41        21.84895
550.84         22.0266
551.28        22.13072
551.72        22.30346
552.15        22.50331
552.59        22.73039
553.03        22.98369
553.46        23.21683
553.90        23.38162
554.34        23.46751
554.77        23.49023
555.21        23.49318
555.65        23.53399
556.08        23.62543
556.52        23.74956
556.96        23.88452
557.39        24.02669
557.83        24.15845
558.27        24.22482
558.70        24.24281
559.14          24.287
559.57        24.35701
560.01        24.44505
560.45        24.52351
560.88        24.51965
561.32        24.48179
561.75        24.48552
562.19        24.62894
562.63         24.7133
563.06        24.76104
563.50        24.83696
563.93        24.93378
564.37        25.08731
564.80        25.17929
565.24        25.30245
565.68        25.40202
566.11         25.5054
566.55        25.63546
566.98        25.64469
567.42        25.70198
567.85        25.98632
568.29        25.88278
568.72        26.17747
569.16        26.60143
569.60        26.89993
570.03        27.02827
570.47        27.16957
570.90        27.20803
571.34        27.54292
571.77        27.31579
572.21        27.68628
572.64        28.00158
573.08        28.05038
573.51        28.25286
573.95        28.68985
574.38        29.01893
574.82        29.24367
