SpectraSmart Spectrum 2.9.0.0
--------- Device Information -----------
Spectrum Name :  反射率_0
Saving Time :  2024/04/20 00:15:09
Spectro-Module Model Name : SE2030-DUVN
Spectro-Module Serial Number : OS361AC55029948
Wavelength Start : 200
Wavelength End : 1025
Wavelength Unit : Wavelength(nm)
Spectrum Unit : Reflectance(%)
-----------Spectrum Setting ------------
Integration Time : 30ms
Average : 10
Boxcar : 0
Background removal :  enabled
linearity correction :  enabled
SC :  disabled
Intensity correction :  disabled
DWT denoise :  enabled
savitzky-golay :  disabled
FFT :  disabled
Running average :  disabled
Kalman :  disabled
High pass :  disabled
---------------BEGIN--------------------
Wavelength(nm)             Reflectance(%)
200.29               0
200.75        47.01016
201.21        47.90518
201.67        51.56675
202.13        57.32746
202.58        64.46455
203.04        73.36356
203.50         81.6543
203.96        83.49353
204.42        78.73761
204.88        71.15586
205.34         63.9333
205.80        58.18204
206.26        52.86203
206.72        46.31442
207.18         38.2412
207.64         32.5141
208.10        33.77304
208.55        41.40921
209.01        49.69744
209.47        54.16251
209.93        54.86865
210.39        53.32146
210.85        50.95469
211.31        49.34594
211.77        48.73331
212.23        48.58608
212.69        48.65955
213.14        48.60221
213.60        48.02598
214.06        47.86472
214.52        48.09493
214.98        48.69622
215.44        49.57642
215.90        50.33839
216.36        51.28834
216.81        52.87209
217.27        54.78566
217.73        56.97158
218.19        57.60368
218.65        54.04382
219.11        45.88623
219.57        33.29385
220.02        19.21487
220.48        11.77015
220.94         13.8704
221.40        24.07829
221.86        36.88276
222.32        43.59033
222.77        42.19233
223.23        35.55619
223.69        28.04869
224.15         25.9223
224.61        29.32456
225.06        34.89224
225.52        39.68048
225.98        41.47363
226.44        40.24522
226.90        37.18332
227.36        33.18187
227.81        29.76318
228.27        28.01249
228.73        27.38397
229.19        27.67261
229.65        28.64613
230.10        29.99747
230.56        31.54931
231.02        33.10254
231.48        34.38171
231.93        35.30202
232.39        35.95638
232.85        36.13455
233.31        35.54307
233.77        34.22118
234.22        32.25812
234.68        30.27875
235.14        29.27935
235.60        29.53241
236.05        30.81115
236.51        32.49113
236.97        33.56771
237.43        33.80774
237.88        33.51015
238.34        32.99281
238.80        33.43493
239.26        35.37066
239.71        38.15401
240.17        41.16124
240.63        44.13069
241.08        47.00013
241.54         49.8644
242.00        51.94194
242.46        51.66481
242.91        48.20003
243.37          40.404
243.83        28.82352
244.28        21.04557
244.74          24.875
245.20        39.32479
245.66        53.86375
246.11        58.94932
246.57        53.71916
247.03        38.88427
247.48        18.55284
247.94        13.70268
248.40        26.57643
248.85        42.14822
249.31        53.38488
249.77        59.10982
250.22        60.97201
250.68        60.75409
251.14        59.11171
251.59          57.049
252.05         55.5151
252.51        54.28097
252.96        53.02831
253.42        51.64052
253.88        50.24145
254.33        49.11252
254.79        49.45529
255.25        52.06324
255.70        56.30207
256.16        61.10139
256.62        64.63248
257.07        64.87745
257.53        62.12891
257.99        57.39154
258.44        52.08304
258.90         48.7171
259.35          47.187
259.81        46.94266
260.27        46.74466
260.72        45.54004
261.18        43.54428
261.63        40.84922
262.09         38.5154
262.55        37.55642
263.00        37.90702
263.46        39.09444
263.91         39.9838
264.37        39.43562
264.83        37.48299
265.28        34.62937
265.74        32.01579
266.19        30.84929
266.65        31.27299
267.11        32.66631
267.56         34.1857
268.02        34.60295
268.47         33.7105
268.93        31.92022
269.38        29.77754
269.84        28.39054
270.30        28.03178
270.75        28.36403
271.21        28.88185
271.66        28.84983
272.12        28.08678
272.57        26.86296
273.03        25.57412
273.48        24.74305
273.94        24.52617
274.39        24.68825
274.85        24.94591
275.31         24.8955
275.76        24.43475
276.22        23.72492
276.67         22.9485
277.13        22.44726
277.58         22.2445
278.04        22.24401
278.49        22.22385
278.95         21.9185
279.40        21.27619
279.86        20.47133
280.31        19.66273
280.77        19.17739
281.22        19.01458
281.68        19.07533
282.13        19.20015
282.59        19.17347
283.04        18.94914
283.50        18.63553
283.95        18.28796
284.41         18.0012
284.86         17.7978
285.32        17.65501
285.77        17.60111
286.22        17.73734
286.68        18.03832
287.13        18.44114
287.59        18.81144
288.04        18.94767
288.50        18.83239
288.95        18.51037
289.41        18.10917
289.86         17.7606
290.32        17.55795
290.77        17.45844
291.22        17.46581
291.68        17.54799
292.13        17.69652
292.59         17.9323
293.04        18.25522
293.50        18.66609
293.95        19.14839
294.40        19.67837
294.86        20.22015
295.31        20.73755
295.77        21.21913
296.22        21.66884
296.68        22.09997
297.13         22.5136
297.58        22.92429
298.04        23.33864
298.49        23.76302
298.95        24.24088
299.40        24.76515
299.85        25.32297
300.31        25.88596
300.76        26.41239
301.21        26.88588
301.67        27.33602
302.12         27.7403
302.58        28.11297
303.03        28.44317
303.48        28.73962
303.94        29.05948
304.39         29.4571
304.84        29.94112
305.30        30.47971
305.75        30.97783
306.20        31.30634
306.66        31.46136
307.11        31.47933
307.57        31.44938
308.02        31.44265
308.47        31.50476
308.93        31.59782
309.38        31.72461
309.83        31.93254
310.29        32.20106
310.74        32.51794
311.19        32.75734
311.65        32.71905
312.10        32.37778
312.55        31.80283
313.00        31.18228
313.46        30.80614
313.91        30.72848
314.36         30.8864
314.82        31.12594
315.27        31.21084
315.72        31.06616
316.18        30.77437
316.63        30.44603
317.08        30.25473
317.53        30.23469
317.99        30.30928
318.44        30.39052
318.89        30.33309
319.35        30.10046
319.80        29.75174
320.25        29.35003
320.70         28.9925
321.16        28.71085
321.61        28.47706
322.06        28.28108
322.51        28.11002
322.97        27.94534
323.42        27.79974
323.87        27.63829
324.32        27.40503
324.78         27.0864
325.23        26.70215
325.68        26.28971
326.13        25.92194
326.59         25.6278
327.04        25.41587
327.49         25.2638
327.94        25.13286
328.39        25.00678
328.85        24.87315
329.30        24.78527
329.75        24.79552
330.20        24.89962
330.66        25.04898
331.11        25.15859
331.56        25.04717
332.01        24.67886
332.46        24.10455
332.92        23.45527
333.37        22.95908
333.82        22.70046
334.27        22.64767
334.72        22.71091
335.17        22.72329
335.63        22.62289
336.08        22.45483
336.53        22.31127
336.98        22.35227
337.43        22.59973
337.88        22.98906
338.34        23.32721
338.79        23.35518
339.24         23.0035
339.69         22.3555
340.14        21.65212
340.59        21.29718
341.05        21.37877
341.50        21.78207
341.95        22.26868
342.40         22.4653
342.85        22.28358
343.30        21.85629
343.75        21.33978
344.20        20.98707
344.66        20.86986
345.11        20.87032
345.56        20.94186
346.01        21.01395
346.46        21.04157
346.91        21.06775
347.36        21.00695
347.81        20.71246
348.26        20.19344
348.72        19.53031
349.17         18.8842
349.62        18.60684
350.07        18.77387
350.52        19.25901
350.97         19.8812
351.42        20.36648
351.87        20.62245
352.32         20.7175
352.77        20.66267
353.22        20.48268
353.67        20.21205
354.13        19.85438
354.58         19.4708
355.03        19.20148
355.48        19.08109
355.93        19.09203
356.38        19.17165
356.83        19.20447
357.28        19.15454
357.73        19.04615
358.18        18.91518
358.63         18.8249
359.08        18.78893
359.53        18.77961
359.98        18.75412
360.43        18.65163
360.88        18.46504
361.33        18.22405
361.78        17.97773
362.23        17.80406
362.68        17.72012
363.13        17.69097
363.58        17.68433
364.03          17.651
364.48        17.57032
364.93        17.46003
365.38        17.30169
365.83        17.06694
366.28        16.76679
366.73         16.4179
367.18        16.09085
367.63        15.89496
368.08        15.84828
368.53        15.91585
368.98        16.02625
369.43        16.06433
369.88        16.00071
370.33        15.87095
370.78        15.70901
371.23        15.57705
371.68        15.49679
372.13        15.43747
372.58        15.40452
373.03        15.41102
373.48        15.44669
373.93         15.5088
374.38        15.54171
374.83        15.45684
375.28        15.24264
375.72        14.91759
376.17        14.58054
376.62        14.35109
377.07        14.26734
377.52        14.29844
377.97        14.38594
378.42        14.43587
378.87        14.41985
379.32        14.36087
379.77        14.29965
380.22        14.29611
380.67        14.35969
381.11        14.46982
381.56        14.56116
382.01        14.54459
382.46        14.40038
382.91        14.15481
383.36        13.89255
383.81        13.74015
384.26        13.72265
384.71         13.8085
385.15        13.89797
385.60        13.83839
386.05        13.60468
386.50        13.24971
386.95        12.89713
387.40         12.7402
387.85        12.81284
388.29        13.04275
388.74        13.29505
389.19        13.38557
389.64        13.27674
390.09         13.0271
390.54        12.73659
390.98        12.55875
391.43        12.54739
391.88        12.63959
392.33        12.75332
392.78        12.77326
393.23        12.68018
393.67        12.51009
394.12        12.34808
394.57        12.26398
395.02        12.27349
395.47        12.34988
395.91          12.443
396.36        12.45461
396.81        12.36551
397.26        12.20049
397.71         12.0306
398.15        11.94827
398.60        11.98412
399.05        12.10087
399.50        12.21264
399.95        12.19586
400.39        12.02789
400.84        11.74219
401.29        11.44636
401.74        11.33714
402.18        11.46739
402.63        11.76611
403.08        12.08257
403.53        12.17892
403.97        12.00844
404.42        11.66035
404.87        11.28022
405.32        11.10576
405.76        11.19392
406.21        11.45806
406.66        11.78439
407.11        11.99852
407.55        12.04947
408.00        11.99514
408.45        11.87811
408.90        11.74106
409.34        11.62684
409.79        11.57066
410.24        11.55621
410.68        11.51293
411.13        11.43955
411.58        11.39149
412.03        11.36234
412.47        11.32029
412.92        11.26255
413.37        11.18923
413.81        11.14221
414.26        11.19895
414.71        11.35955
415.15        11.60485
415.60        11.82765
416.05        11.87452
416.49        11.71178
416.94        11.39859
417.39        11.04892
417.83         10.8493
418.28        10.85218
418.73        10.98741
419.17        11.18031
419.62        11.29984
420.07        11.31019
420.51          11.257
420.96         11.1537
421.41        11.00372
421.85        10.82397
422.30         10.6259
422.74        10.45798
423.19        10.41588
423.64        10.50533
424.08        10.70583
424.53        10.93985
424.98        11.08336
425.42        11.09723
425.87        11.01982
426.31        10.88757
426.76         10.7705
427.21        10.68494
427.65        10.59868
428.10        10.54566
428.54        10.56507
428.99        10.65778
429.44        10.86312
429.88        11.06913
430.33        11.02239
430.77        10.75629
431.22        10.51543
431.66        10.38646
432.11        10.38944
432.56        10.53346
433.00        10.84374
433.45        11.15709
433.89         11.2061
434.34        11.02658
434.78        10.76593
435.23        10.47155
435.67        10.91066
436.12        10.57282
436.57        10.57083
437.01        10.47225
437.46        10.43867
437.90        10.46642
438.35        10.47956
438.79        10.46754
439.24        10.45982
439.68        10.45392
440.13        10.35217
440.57        10.20706
441.02        10.26844
441.46        10.43604
441.91        10.39777
442.35        9.923409
442.80         9.72435
443.24        9.697944
443.69        9.629287
444.13         9.51068
444.58        9.443498
445.02        9.431331
445.47        9.471517
445.91         9.53258
446.36        9.542613
446.80        9.484725
447.24        9.389976
447.69         9.28688
448.13        9.195557
448.58        9.132637
449.02        9.092896
449.47         9.06465
449.91         9.02447
450.36        8.973479
450.80        8.918349
451.25        8.887573
451.69        8.912002
452.13        8.995738
452.58         9.11344
453.02        9.234424
453.47        9.308196
453.91         9.32382
454.36        9.295687
454.80        9.232727
455.24        9.154417
455.69        9.078691
456.13        8.993596
456.58         8.92858
457.02        8.919733
457.46        8.969238
457.91        9.045866
458.35        9.122486
458.79        9.173053
459.24        9.187845
459.68        9.171782
460.13        9.175662
460.57        9.186563
461.01        9.203839
461.46        9.462075
461.90        9.572622
462.34        9.498755
462.79        9.550555
463.23        9.420484
463.68        9.288235
464.12        9.192575
464.56        9.229074
465.01        9.314141
465.45        9.410278
465.89         9.46897
466.34        9.482106
466.78        9.437775
467.22        9.371661
467.67        9.408517
468.11        9.529757
468.55        9.540432
468.99        9.459079
469.44         9.47166
469.88        9.585154
470.32        9.697262
470.77        9.766354
471.21        9.780169
471.65        9.730381
472.10        9.627327
472.54        9.514605
472.98        9.488807
473.42        9.566651
473.87        9.688654
474.31        9.815833
474.75        9.944707
475.20        10.03852
475.64        10.00674
476.08        9.897776
476.52        9.873917
476.97        9.951042
477.41        10.06009
477.85        10.15963
478.29         10.2139
478.74        10.21164
479.18        10.14553
479.62        10.07451
480.06        10.09318
480.50        10.20157
480.95        10.32029
481.39         10.3996
481.83        10.41504
482.27        10.35927
482.72         10.2441
483.16        10.12022
483.60        10.08073
484.04        10.13929
484.48        10.30548
484.93        10.59327
485.37        10.78956
485.81        10.85035
486.25        11.35366
486.69        11.23655
487.14        10.83864
487.58        11.10207
488.02        11.83497
488.46          11.558
488.90        11.54238
489.34        11.34036
489.79        11.49136
490.23        11.91844
490.67        12.14224
491.11        12.11619
491.55        11.99933
491.99        11.85568
492.43        11.78452
492.88        11.82047
493.32        11.87396
493.76        11.95049
494.20        12.10688
494.64        12.33718
495.08        12.61276
495.52        12.88656
495.96        13.09993
496.41         13.2376
496.85        13.28932
497.29        13.29653
497.73        13.39363
498.17        13.58009
498.61         13.7027
499.05        13.76094
499.49         13.8925
499.93        14.10007
500.37        14.26729
500.82         14.3942
501.26        14.60177
501.70        14.85216
502.14         14.9424
502.58          14.891
503.02        14.90166
503.46        14.98916
503.90        15.04606
504.34        15.06034
504.78        15.06232
505.22        15.05404
505.66        15.03621
506.10        15.02538
506.54        15.04384
506.98        15.09845
507.42        15.18497
507.86        15.29382
508.30        15.40795
508.74        15.51654
509.18        15.61595
509.62        15.70605
510.06        15.78796
510.50        15.86287
510.94        15.93524
511.38        15.98852
511.82        15.99748
512.26        15.96241
512.70        15.89013
513.14        15.83099
513.58        15.86088
514.02        15.98371
514.46        16.17544
514.90        16.36412
515.34        16.38135
515.78        16.21984
516.22        16.01203
516.66        15.85556
517.10        15.54613
517.54        15.11304
517.98        15.74543
518.42        15.63963
518.86        15.90941
519.30        15.99701
519.74        16.08672
520.18        16.15764
520.62         16.1527
521.06        16.09051
521.50        15.96922
521.93        15.82616
522.37        15.73368
522.81        15.70811
523.25        15.73192
523.69        15.78055
524.13         15.8137
524.57         15.8145
525.01        15.78967
525.45        15.74384
525.89        15.68381
526.32        15.61346
526.76        15.53589
527.20         15.4414
527.64        15.31979
528.08        15.17477
528.52        15.01111
528.96        14.86855
529.40        14.80379
529.83        14.82348
530.27        14.91487
530.71         15.0107
531.15        15.00452
531.59        14.87809
532.03        14.66391
532.46        14.44357
532.90        14.36157
533.34        14.43727
533.78        14.61783
534.22        14.81625
534.66        14.89951
535.09        14.83317
535.53        14.66928
535.97        14.46146
536.41        14.29104
536.85        14.18943
537.28        14.14076
537.72        14.14185
538.16        14.14313
538.60        14.20473
539.04        14.27108
539.47        14.34742
539.91        14.44381
540.35         14.5643
540.79        14.57787
541.22        14.67336
541.66        14.75035
542.10         14.8785
542.54        14.81634
542.97        14.96042
543.41        15.04309
543.85        15.17227
544.29        15.30908
544.72        15.42877
545.16        15.53674
545.60        15.62686
546.04        15.65248
546.47        15.67125
546.91        15.87463
547.35        16.22415
547.79        16.50002
548.22        16.66057
548.66        16.75536
549.10        16.81275
549.53        16.95424
549.97        17.18826
550.41         17.2115
550.84        17.34478
551.28        17.41943
551.72        17.55659
552.15        17.73807
552.59        17.96413
553.03        18.22739
553.46        18.47784
553.90        18.65563
554.34        18.74887
554.77        18.77694
555.21         18.7821
555.65        18.82195
556.08        18.91037
556.52        19.02845
556.96        19.16009
557.39        19.30592
557.83        19.44987
558.27        19.54602
558.70        19.59721
559.14        19.64506
559.57        19.68723
560.01        19.72463
560.45        19.74807
560.88        19.71919
561.32        19.68398
561.75        19.69806
562.19        19.83464
562.63        19.92388
563.06        19.97992
563.50        20.05705
563.93        20.15244
564.37        20.29757
564.80        20.39514
565.24         20.5241
565.68        20.63492
566.11        20.72348
566.55        20.80298
566.98        20.83602
567.42        20.83197
567.85        21.06813
568.29        21.00741
568.72        21.28505
569.16        21.66351
569.60        21.91592
570.03        22.00852
570.47        22.08107
570.90        22.05208
571.34        22.34885
571.77        22.26328
572.21        22.54178
572.64        22.62167
573.08        22.87143
573.51        23.06579
573.95        23.41583
574.38         23.6507
574.82         23.7223
