SpectraSmart Spectrum 2.9.0.0
--------- Device Information -----------
Spectrum Name :  反射率_0
Saving Time :  2024/04/20 00:45:20
Spectro-Module Model Name : SE2030-DUVN
Spectro-Module Serial Number : OS361AC55029948
Wavelength Start : 200
Wavelength End : 1025
Wavelength Unit : Wavelength(nm)
Spectrum Unit : Reflectance(%)
-----------Spectrum Setting ------------
Integration Time : 30ms
Average : 10
Boxcar : 0
Background removal :  enabled
linearity correction :  enabled
SC :  disabled
Intensity correction :  disabled
DWT denoise :  enabled
savitzky-golay :  disabled
FFT :  disabled
Running average :  disabled
Kalman :  disabled
High pass :  disabled
---------------BEGIN--------------------
Wavelength(nm)             Reflectance(%)
200.29               0
200.75        51.51211
201.21        52.79552
201.67        56.51495
202.13        62.52877
202.58        70.39683
203.04        80.41792
203.50        89.59482
203.96        90.87219
204.42        84.44035
204.88        75.10453
205.34        66.90716
205.80        61.51804
206.26        57.97163
206.72        54.89301
207.18        52.42151
207.64        52.42241
208.10        56.13043
208.55        62.83424
209.01        68.17641
209.47         69.5007
209.93        67.40247
210.39        62.97977
210.85        58.26913
211.31        55.48262
211.77        54.77782
212.23        55.67702
212.69        57.21692
213.14        56.65839
213.60        53.39473
214.06        50.19517
214.52        48.41101
214.98        48.68613
215.44        50.68212
215.90        53.64014
216.36        57.67674
216.81        62.34122
217.27        66.52506
217.73        70.33846
218.19        71.91093
218.65         68.6878
219.11        60.45581
219.57         47.2499
220.02          32.549
220.48        25.60053
220.94        29.69326
221.40        43.08893
221.86         59.3421
222.32        68.33054
222.77        67.67624
223.23        60.70165
223.69        52.23897
224.15        49.24614
224.61        52.20456
225.06        57.60063
225.52        62.50721
225.98        64.57761
226.44        63.77745
226.90        61.28174
227.36        58.15112
227.81        56.06034
228.27        55.88485
228.73        56.81189
229.19         58.0982
229.65        58.93337
230.10        59.13946
230.56        59.07004
231.02        59.00883
231.48        59.32346
231.93        59.95922
232.39        60.74253
232.85        61.27283
233.31        61.00064
233.77        59.84576
234.22        58.03204
234.68        55.95185
235.14        54.21969
235.60        53.11436
236.05        52.52436
236.51        52.33162
236.97        52.28863
237.43        52.29613
237.88        52.57937
238.34        52.96247
238.80        53.34569
239.26        53.55296
239.71        53.46101
240.17        53.10209
240.63        53.05849
241.08        53.53017
241.54        54.39103
242.00        55.11784
242.46         54.6001
242.91         52.2081
243.37        47.21992
243.83        40.17578
244.28         36.3072
244.74        40.48429
245.20        51.49602
245.66        61.57611
246.11        64.07314
246.57        58.21081
247.03        44.00439
247.48        24.97564
247.94        20.02649
248.40        31.34145
248.85        45.53723
249.31        55.77759
249.77        60.64853
250.22        61.61822
250.68        60.18038
251.14        57.28304
251.59        54.85195
252.05        54.24556
252.51        55.13777
252.96        55.98972
253.42        54.51118
253.88        50.59948
254.33        45.64853
254.79        42.72559
255.25        44.42907
255.70        50.05112
256.16        57.67922
256.62         64.1724
257.07        66.06559
257.53        63.64608
257.99        58.51079
258.44         53.0066
258.90        50.65417
259.35        50.92534
259.81        52.51182
260.27        53.59415
260.72        52.69971
261.18        50.25852
261.63        46.68033
262.09         43.3827
262.55        41.81641
263.00        42.00192
263.46        43.30697
263.91        44.42636
264.37        44.06141
264.83        42.20867
265.28        39.43196
265.74        36.93062
266.19        35.95327
266.65        36.64489
267.11        38.32977
267.56        40.11487
268.02        40.73225
268.47        39.96109
268.93        38.23771
269.38        36.12037
269.84        34.73608
270.30        34.37207
270.75        34.68792
271.21         35.1974
271.66        35.18806
272.12        34.48232
272.57        33.33598
273.03        32.13041
273.48        31.35236
273.94        31.15683
274.39        31.32322
274.85        31.56718
275.31        31.47013
275.76        30.93412
276.22        30.12651
276.67        29.27828
277.13        28.82063
277.58        28.76569
278.04        28.98388
278.49         29.1501
278.95        28.87076
279.40        28.07265
279.86        27.00054
280.31         25.8881
280.77        25.18855
281.22        24.91759
281.68        24.93691
282.13        25.04855
282.59        24.99516
283.04         24.7055
283.50        24.31043
283.95        23.84422
284.41        23.38176
284.86        22.94038
285.32         22.5041
285.77        22.13741
286.22        22.00929
286.68         22.1121
287.13        22.36706
287.59         22.5961
288.04        22.51784
288.50         22.1067
288.95        21.43174
289.41        20.68188
289.86        20.08495
290.32        19.75317
290.77        19.60352
291.22        19.57687
291.68        19.54724
292.13        19.48098
292.59        19.43011
293.04        19.42741
293.50        19.52879
293.95        19.73187
294.40        19.98878
294.86        20.25504
295.31        20.48187
295.77        20.65455
296.22        20.79641
296.68        20.91019
297.13        20.97489
297.58        21.01685
298.04        21.05935
298.49        21.16754
298.95         21.4725
299.40        21.97564
299.85        22.62417
300.31        23.31931
300.76        23.91332
301.21        24.36125
301.67        24.72755
302.12        25.01891
302.58        25.29019
303.03        25.55368
303.48         25.8053
303.94        26.12534
304.39        26.60712
304.84         27.2599
305.30        28.04195
305.75        28.81509
306.20        29.37723
306.66         29.7058
307.11        29.85349
307.57        29.94612
308.02        30.11686
308.47        30.42356
308.93        30.80841
309.38        31.23818
309.83        31.70564
310.29        32.18092
310.74        32.67229
311.19        33.09187
311.65        33.29621
312.10        33.26793
312.55         33.0502
313.00        32.79128
313.46        32.72495
313.91        32.88896
314.36        33.23427
314.82        33.62402
315.27        33.85068
315.72        33.84496
316.18        33.67768
316.63        33.44872
317.08        33.32014
317.53         33.3283
317.99        33.40973
318.44        33.48816
318.89        33.43257
319.35        33.21268
319.80        32.88359
320.25        32.51251
320.70        32.20243
321.16        31.98238
321.61        31.82354
322.06        31.69554
322.51        31.55266
322.97        31.36983
323.42        31.16929
323.87        30.94393
324.32        30.68526
324.78        30.39193
325.23        30.07368
325.68        29.74079
326.13        29.42043
326.59        29.12637
327.04        28.87887
327.49        28.67989
327.94        28.53092
328.39        28.42694
328.85        28.34574
329.30        28.31252
329.75        28.32557
330.20        28.36907
330.66        28.40969
331.11        28.41404
331.56         28.2802
332.01        27.98861
332.46        27.56648
332.92        27.08082
333.37        26.65481
333.82         26.3415
334.27        26.13857
334.72         26.0164
335.17        25.91529
335.63        25.80453
336.08         25.6963
336.53        25.63864
336.98        25.71849
337.43        25.93594
337.88        26.25975
338.34        26.50962
338.79        26.44445
339.24        26.00839
339.69        25.27509
340.14        24.51974
340.59        24.20516
341.05        24.42343
341.50        25.03945
341.95        25.74616
342.40         26.0641
342.85         25.8847
343.30        25.37153
343.75        24.74223
344.20        24.35405
344.66        24.30473
345.11        24.43859
345.56         24.6666
346.01        24.84982
346.46        24.92227
346.91        24.95537
347.36        24.87222
347.81        24.53692
348.26        23.96806
348.72        23.23672
349.17        22.53277
349.62        22.25707
350.07        22.48951
350.52        23.08915
350.97        23.82156
351.42        24.32984
351.87        24.50859
352.32        24.45418
352.77        24.23183
353.22        23.95442
353.67        23.67888
354.13        23.37995
354.58        23.08009
355.03        22.86012
355.48        22.73733
355.93         22.7153
356.38         22.7457
356.83        22.73488
357.28        22.65333
357.73        22.51149
358.18        22.34934
358.63        22.23877
359.08        22.19569
359.53        22.20032
359.98        22.18652
360.43         22.0553
360.88        21.79583
361.33        21.44359
361.78        21.10113
362.23        20.93308
362.68        20.96694
363.13        21.13813
363.58        21.32635
364.03        21.34829
364.48         21.1566
364.93        20.80603
365.38        20.37334
365.83        19.99256
366.28        19.71715
366.73        19.51449
367.18        19.36078
367.63        19.21641
368.08        19.06623
368.53        18.92948
368.98        18.81285
369.43        18.71613
369.88         18.6396
370.33        18.58183
370.78        18.52486
371.23        18.44668
371.68        18.34346
372.13        18.21191
372.58        18.09868
373.03        18.08295
373.48        18.16933
373.93        18.32549
374.38        18.45697
374.83        18.42054
375.28        18.19204
375.72         17.8117
376.17        17.39896
376.62        17.10642
377.07        16.98369
377.52        16.98519
377.97        17.05361
378.42        17.09795
378.87        17.08476
379.32         17.0382
379.77        16.97571
380.22        16.91899
380.67        16.87485
381.11        16.83725
381.56        16.77629
382.01         16.6661
382.46        16.50425
382.91        16.29693
383.36        16.10297
383.81        16.00635
384.26        16.01877
384.71         16.1241
385.15        16.22107
385.60        16.15707
386.05         15.9093
386.50        15.52412
386.95        15.14898
387.40        15.01591
387.85        15.16218
388.29        15.50463
388.74        15.86472
389.19        15.99072
389.64         15.8368
390.09        15.47886
390.54        15.07637
390.98        14.87868
391.43        14.95372
391.88        15.19916
392.33        15.45786
392.78        15.50657
393.23        15.31572
393.67        14.97015
394.12         14.6218
394.57        14.42163
395.02        14.40383
395.47        14.51316
395.91        14.67954
396.36        14.76555
396.81        14.73459
397.26        14.62521
397.71        14.50021
398.15        14.43833
398.60        14.47368
399.05        14.56519
399.50        14.65114
399.95        14.64698
400.39        14.53627
400.84        14.34506
401.29        14.14652
401.74        14.07299
402.18        14.16266
402.63        14.36572
403.08        14.58004
403.53        14.64165
403.97        14.51773
404.42        14.27104
404.87        14.00585
405.32        13.89457
405.76        13.97458
406.21        14.18136
406.66        14.42418
407.11        14.56246
407.55        14.55921
408.00        14.46587
408.45        14.32169
408.90        14.15879
409.34        14.02232
409.79        13.96525
410.24        13.97499
410.68        13.97337
411.13        13.95706
411.58        13.98318
412.03        14.02913
412.47         14.0333
412.92        13.98432
413.37        13.88999
413.81        13.80977
414.26        13.85069
414.71         14.0204
415.15        14.29217
415.60        14.54462
416.05        14.60295
416.49        14.42589
416.94        14.07714
417.39        13.68403
417.83        13.45161
418.28        13.44034
418.73        13.58266
419.17        13.78525
419.62        13.88913
420.07        13.85668
420.51        13.74005
420.96        13.59768
421.41         13.5005
421.85        13.46589
422.30        13.47426
422.74        13.50139
423.19        13.54129
423.64         13.5784
424.08        13.62301
424.53         13.6523
424.98        13.64923
425.42          13.614
425.87        13.55754
426.31        13.47897
426.76        13.38629
427.21        13.27833
427.65        13.14842
428.10        13.05063
428.54        13.05243
428.99        13.16281
429.44        13.41164
429.88        13.67297
430.33         13.6601
430.77        13.40841
431.22          13.215
431.66        13.14895
432.11        13.16659
432.56        13.26417
433.00        13.48633
433.45        13.68716
433.89        13.65234
434.34        13.46046
434.78        13.25563
435.23        13.02535
435.67        13.63203
436.12           13.17
436.57        13.06082
437.01        12.81611
437.46        12.71665
437.90        12.77962
438.35        12.88295
438.79         12.9759
439.24        13.03547
439.68        13.04333
440.13        12.90215
440.57        12.69671
441.02        12.76668
441.46        12.99685
441.91        12.98298
442.35        12.43706
442.80        12.25057
443.24        12.29545
443.69         12.2987
444.13        12.22773
444.58        12.17152
445.02        12.13019
445.47         12.1135
445.91        12.11155
446.36         12.0818
446.80        12.01719
447.24        11.94362
447.69        11.87766
448.13        11.81584
448.58        11.76853
449.02        11.73697
449.47        11.71269
449.91          11.676
450.36        11.62945
450.80        11.57537
451.25        11.54187
451.69        11.55879
452.13        11.63117
452.58        11.73632
453.02        11.84344
453.47        11.90297
453.91        11.90454
454.36         11.8626
454.80        11.78982
455.24        11.71041
455.69         11.6436
456.13         11.5732
456.58        11.52381
457.02        11.52358
457.46        11.57238
457.91         11.6344
458.35        11.68926
458.79        11.73078
459.24        11.74919
459.68        11.74343
460.13        11.75994
460.57        11.75563
461.01        11.72575
461.46        11.98591
461.90        12.05583
462.34        11.91691
462.79        11.96472
463.23        11.80408
463.68        11.66211
464.12        11.59209
464.56         11.7046
465.01        11.88922
465.45        12.07181
465.89        12.15748
466.34        12.13349
466.78        11.99464
467.22         11.8154
467.67        11.80018
468.11        11.93958
468.55        11.97931
468.99        11.91995
469.44        11.95761
469.88        12.09124
470.32        12.20354
470.77        12.26195
471.21        12.27975
471.65        12.25212
472.10        12.17672
472.54        12.08913
472.98        12.07886
473.42        12.15947
473.87        12.26989
474.31        12.37497
474.75        12.49253
475.20        12.58434
475.64        12.53198
476.08        12.39544
476.52        12.37678
476.97        12.49242
477.41        12.65212
477.85        12.80064
478.29        12.88645
478.74        12.89221
479.18        12.81333
479.62        12.71468
480.06        12.70006
480.50        12.77388
480.95         12.8471
481.39        12.88766
481.83        12.90891
482.27        12.90484
482.72        12.87033
483.16         12.8366
483.60        12.85638
484.04        12.93288
484.48        13.10875
484.93        13.40708
485.37        13.50377
485.81        13.44842
486.25        13.85852
486.69        14.25147
487.14        13.56569
487.58        13.70929
488.02         14.5914
488.46        14.07611
488.90        14.13677
489.34        14.00566
489.79        14.18536
490.23        14.57216
490.67        14.74214
491.11        14.68577
491.55        14.60271
491.99        14.54178
492.43        14.50209
492.88        14.50878
493.32        14.53945
493.76        14.60854
494.20         14.7532
494.64        14.97121
495.08        15.24215
495.52        15.51643
495.96        15.73138
496.41        15.87104
496.85        15.92001
497.29        15.92423
497.73        16.03724
498.17        16.25424
498.61        16.39234
499.05        16.44691
499.49         16.5774
499.93        16.78692
500.37         16.9385
500.82        17.04177
501.26        17.25296
501.70        17.53083
502.14        17.63363
502.58        17.57618
503.02        17.58633
503.46        17.67865
503.90        17.73014
504.34        17.73309
504.78        17.73403
505.22        17.73653
505.66        17.73483
506.10        17.74204
506.54        17.77498
506.98        17.83868
507.42        17.93299
507.86        18.04539
508.30        18.15339
508.74        18.24781
509.18        18.32731
509.62        18.40495
510.06        18.50315
510.50        18.62533
510.94        18.76692
511.38        18.89312
511.82        18.94862
512.26        18.92444
512.70        18.83587
513.14        18.74288
513.58        18.73708
514.02        18.83009
514.46        18.99609
514.90        19.16608
515.34        19.17279
515.78        19.01706
516.22        18.82171
516.66        18.68274
517.10         18.3994
517.54        17.99808
517.98        18.62635
518.42        18.53809
518.86        18.80442
519.30        18.88593
519.74        18.96143
520.18        19.01563
520.62         19.0017
521.06        18.93957
521.50        18.82532
521.93        18.69092
522.37        18.59936
522.81        18.56502
523.25        18.57438
523.69         18.6072
524.13        18.62914
524.57        18.62638
525.01        18.60537
525.45        18.56989
525.89        18.52572
526.32        18.47506
526.76        18.41854
527.20        18.34867
527.64        18.25863
528.08        18.15042
528.52        18.02727
528.96        17.91503
529.40        17.85018
529.83         17.8372
530.27        17.86971
530.71        17.90356
531.15        17.87014
531.59        17.75817
532.03         17.5887
532.46        17.41577
532.90        17.34036
533.34        17.37408
533.78        17.48285
534.22        17.60479
534.66        17.64484
535.09        17.57847
535.53        17.44397
535.97        17.28549
536.41        17.16976
536.85        17.11908
537.28        17.12164
537.72        17.16462
538.16        17.17386
538.60         17.2228
539.04        17.24769
539.47        17.27204
539.91        17.33731
540.35        17.45653
540.79        17.46708
541.22        17.58806
541.66        17.68607
542.10        17.83951
542.54        17.76335
542.97        17.93244
543.41         18.0238
543.85        18.16684
544.29        18.31308
544.72         18.4355
545.16         18.5463
545.60        18.63838
546.04        18.65431
546.47        18.65999
546.91         18.8774
547.35        19.26113
547.79        19.55561
548.22        19.71394
548.66        19.79815
549.10        19.84287
549.53        19.98966
549.97        20.25403
550.41        20.29028
550.84        20.47553
551.28        20.60394
551.72        20.80093
552.15        21.01422
552.59        21.23854
553.03        21.47989
553.46        21.69703
553.90        21.82564
554.34        21.89451
554.77        21.89055
555.21        21.86877
555.65        21.88796
556.08         21.9624
556.52        22.07428
556.96        22.20243
557.39        22.34269
557.83        22.47612
558.27        22.54983
558.70        22.57503
559.14        22.61365
559.57        22.66404
560.01        22.72269
560.45        22.76657
560.88        22.72986
561.32        22.66065
561.75        22.63691
562.19        22.75473
562.63        22.82005
563.06        22.86268
563.50        22.98012
563.93         23.1449
564.37        23.31947
564.80        23.38543
565.24        23.47001
565.68        23.53911
566.11         23.6152
566.55        23.72084
566.98         23.7921
567.42        23.82371
567.85        24.13447
568.29        24.08895
568.72        24.36689
569.16        24.71654
569.60         24.9565
570.03        25.05638
570.47        25.13452
570.90        25.08946
571.34         25.4152
571.77        25.30477
572.21        25.60145
572.64        25.67369
573.08        25.98955
573.51        26.14909
573.95        26.63961
574.38        26.83556
574.82        27.00447
