SpectraSmart Spectrum 2.9.0.0
--------- Device Information -----------
Spectrum Name :  反射率_0
Saving Time :  2024/04/20 00:15:24
Spectro-Module Model Name : SE2030-DUVN
Spectro-Module Serial Number : OS361AC55029948
Wavelength Start : 200
Wavelength End : 1025
Wavelength Unit : Wavelength(nm)
Spectrum Unit : Reflectance(%)
-----------Spectrum Setting ------------
Integration Time : 30ms
Average : 10
Boxcar : 0
Background removal :  enabled
linearity correction :  enabled
SC :  disabled
Intensity correction :  disabled
DWT denoise :  enabled
savitzky-golay :  disabled
FFT :  disabled
Running average :  disabled
Kalman :  disabled
High pass :  disabled
---------------BEGIN--------------------
Wavelength(nm)             Reflectance(%)
200.29               0
200.75        51.39161
201.21        49.06887
201.67        47.71898
202.13         49.2646
202.58         54.5871
203.04         63.8285
203.50        74.01342
203.96        77.12016
204.42        72.15431
204.88        63.99604
205.34         56.2531
205.80        50.17258
206.26        44.68641
206.72        37.88345
207.18        29.46133
207.64        23.66558
208.10         25.4222
208.55        34.08047
209.01        43.37101
209.47         48.3808
209.93        49.26741
210.39        47.64401
210.85        45.36091
211.31        44.58101
211.77        45.72968
212.23        48.46974
212.69        52.09939
213.14        53.71183
213.60        51.86148
214.06        49.10934
214.52        47.14835
214.98        46.91284
215.44        48.17256
215.90         50.2205
216.36        53.11557
216.81        56.52341
217.27        59.56557
217.73        62.26744
218.19        63.16376
218.65        60.20183
219.11        53.11136
219.57        41.89391
220.02        28.85748
220.48        20.83729
220.94        20.42384
221.40        26.73439
221.86        35.64026
222.32        40.40283
222.77        39.34996
223.23        34.57415
223.69        29.50258
224.15        28.94931
224.61        32.76101
225.06        38.21419
225.52        42.53114
225.98        43.57659
226.44        41.38201
226.90        36.95465
227.36        31.72156
227.81        28.22504
228.27         27.6316
228.73        28.97339
229.19        30.93562
229.65        31.96251
230.10        31.86888
230.56        31.16884
231.02        30.64613
231.48        31.22795
231.93        32.88596
232.39        35.17836
232.85        37.20177
233.31        37.61558
233.77        36.18438
234.22          33.337
234.68        30.08511
235.14        28.10637
235.60         27.9224
236.05        29.08587
236.51        30.76534
236.97        31.63231
237.43        31.31344
237.88        30.17562
238.34        28.61837
238.80        28.14752
239.26        29.62807
239.71        32.37907
240.17        35.68362
240.63        39.07364
241.08        42.34129
241.54        45.57132
242.00        47.86639
242.46        47.45076
242.91        43.33989
243.37        34.25587
243.83        20.34222
244.28        9.145746
244.74        9.631209
245.20        22.07555
245.66        36.33783
246.11        42.32511
246.57        39.09203
247.03        27.82583
247.48        13.00832
247.94        13.19332
248.40          27.929
248.85        43.35788
249.31        53.70922
249.77        58.41682
250.22         59.1039
250.68        57.19711
251.14        53.46865
251.59        49.55369
252.05        46.89093
252.51        45.43951
252.96        44.30764
253.42        42.16499
253.88        39.05588
254.33        35.90567
254.79        35.05883
255.25        38.46957
255.70        45.28096
256.16         53.6515
256.62        60.47038
257.07        62.32148
257.53        59.55432
257.99        53.84734
258.44        47.64363
258.90        44.60477
259.35        44.34896
259.81        45.52455
260.27        46.35484
260.72        45.37223
261.18        42.93975
261.63        39.50174
262.09        36.37487
262.55        34.90707
263.00        35.13512
263.46        36.43998
263.91        37.65138
264.37        37.59483
264.83        36.24097
265.28        34.04589
265.74        32.05649
266.19        31.34696
266.65         32.0315
267.11        33.53507
267.56        35.03148
268.02          35.321
268.47        34.22722
268.93        32.16992
269.38        29.77054
269.84        28.26797
270.30        27.96685
270.75        28.49479
271.21        29.26831
271.66        29.42686
272.12        28.75184
272.57        27.54305
273.03        26.21726
273.48        25.33322
273.94        25.06681
274.39        25.17498
274.85        25.38152
275.31        25.29478
275.76        24.81774
276.22        24.11435
276.67        23.37384
277.13        22.94471
277.58         22.8413
278.04        22.95496
278.49         23.0389
278.95        22.79584
279.40        22.16774
279.86        21.34382
280.31        20.49411
280.77        19.96464
281.22        19.76324
281.68        19.78967
282.13        19.89283
282.59        19.87168
283.04         19.6768
283.50        19.40731
283.95        19.10239
284.41        18.83502
284.86        18.61965
285.32        18.44036
285.77        18.32509
286.22        18.37679
286.68        18.57958
287.13        18.87863
287.59        19.15503
288.04        19.22646
288.50        19.07991
288.95        18.75387
289.41        18.37441
289.86        18.06822
290.32        17.92214
290.77        17.89169
291.22        17.96292
291.68        18.07882
292.13        18.22693
292.59        18.43244
293.04        18.71597
293.50        19.11505
293.95        19.61606
294.40        20.17793
294.86         20.7429
295.31        21.23898
295.77        21.64928
296.22        22.00157
296.68        22.31686
297.13        22.60625
297.58        22.90136
298.04        23.21269
298.49          23.587
298.95        24.12891
299.40         24.8297
299.85        25.64229
300.31         26.4723
300.76        27.17706
301.21        27.71305
301.67        28.13995
302.12        28.46292
302.58        28.74228
303.03        28.98838
303.48        29.20122
303.94        29.45419
304.39        29.82635
304.84        30.32822
305.30        30.92322
305.75        31.49171
306.20        31.86288
306.66        32.02076
307.11        32.00976
307.57        31.93371
308.02        31.88683
308.47        31.92388
308.93        32.00477
309.38        32.12317
309.83        32.31352
310.29        32.55518
310.74        32.84082
311.19        33.06887
311.65        33.07429
312.10        32.83448
312.55        32.40575
313.00        31.93318
313.46        31.64237
313.91        31.57276
314.36         31.6748
314.82        31.84132
315.27         31.9154
315.72        31.83861
316.18        31.66918
316.63        31.45965
317.08        31.29593
317.53        31.19744
317.99        31.11891
318.44        31.03403
318.89        30.89757
319.35        30.69768
319.80        30.45917
320.25        30.19187
320.70        29.90746
321.16        29.61331
321.61        29.31123
322.06        29.01919
322.51        28.76993
322.97        28.56245
323.42        28.39249
323.87        28.22573
324.32        28.00935
324.78        27.72597
325.23        27.39934
325.68        27.04642
326.13        26.70195
326.59          26.387
327.04        26.11878
327.49        25.90351
327.94         25.7523
328.39        25.66114
328.85        25.60301
329.30        25.60552
329.75        25.67311
330.20        25.78568
330.66        25.90941
331.11        25.97669
331.56        25.83401
332.01        25.45496
332.46        24.87951
332.92         24.2343
333.37        23.74284
333.82        23.48455
334.27        23.42989
334.72        23.48214
335.17        23.46089
335.63        23.30272
336.08        23.05887
336.53        22.83099
336.98        22.79632
337.43        22.98382
337.88        23.32529
338.34        23.63127
338.79        23.64622
339.24        23.29938
339.69        22.67567
340.14         22.0005
340.59        21.65077
341.05        21.71027
341.50          22.071
341.95        22.52005
342.40         22.7247
342.85        22.60338
343.30        22.27466
343.75        21.86583
344.20        21.58304
344.66        21.48359
345.11        21.46101
345.56        21.49131
346.01        21.54005
346.46        21.57345
346.91        21.62657
347.36        21.59314
347.81        21.29577
348.26        20.73766
348.72        20.00679
349.17        19.29638
349.62        19.00921
350.07        19.22871
350.52        19.81152
350.97        20.52552
351.42        21.02042
351.87        21.19343
352.32        21.14069
352.77        20.93176
353.22        20.68461
353.67        20.45471
354.13        20.21292
354.58        19.97101
355.03        19.79239
355.48         19.6894
355.93        19.66849
356.38        19.69207
356.83        19.68318
357.28         19.6194
357.73        19.51267
358.18         19.3909
358.63        19.30608
359.08        19.26928
359.53        19.26033
359.98        19.24222
360.43        19.16109
360.88        19.00782
361.33        18.80196
361.78        18.58488
362.23        18.42437
362.68        18.33258
363.13         18.2793
363.58        18.22548
364.03        18.11051
364.48        17.91773
364.93        17.67373
365.38        17.38882
365.83         17.0814
366.28        16.77633
366.73         16.4792
367.18         16.2346
367.63        16.10923
368.08        16.10451
368.53        16.18962
368.98        16.30552
369.43        16.35806
369.88        16.32212
370.33        16.22798
370.78        16.08683
371.23        15.92486
371.68        15.76099
372.13        15.57967
372.58        15.43369
373.03        15.41277
373.48        15.52101
373.93        15.72689
374.38        15.92083
374.83         15.9323
375.28        15.72933
375.72        15.35653
376.17        14.93962
376.62        14.64322
377.07        14.52338
377.52         14.5342
377.97        14.61753
378.42        14.68196
378.87        14.69293
379.32        14.67103
379.77        14.64257
380.22        14.64235
380.67        14.67603
381.11        14.73356
381.56        14.75422
382.01        14.66091
382.46        14.44238
382.91        14.12039
383.36        13.80412
383.81        13.65444
384.26        13.69967
384.71        13.90454
385.15        14.11693
385.60        14.10213
386.05        13.82239
386.50        13.35067
386.95        12.88789
387.40        12.75043
387.85        12.98611
388.29        13.47159
388.74        13.97233
389.19         14.1646
389.64        13.98813
390.09        13.54953
390.54        13.03212
390.98        12.72391
391.43        12.71234
391.88         12.8864
392.33        13.10367
392.78        13.16205
393.23        13.02581
393.67        12.76957
394.12         12.5093
394.57        12.35147
395.02        12.32122
395.47        12.37472
395.91        12.46071
396.36        12.48166
396.81          12.416
397.26        12.29334
397.71        12.16748
398.15        12.10409
398.60        12.13038
399.05        12.21199
399.50        12.29144
399.95        12.28866
400.39        12.18673
400.84        12.00882
401.29        11.81973
401.74        11.73905
402.18        11.80261
402.63        11.96561
403.08        12.13836
403.53        12.17582
403.97        12.04903
404.42        11.81458
404.87        11.56722
405.32        11.46249
405.76        11.53512
406.21        11.72859
406.66        11.95787
407.11        12.09131
407.55        12.09433
408.00        12.01077
408.45        11.88533
408.90        11.76597
409.34        11.69111
409.79         11.6944
410.24        11.74318
410.68        11.73976
411.13         11.6768
411.58        11.61545
412.03        11.55803
412.47        11.49005
412.92        11.41636
413.37        11.33401
413.81        11.28458
414.26        11.34438
414.71          11.513
415.15        11.77288
415.60        12.01601
416.05        12.08666
416.49        11.94753
416.94        11.65338
417.39        11.31583
417.83        11.11852
418.28        11.11461
418.73        11.23979
419.17        11.41457
419.62        11.50093
420.07        11.46569
420.51        11.35609
420.96        11.21255
421.41        11.07899
421.85        10.97464
422.30        10.89651
422.74        10.84681
423.19        10.85316
423.64        10.90897
424.08        11.01108
424.53        11.12968
424.98        11.22902
425.42        11.29311
425.87        11.33067
426.31        11.32519
426.76        11.26535
427.21        11.14858
427.65        10.97243
428.10        10.80637
428.54        10.74972
428.99        10.82468
429.44        11.04819
429.88        11.29787
430.33        11.30504
430.77         11.0927
431.22        10.91515
431.66        10.84436
432.11        10.86802
432.56        10.98794
433.00        11.23489
433.45        11.46405
433.89        11.45388
434.34        11.26045
434.78         11.0215
435.23        10.76077
435.67        11.23243
436.12        10.87425
436.57        10.84345
437.01        10.71252
437.46        10.67396
437.90        10.73066
438.35        10.79468
438.79        10.83774
439.24        10.86475
439.68        10.86638
440.13        10.74835
440.57        10.57992
441.02         10.6425
441.46        10.83704
441.91        10.83147
442.35        10.36905
442.80        10.17091
443.24        10.12857
443.69        10.02515
444.13        9.866137
444.58        9.777177
445.02        9.767573
445.47        9.827948
445.91         9.91678
446.36        9.945045
446.80        9.890749
447.24        9.790788
447.69        9.679005
448.13        9.582934
448.58        9.521257
449.02        9.485025
449.47        9.459988
449.91        9.419199
450.36        9.363017
450.80        9.300506
451.25        9.260879
451.69        9.275294
452.13        9.348749
452.58        9.455694
453.02        9.568098
453.47        9.639783
453.91        9.660154
454.36        9.642574
454.80        9.590916
455.24        9.515868
455.69        9.433719
456.13        9.334884
456.58        9.255287
457.02        9.240676
457.46        9.294433
457.91        9.380554
458.35        9.466779
458.79        9.520468
459.24        9.530315
459.68        9.504921
460.13         9.49735
460.57        9.495346
461.01        9.499571
461.46        9.751442
461.90        9.854592
462.34        9.779243
462.79        9.845114
463.23        9.733904
463.68         9.62118
464.12        9.530286
464.56        9.557503
465.01        9.623215
465.45        9.700019
465.89        9.754383
466.34        9.779989
466.78        9.756543
467.22        9.714999
467.67        9.775253
468.11        9.914108
468.55        9.933104
468.99        9.845758
469.44        9.836769
469.88        9.914762
470.32        9.977213
470.77        9.999347
471.21        9.996907
471.65        9.965467
472.10        9.904887
472.54        9.841626
472.98        9.844095
473.42        9.921211
473.87        10.02367
474.31        10.11812
474.75         10.2114
475.20        10.27229
475.64        10.20571
476.08        10.07332
476.52        10.05924
476.97        10.17949
477.41        10.35572
477.85        10.52604
478.29        10.62001
478.74        10.61682
479.18        10.52067
479.62        10.40215
480.06        10.37379
480.50        10.44393
480.95        10.52811
481.39         10.5859
481.83        10.60827
482.27        10.58559
482.72        10.52133
483.16        10.44957
483.60        10.43313
484.04        10.47987
484.48        10.61877
484.93        10.86815
485.37        10.99672
485.81          11.005
486.25        11.44625
486.69        11.45634
487.14        11.06807
487.58         11.4248
488.02        12.11032
488.46        11.69227
488.90        11.68568
489.34        11.63398
489.79        11.74782
490.23         11.9759
490.67        12.14012
491.11        12.20389
491.55        12.16912
491.99        12.07012
492.43        12.02108
492.88        12.04673
493.32        12.05664
493.76        12.07962
494.20        12.21076
494.64        12.45382
495.08        12.76756
495.52        13.09466
495.96        13.35873
496.41        13.53617
496.85        13.62251
497.29        13.64989
497.73        13.73899
498.17        13.88779
498.61        13.94263
499.05        13.92622
499.49        14.01735
499.93        14.22805
500.37        14.43176
500.82        14.60443
501.26         14.8292
501.70        15.05853
502.14        15.09906
502.58         14.9907
503.02        14.97108
503.46        15.06198
503.90        15.14289
504.34        15.18759
504.78        15.20451
505.22        15.18911
505.66        15.15146
506.10        15.11341
506.54        15.10464
506.98        15.13698
507.42         15.2041
507.86        15.30289
508.30        15.42731
508.74        15.56676
509.18        15.71337
509.62         15.8553
510.06        15.97439
510.50        16.06627
510.94        16.13993
511.38        16.18412
511.82        16.18394
512.26        16.14339
512.70        16.06513
513.14        16.00109
513.58        16.02976
514.02        16.15502
514.46        16.35464
514.90        16.54978
515.34        16.55943
515.78        16.37571
516.22        16.13446
516.66        15.94674
517.10        15.63006
517.54        15.21766
517.98         15.8892
518.42        15.82842
518.86        16.12327
519.30        16.21029
519.74        16.27993
520.18        16.32082
520.62        16.29145
521.06         16.2153
521.50        16.08594
521.93        15.93626
522.37        15.83187
522.81         15.7879
523.25        15.79128
523.69         15.8223
524.13        15.84615
524.57        15.84865
525.01        15.83665
525.45        15.81103
525.89         15.7731
526.32        15.72426
526.76        15.66538
527.20        15.59406
527.64        15.51204
528.08        15.42197
528.52        15.32334
528.96        15.23377
529.40        15.17732
529.83        15.15629
530.27        15.16814
530.71        15.17649
531.15        15.12438
531.59        15.00469
532.03        14.83617
532.46        14.66891
532.90        14.59667
533.34        14.62862
533.78        14.73083
534.22        14.84639
534.66        14.88748
535.09        14.83074
535.53        14.71303
535.97        14.56644
536.41        14.43913
536.85        14.35245
537.28        14.30035
537.72        14.29276
538.16         14.3001
538.60        14.38733
539.04        14.48866
539.47        14.59708
539.91        14.70615
540.35        14.81653
540.79        14.80229
541.22        14.86537
541.66        14.91818
542.10        15.03596
542.54        14.97108
542.97        15.11954
543.41         15.2032
543.85        15.32897
544.29         15.4604
544.72        15.57563
545.16        15.68449
545.60        15.78107
546.04        15.81508
546.47        15.84096
546.91        16.04703
547.35        16.39289
547.79        16.65863
548.22        16.80467
548.66        16.88398
549.10        16.92755
549.53        17.05917
549.97        17.28813
550.41        17.31093
550.84        17.45042
551.28        17.53445
551.72        17.68777
552.15        17.89664
552.59        18.15848
553.03        18.46176
553.46        18.74215
553.90        18.91918
554.34        18.97929
554.77        18.95077
555.21        18.89283
555.65        18.89054
556.08        18.96564
556.52        19.09078
556.96        19.24214
557.39        19.40751
557.83         19.5654
558.27        19.67418
558.70         19.7331
559.14        19.77784
559.57        19.80716
560.01        19.82423
560.45        19.82909
560.88        19.79903
561.32        19.78219
561.75        19.82709
562.19        20.00078
562.63        20.12134
563.06        20.19812
563.50        20.28959
563.93        20.38847
564.37        20.51944
564.80        20.58674
565.24        20.67511
565.68        20.74879
566.11        20.82576
566.55        20.92283
566.98        20.99349
567.42        21.03632
567.85          21.314
568.29        21.27617
568.72         21.5697
569.16        21.95011
569.60        22.18589
570.03         22.2501
570.47        22.26977
570.90        22.17431
571.34        22.46312
571.77        22.43849
572.21        22.65046
572.64        22.81303
573.08        23.09875
573.51        23.28938
573.95        23.56252
574.38        23.63254
574.82        23.70523
