SpectraSmart Spectrum 2.9.0.0
--------- Device Information -----------
Spectrum Name :  反射率_0
Saving Time :  2024/04/20 00:34:52
Spectro-Module Model Name : SE2030-DUVN
Spectro-Module Serial Number : OS361AC55029948
Wavelength Start : 200
Wavelength End : 1025
Wavelength Unit : Wavelength(nm)
Spectrum Unit : Reflectance(%)
-----------Spectrum Setting ------------
Integration Time : 30ms
Average : 10
Boxcar : 0
Background removal :  enabled
linearity correction :  enabled
SC :  disabled
Intensity correction :  disabled
DWT denoise :  enabled
savitzky-golay :  disabled
FFT :  disabled
Running average :  disabled
Kalman :  disabled
High pass :  disabled
---------------BEGIN--------------------
Wavelength(nm)             Reflectance(%)
200.29               0
200.75        54.85101
201.21          55.681
201.67         58.3051
202.13        61.70874
202.58        65.13351
203.04         68.9361
203.50        72.19353
203.96        72.45145
204.42        69.86873
204.88        66.05853
205.34        62.37551
205.80        59.17297
206.26          55.811
206.72        51.31598
207.18         45.3278
207.64        40.27117
208.10        39.62896
208.55        43.53213
209.01        48.37143
209.47         51.4068
209.93        52.47152
210.39        52.36859
210.85        51.82676
211.31        51.73878
211.77        52.24881
212.23         53.1116
212.69        53.91771
213.14        53.62934
213.60        51.93071
214.06         50.4657
214.52        49.61796
214.98        49.46298
215.44        49.81462
215.90        50.13557
216.36         51.1253
216.81        53.99142
217.27        58.42188
217.73        63.92334
218.19         67.6299
218.65        65.67735
219.11        57.53271
219.57        43.56374
220.02        27.49194
220.48        19.19742
220.94        22.31619
221.40        34.89524
221.86        50.47162
222.32        58.89954
222.77        57.75669
223.23        50.43989
223.69        41.72215
224.15        38.42881
224.61        41.03457
225.06        46.08773
225.52        50.61006
225.98        52.26308
226.44        51.00101
226.90        48.00931
227.36        44.36927
227.81        41.86463
228.27        41.40746
228.73        42.10816
229.19        43.29394
229.65        44.22856
230.10        44.69262
230.56         44.9566
231.02        45.07467
231.48        45.08018
231.93        44.96936
232.39        44.71604
232.85        44.28453
233.31         43.6816
233.77        42.93631
234.22        42.06723
234.68        41.20627
235.14        40.47538
235.60        39.94804
236.05        39.63616
236.51        39.50124
236.97        39.42817
237.43        39.41123
237.88        39.61799
238.34        40.01608
238.80         40.7153
239.26        41.62561
239.71        42.48604
240.17        43.31969
240.63        44.72867
241.08        46.86581
241.54        49.56992
242.00        51.87207
242.46        51.90978
242.91        48.73851
243.37        41.42324
243.83         30.5802
244.28         23.6151
244.74        28.00594
245.20        42.43123
245.66        56.86573
246.11        62.65583
246.57        59.18357
247.03        47.29649
247.48        30.29144
247.94        25.65805
248.40        35.65246
248.85        47.99606
249.31        56.89062
249.77        61.26272
250.22        62.39013
250.68        61.75862
251.14        59.80237
251.59        57.22443
252.05        54.86216
252.51        52.50498
252.96        50.28041
253.42        48.80446
253.88        48.21337
254.33        48.45267
254.79        49.85018
255.25        52.27463
255.70        55.34375
256.16        58.65213
256.62        61.15391
257.07        61.71051
257.53        60.52803
257.99        57.99258
258.44        54.99168
258.90        53.35253
259.35        52.72962
259.81        52.86828
260.27         52.6847
260.72        51.24252
261.18        48.87043
261.63        45.67152
262.09        42.78765
262.55        41.33404
263.00        41.31118
263.46         42.2719
263.91        43.08088
264.37        42.60986
264.83        40.85937
265.28        38.29013
265.74        36.01464
266.19        35.18757
266.65        35.91697
267.11        37.55204
267.56         39.2215
268.02        39.67352
268.47        38.70358
268.93        36.76696
269.38        34.40092
269.84        32.70758
270.30        32.00227
270.75         31.9698
271.21        32.25222
271.66        32.32037
272.12        31.99194
272.57        31.43538
273.03        30.81907
273.48        30.30066
273.94        29.96585
274.39        29.71336
274.85        29.42514
275.31        28.92747
275.76        28.19243
276.22        27.31367
276.67        26.47955
277.13         26.0503
277.58        26.01715
278.04        26.27965
278.49        26.51042
278.95        26.29554
279.40        25.56017
279.86        24.53544
280.31          23.472
280.77         22.8455
281.22        22.67964
281.68        22.83292
282.13        23.08135
282.59        23.12374
283.04        22.88503
283.50        22.50108
283.95        22.06187
284.41        21.72051
284.86        21.50023
285.32        21.35577
285.77        21.26407
286.22        21.25706
286.68        21.31345
287.13        21.41445
287.59        21.48761
288.04        21.40686
288.50        21.17354
288.95        20.79985
289.41        20.40347
289.86        20.09635
290.32        19.95533
290.77        19.94132
291.22        20.01336
291.68        20.07289
292.13        20.10392
292.59        20.14384
293.04        20.26139
293.50        20.57327
293.95        21.07889
294.40        21.71309
294.86        22.36334
295.31         22.8698
295.77        23.19554
296.22        23.39565
296.68        23.53916
297.13        23.71614
297.58        23.97949
298.04         24.3136
298.49        24.72796
298.95        25.27036
299.40        25.91664
299.85        26.64102
300.31        27.37335
300.76        28.00462
301.21        28.50126
301.67        28.91051
302.12        29.22197
302.58         29.4772
303.03        29.67912
303.48        29.83097
303.94        30.01758
304.39        30.33433
304.84         30.7937
305.30        31.35467
305.75        31.87667
306.20        32.15749
306.66        32.18187
307.11        32.01171
307.57        31.78662
308.02        31.65278
308.47        31.67469
308.93        31.79387
309.38        31.97533
309.83        32.20896
310.29        32.46026
310.74        32.73299
311.19        32.93531
311.65        32.91953
312.10        32.66626
312.55        32.22024
313.00        31.72329
313.46        31.39789
313.91        31.28314
314.36        31.33752
314.82        31.44806
315.27        31.44697
315.72        31.28012
316.18        31.01161
316.63        30.72329
317.08        30.54304
317.53        30.49572
317.99        30.52457
318.44        30.56265
318.89        30.49681
319.35        30.29826
319.80        30.00871
320.25        29.68071
320.70        29.39725
321.16        29.18093
321.61         29.0079
322.06        28.85335
322.51        28.68099
322.97        28.47085
323.42        28.24209
323.87        27.99136
324.32         27.7154
324.78        27.41457
325.23        27.09838
325.68        26.77237
326.13        26.45242
326.59         26.1516
327.04         25.8941
327.49        25.68912
327.94         25.5501
328.39        25.47391
328.85        25.43144
329.30        25.44592
329.75        25.51621
330.20        25.62368
330.66        25.74045
331.11         25.8103
331.56        25.69688
332.01        25.37868
332.46        24.89046
332.92        24.35222
333.37        23.97541
333.82        23.83064
334.27        23.88589
334.72        24.03618
335.17        24.09011
335.63        23.97889
336.08        23.75305
336.53         23.5184
336.98        23.46157
337.43        23.62061
337.88        23.93598
338.34        24.22192
338.79        24.22563
339.24        23.88007
339.69        23.26859
340.14        22.63347
340.59        22.37718
341.05        22.57716
341.50        23.10629
341.95         23.7037
342.40        23.96728
342.85        23.80356
343.30         23.3549
343.75        22.79057
344.20        22.38749
344.66        22.22886
345.11        22.19283
345.56        22.24454
346.01        22.32832
346.46        22.40078
346.91        22.50572
347.36        22.53052
347.81        22.28601
348.26        21.77229
348.72        21.07416
349.17        20.39139
349.62        20.14033
350.07        20.40623
350.52        21.04136
350.97        21.80112
351.42        22.31835
351.87        22.48611
352.32         22.4018
352.77         22.1528
353.22        21.88518
353.67        21.65962
354.13        21.44325
354.58        21.21705
355.03        20.99459
355.48        20.78679
355.93        20.62418
356.38        20.51925
356.83        20.47339
357.28          20.477
357.73        20.50676
358.18        20.54933
358.63        20.58822
359.08        20.60627
359.53         20.6043
359.98        20.53893
360.43        20.34708
360.88        20.03372
361.33         19.6288
361.78        19.22881
362.23        18.99149
362.68        18.94852
363.13        19.04397
363.58        19.18555
364.03        19.22766
364.48        19.12574
364.93        18.92139
365.38        18.64264
365.83         18.3424
366.28        18.05288
366.73        17.76172
367.18        17.49689
367.63        17.30341
368.08        17.18516
368.53        17.13372
368.98        17.11153
369.43        17.05085
369.88         16.9365
370.33        16.79119
370.78          16.631
371.23        16.48899
371.68        16.37908
372.13        16.28098
372.58        16.21826
373.03        16.23227
373.48        16.31584
373.93        16.45033
374.38        16.55677
374.83        16.51348
375.28        16.30237
375.72        15.95578
376.17        15.58289
376.62        15.32117
377.07        15.21564
377.52        15.22488
377.97        15.30074
378.42        15.36643
378.87        15.38879
379.32        15.38344
379.77        15.35574
380.22        15.31018
380.67        15.25081
381.11         15.1802
381.56        15.07618
382.01        14.92451
382.46        14.73106
382.91        14.50176
383.36        14.30199
383.81        14.22549
384.26        14.28113
384.71        14.44415
385.15        14.60245
385.60        14.58484
386.05        14.36337
386.50        13.99216
386.95        13.61105
387.40        13.44247
387.85        13.52834
388.29        13.78981
388.74        14.08037
389.19        14.19708
389.64        14.09794
390.09        13.84522
390.54        13.54983
390.98         13.3816
391.43        13.39569
391.88         13.5218
392.33        13.65774
392.78         13.6604
393.23        13.51052
393.67        13.25762
394.12        13.01359
394.57        12.88159
395.02         12.8829
395.47        12.98079
395.91        13.10765
396.36         13.1325
396.81        13.02852
397.26        12.83428
397.71        12.63566
398.15        12.54632
398.60        12.60082
399.05        12.74864
399.50        12.89996
399.95        12.92777
400.39        12.80614
400.84        12.57164
401.29        12.31636
401.74        12.20888
402.18        12.29767
402.63         12.5194
403.08        12.75482
403.53        12.81486
403.97        12.66085
404.42         12.3668
404.87        12.04679
405.32        11.88636
405.76        11.93139
406.21        12.11647
406.66        12.35225
407.11        12.50097
407.55        12.52418
408.00        12.46834
408.45         12.3742
408.90        12.27918
409.34        12.21862
409.79        12.22988
410.24        12.28224
410.68        12.27996
411.13        12.21902
411.58        12.16261
412.03        12.11546
412.47         12.0667
412.92        12.01927
413.37        11.96455
413.81        11.94341
414.26        12.03138
414.71        12.22605
415.15        12.51263
415.60        12.76646
416.05        12.80571
416.49         12.5923
416.94        12.18999
417.39        11.75042
417.83        11.52032
418.28         11.5643
418.73        11.79906
419.17        12.09716
419.62        12.24404
420.07        12.19128
420.51        12.01352
420.96         11.7902
421.41        11.62712
421.85        11.55594
422.30        11.54418
422.74        11.57471
423.19        11.65047
423.64        11.75363
424.08        11.89321
424.53        12.02003
424.98        12.06485
425.42        12.01284
425.87        11.88603
426.31        11.71953
426.76        11.57976
427.21        11.48042
427.65        11.40065
428.10        11.36371
428.54        11.38448
428.99          11.461
429.44        11.63925
429.88        11.82941
430.33        11.80823
430.77        11.61107
431.22        11.48051
431.66        11.47123
432.11        11.53908
432.56        11.67561
433.00        11.92466
433.45        12.14373
433.89        12.11736
434.34        11.91247
434.78        11.66658
435.23        11.39751
435.67        11.89582
436.12         11.5045
436.57         11.4534
437.01        11.29377
437.46        11.23416
437.90         11.2791
438.35        11.33351
438.79        11.36762
439.24        11.38529
439.68        11.37792
440.13        11.25211
440.57        11.07745
441.02        11.14345
441.46        11.34698
441.91        11.33912
442.35        10.86491
442.80        10.69989
443.24        10.73007
443.69         10.7154
444.13        10.63283
444.58        10.57091
445.02        10.53112
445.47        10.52178
445.91        10.52101
446.36        10.47017
446.80        10.36254
447.24        10.23053
447.69        10.11345
448.13        10.04541
448.58        10.04087
449.02        10.08497
449.47        10.14549
449.91        10.16548
450.36        10.13465
450.80        10.06699
451.25        9.996768
451.69         9.96498
452.13        9.985345
452.58        10.03551
453.02        10.09568
453.47        10.13202
453.91        10.13711
454.36        10.12078
454.80        10.08916
455.24         10.0534
455.69        10.02382
456.13        9.986255
456.58        9.955463
457.02        9.947704
457.46        9.964486
457.91        9.979286
458.35        9.987698
458.79        10.00204
459.24         10.0193
459.68        10.03361
460.13         10.0795
460.57        10.10899
461.01        10.11338
461.46        10.36462
461.90        10.44968
462.34        10.35203
462.79        10.41507
463.23        10.29355
463.68        10.17968
464.12        10.11039
464.56        10.18454
465.01        10.31302
465.45        10.44323
465.89        10.50714
466.34        10.49572
466.78        10.39803
467.22        10.27464
467.67          10.297
468.11        10.45226
468.55        10.51907
468.99        10.48691
469.44        10.51227
469.88        10.59437
470.32        10.63673
470.77        10.62923
471.21        10.61353
471.65        10.59187
472.10        10.55318
472.54        10.51745
472.98        10.54527
473.42        10.64084
473.87        10.75562
474.31        10.85395
474.75        10.94331
475.20        10.99155
475.64        10.89737
476.08        10.73062
476.52        10.69322
476.97        10.80423
477.41        10.98036
477.85        11.15523
478.29        11.25224
478.74        11.24799
479.18        11.14627
479.62        11.02275
480.06        10.99748
480.50        11.07838
480.95        11.17638
481.39        11.24263
481.83        11.25579
482.27        11.20657
482.72        11.10862
483.16        11.00625
483.60        10.96966
484.04        11.00582
484.48        11.15144
484.93        11.41884
485.37        11.53032
485.81        11.51682
486.25         12.0187
486.69        12.21643
487.14        11.83072
487.58        11.60613
488.02        12.51825
488.46        12.22132
488.90        12.33155
489.34        12.06486
489.79        12.14142
490.23        12.50554
490.67        12.68895
491.11        12.66359
491.55        12.54883
491.99         12.4013
492.43        12.32785
492.88        12.36084
493.32        12.40871
493.76        12.47876
494.20        12.63124
494.64        12.86072
495.08        13.13621
495.52        13.41084
495.96        13.62694
496.41        13.76795
496.85        13.82179
497.29        13.82443
497.73        13.90409
498.17        14.05797
498.61        14.13028
499.05        14.13041
499.49        14.21873
499.93         14.4019
500.37        14.55144
500.82         14.6652
501.26        14.86743
501.70        15.11683
502.14         15.2036
502.58        15.14603
503.02        15.15207
503.46         15.2358
503.90        15.28682
504.34         15.2908
504.78        15.27577
505.22        15.24497
505.66        15.20228
506.10        15.17024
506.54        15.18013
506.98        15.24106
507.42        15.34533
507.86        15.48078
508.30        15.62578
508.74         15.7656
509.18          15.896
509.62        16.01061
510.06        16.10156
510.50        16.16871
510.94         16.2188
511.38        16.24335
511.82        16.23112
512.26        16.18707
512.70        16.11549
513.14        16.06197
513.58        16.09374
514.02        16.21225
514.46        16.39642
514.90        16.57772
515.34        16.59251
515.78        16.43509
516.22        16.23484
516.66        16.08558
517.10         15.7782
517.54         15.3407
517.98        15.96076
518.42         15.8433
518.86        16.10541
519.30        16.19189
519.74        16.28417
520.18        16.35773
520.62        16.34988
521.06        16.27769
521.50        16.14134
521.93        15.98037
522.37        15.87078
522.81        15.83057
523.25        15.84181
523.69        15.88059
524.13        15.90678
524.57        15.90475
525.01        15.88394
525.45        15.84811
525.89        15.80228
526.32        15.74967
526.76        15.69099
527.20         15.6223
527.64        15.54293
528.08         15.4549
528.52        15.35778
528.96        15.27291
529.40         15.2299
529.83        15.23138
530.27        15.27331
530.71        15.31107
531.15        15.27471
531.59        15.15517
532.03         14.9753
532.46        14.79699
532.90        14.73281
533.34        14.79509
533.78        14.94272
534.22        15.10582
534.66         15.1771
535.09        15.12771
535.53        14.99954
535.97        14.83366
536.41        14.69223
536.85        14.60126
537.28        14.55249
537.72        14.54813
538.16        14.54574
538.60        14.61023
539.04        14.67934
539.47        14.76026
539.91        14.86776
540.35        15.00427
540.79        15.03274
541.22        15.13869
541.66        15.20352
542.10        15.29789
542.54        15.18206
542.97        15.27295
543.41        15.31185
543.85        15.41549
544.29         15.5399
544.72        15.66231
545.16        15.79116
545.60        15.91684
546.04        15.98874
546.47        16.05077
546.91        16.27523
547.35        16.61781
547.79        16.86037
548.22        16.97504
548.66        17.03519
549.10        17.07595
549.53         17.2149
549.97        17.45581
550.41        17.48275
550.84        17.61777
551.28        17.69144
551.72        17.82701
552.15        18.00557
552.59         18.2271
553.03        18.48368
553.46        18.72159
553.90        18.87654
554.34        18.93692
554.77        18.92424
555.21         18.8896
555.65        18.90444
556.08        18.98558
556.52        19.11057
556.96         19.2531
557.39        19.39746
557.83        19.52422
558.27        19.59282
558.70        19.61616
559.14        19.65169
559.57        19.70049
560.01        19.75757
560.45        19.80542
560.88        19.79317
561.32        19.76317
561.75         19.7747
562.19         19.9058
562.63        19.99284
563.06         20.0519
563.50        20.13515
563.93        20.23586
564.37        20.37997
564.80        20.46906
565.24        20.58486
565.68         20.6829
566.11        20.76671
566.55        20.85041
566.98        20.89332
567.42        20.89946
567.85        21.13822
568.29        21.06962
568.72        21.33611
569.16        21.70205
569.60        21.94162
570.03         22.0158
570.47        22.07725
570.90        22.06417
571.34        22.34527
571.77        22.18946
572.21        22.62508
572.64        22.80426
573.08        22.85989
573.51        23.01342
573.95        23.54789
574.38        23.63655
574.82        23.80764
