SpectraSmart Spectrum 2.9.0.0
--------- Device Information -----------
Spectrum Name :  反射率_0
Saving Time :  2024/04/20 00:27:42
Spectro-Module Model Name : SE2030-DUVN
Spectro-Module Serial Number : OS361AC55029948
Wavelength Start : 200
Wavelength End : 1025
Wavelength Unit : Wavelength(nm)
Spectrum Unit : Reflectance(%)
-----------Spectrum Setting ------------
Integration Time : 30ms
Average : 10
Boxcar : 0
Background removal :  enabled
linearity correction :  enabled
SC :  disabled
Intensity correction :  disabled
DWT denoise :  enabled
savitzky-golay :  disabled
FFT :  disabled
Running average :  disabled
Kalman :  disabled
High pass :  disabled
---------------BEGIN--------------------
Wavelength(nm)             Reflectance(%)
200.29               0
200.75        58.23925
201.21        56.83286
201.67        57.56511
202.13        62.28713
202.58        71.69924
203.04        86.35548
203.50        101.1576
203.96        103.5973
204.42        93.40665
204.88          78.686
205.34        66.29741
205.80        59.44554
206.26        56.99423
206.72        57.46899
207.18        61.26434
207.64        67.47269
208.10        73.23299
208.55        77.99966
209.01        79.91529
209.47        79.13581
209.93        76.52931
210.39        72.27654
210.85         67.7568
211.31        64.46467
211.77        62.37383
212.23        61.12614
212.69        60.37526
213.14        59.55149
213.60        58.49799
214.06        58.25003
214.52        58.81632
214.98        60.30533
215.44        62.67784
215.90        65.60578
216.36         69.2495
216.81        73.30408
217.27        76.81277
217.73        79.73863
218.19        80.80198
218.65        78.28189
219.11        72.07854
219.57        62.31065
220.02        51.23092
220.48        45.25085
220.94        46.70959
221.40        54.54843
221.86        64.97749
222.32        71.91578
222.77        73.61803
223.23        71.88985
223.69        68.93626
224.15        67.95002
224.61        69.30545
225.06        71.51779
225.52        73.39957
225.98         74.0236
226.44        73.40974
226.90        72.02809
227.36        70.62525
227.81         70.2945
228.27        71.46516
228.73        73.43439
229.19        75.19788
229.65        75.63257
230.10        74.72163
230.56         73.1366
231.02        71.57734
231.48        70.96058
231.93        71.28963
232.39        72.23096
232.85        73.20976
233.31        73.41005
233.77        72.67496
234.22        71.34651
234.68        69.82789
235.14         68.7268
235.60        68.30992
236.05        68.38742
236.51        68.93022
236.97        69.94601
237.43        71.47055
237.88        73.88445
238.34        76.76687
238.80        79.14502
239.26        80.02804
239.71        79.23308
240.17        77.19476
240.63        75.40802
241.08        74.39357
241.54        73.89479
242.00         73.2885
242.46        71.13157
242.91        66.62581
243.37          58.835
243.83        48.43435
244.28         42.3575
244.74        47.28601
245.20        61.66206
245.66        75.77017
246.11        81.59107
246.57        78.51463
247.03         67.1073
247.48        49.71239
247.94        42.24522
248.40        48.67711
248.85        58.45183
249.31        65.96091
249.77        69.75791
250.22        70.83172
250.68        70.51208
251.14        69.47232
251.59        68.81395
252.05        69.36755
252.51        70.92965
252.96        72.58983
253.42        73.11146
253.88        72.40552
254.33         71.1025
254.79        71.21114
255.25        74.39055
255.70        80.08775
256.16        86.95244
256.62        93.02673
257.07        96.16311
257.53        96.57056
257.99        95.11472
258.44         92.4147
258.90        90.21447
259.35        88.43658
259.81        87.48771
260.27        86.72665
260.72         85.6469
261.18        84.57417
261.63        83.11763
262.09        82.02322
262.55        81.63522
263.00        81.75894
263.46        82.35258
263.91        82.47708
264.37        81.51511
264.83        79.44151
265.28        76.55023
265.74        73.88601
266.19        72.30984
266.65        72.04816
267.11         72.5832
267.56        73.20238
268.02        72.92904
268.47        71.55453
268.93        69.43683
269.38        67.05494
269.84        65.42127
270.30        64.78021
270.75        64.81057
271.21        65.04311
271.66        64.74699
272.12        63.74706
272.57        62.26446
273.03        60.65814
273.48        59.36724
273.94        58.58224
274.39        58.09024
274.85        57.70293
275.31        57.07243
275.76        56.09865
276.22        54.94495
276.67        53.77176
277.13        52.96691
277.58        52.50093
278.04        52.29541
278.49        52.01466
278.95        51.32055
279.40        50.11937
279.86        48.67831
280.31        47.20272
280.77        46.17347
281.22        45.58202
281.68        45.32081
282.13        45.16543
282.59        44.87106
283.04        44.34542
283.50         43.7284
283.95         43.0601
284.41        42.46852
284.86        41.95272
285.32        41.50789
285.77        41.11783
286.22        40.85449
286.68        40.72108
287.13        40.66503
287.59        40.63971
288.04         40.5107
288.50        40.28149
288.95        39.94146
289.41        39.57355
289.86        39.21795
290.32        38.94677
290.77        38.73098
291.22        38.58128
291.68        38.47642
292.13        38.41477
292.59        38.44216
293.04        38.58807
293.50        38.92378
293.95        39.43873
294.40        40.09089
294.86        40.83669
295.31        41.61622
295.77        42.40281
296.22        43.20718
296.68        43.98443
297.13         44.6474
297.58        45.19344
298.04        45.64622
298.49        46.10667
298.95        46.78675
299.40        47.69428
299.85        48.75714
300.31        49.82859
300.76         50.6604
301.21        51.20771
301.67        51.59195
302.12        51.87427
302.58         52.2361
303.03        52.69356
303.48         53.2187
303.94        53.84276
304.39        54.56012
304.84        55.35835
305.30        56.21718
305.75        57.01479
306.20        57.60095
306.66        57.97088
307.11        58.14757
307.57        58.22977
308.02        58.27322
308.47        58.34082
308.93        58.40556
309.38        58.49723
309.83        58.73174
310.29        59.10268
310.74        59.57494
311.19        59.97047
311.65        59.99662
312.10         59.6046
312.55        58.89847
313.00        58.13474
313.46        57.71116
313.91        57.69647
314.36        57.98318
314.82        58.35394
315.27        58.47904
315.72        58.25189
316.18        57.80596
316.63        57.26118
317.08        56.81948
317.53        56.53863
317.99        56.33414
318.44        56.17705
318.89         56.0141
319.35        55.81878
319.80        55.62222
320.25        55.39927
320.70        55.10326
321.16        54.72373
321.61         54.2763
322.06        53.80487
322.51        53.39568
322.97        53.06224
323.42        52.79439
323.87         52.5421
324.32        52.22911
324.78        51.82636
325.23        51.38052
325.68         50.9109
326.13        50.46186
326.59        50.05206
327.04        49.69488
327.49        49.39081
327.94        49.15215
328.39        48.96942
328.85        48.80808
329.30        48.69306
329.75        48.58205
330.20        48.45993
330.66         48.3159
331.11        48.14318
331.56         47.8668
332.01        47.47874
332.46        46.98803
332.92        46.47849
333.37        46.12822
333.82        45.97643
334.27        46.00427
334.72        46.08376
335.17         45.9891
335.63        45.64917
336.08        45.13848
336.53        44.62626
336.98         44.4171
337.43        44.57719
337.88        45.01797
338.34        45.47298
338.79        45.56176
339.24         45.1736
339.69        44.41824
340.14        43.59225
340.59        43.19653
341.05        43.33908
341.50        43.86145
341.95        44.44753
342.40        44.61186
342.85         44.2513
343.30        43.54914
343.75        42.74287
344.20        42.21442
344.66        42.07481
345.11        42.16447
345.56        42.39558
346.01        42.62969
346.46        42.78843
346.91        42.92838
347.36        42.94912
347.81        42.68195
348.26         42.1338
348.72        41.38035
349.17        40.61293
349.62        40.23268
350.07        40.33244
350.52        40.78122
350.97        41.37514
351.42        41.80229
351.87        41.95817
352.32        41.91454
352.77        41.71471
353.22        41.43328
353.67        41.11452
354.13        40.75796
354.58        40.35383
355.03         39.9423
355.48        39.55011
355.93        39.19638
356.38        38.93372
356.83        38.82656
357.28        38.86763
357.73        39.01613
358.18        39.17313
358.63        39.17953
359.08         38.9901
359.53        38.65039
359.98        38.21871
360.43        37.78709
360.88        37.39397
361.33        37.02158
361.78        36.68784
362.23        36.42317
362.68        36.22956
363.13        36.09948
363.58        35.99802
364.03        35.86367
364.48          35.669
364.93        35.41431
365.38        35.09848
365.83         34.7334
366.28        34.33319
366.73         33.9052
367.18        33.46712
367.63        33.04219
368.08        32.64858
368.53        32.30059
368.98        32.00684
369.43        31.76946
369.88        31.58452
370.33        31.44365
370.78        31.34362
371.23        31.28198
371.68        31.24749
372.13        31.22735
372.58        31.19213
373.03        31.10067
373.48        30.94279
373.93        30.72866
374.38        30.48251
374.83        30.24161
375.28        30.01452
375.72        29.78119
376.17        29.55883
376.62        29.33083
377.07        29.10241
377.52        28.89098
377.97        28.69809
378.42        28.52228
378.87        28.36434
379.32        28.21749
379.77        28.10159
380.22         28.0462
380.67        28.04736
381.11        28.09692
381.56        28.12512
382.01        28.03937
382.46        27.82074
382.91        27.49418
383.36         27.1481
383.81        26.91645
384.26        26.82893
384.71        26.85778
385.15        26.90136
385.60        26.81203
386.05         26.5604
386.50        26.19348
386.95        25.84221
387.40        25.71032
387.85        25.82845
388.29        26.11299
388.74        26.40917
389.19        26.47981
389.64        26.28097
390.09        25.87838
390.54        25.42462
390.98        25.15686
391.43        25.14866
391.88        25.30446
392.33        25.46865
392.78        25.41761
393.23        25.12768
393.67         24.6823
394.12        24.25726
394.57        24.00648
395.02        23.96465
395.47        24.07108
395.91         24.2521
396.36        24.35443
396.81        24.33735
397.26        24.23667
397.71         24.1134
398.15        24.03974
398.60        24.06046
399.05        24.13297
399.50         24.1917
399.95        24.14612
400.39        23.98174
400.84        23.72293
401.29        23.46204
401.74         23.3665
402.18        23.47965
402.63        23.73739
403.08         24.0021
403.53        24.05308
403.97        23.84703
404.42        23.46989
404.87        23.05742
405.32        22.83402
405.76        22.85453
406.21        23.04317
406.66        23.29642
407.11        23.45254
407.55        23.46559
408.00        23.39223
408.45        23.27204
408.90        23.11275
409.34         22.9627
409.79         22.9194
410.24        22.94241
410.68        22.87473
411.13        22.71324
411.58        22.55421
412.03        22.41577
412.47        22.29648
412.92        22.20482
413.37        22.13585
413.81        22.11631
414.26        22.20171
414.71         22.3828
415.15        22.64768
415.60        22.88577
416.05        22.94733
416.49        22.79649
416.94        22.47964
417.39        22.11344
417.83        21.88915
418.28        21.86254
418.73        21.97205
419.17        22.12533
419.62        22.16748
420.07         22.0653
420.51         21.8743
420.96        21.66572
421.41        21.52323
421.85        21.46611
422.30        21.47666
422.74         21.5227
423.19        21.59524
423.64        21.67289
424.08        21.76888
424.53        21.84968
424.98        21.88958
425.42        21.88598
425.87        21.84786
426.31        21.77803
426.76        21.69273
427.21        21.58881
427.65        21.45324
428.10        21.34208
428.54        21.31966
428.99        21.39927
429.44        21.65214
429.88        21.91813
430.33        21.80549
430.77        21.38047
431.22        21.09716
431.66        21.03581
432.11        21.07561
432.56        21.19522
433.00        21.48306
433.45         21.7316
433.89          21.612
434.34          21.262
434.78        20.96876
435.23        20.70468
435.67        21.59714
436.12        20.92376
436.57        20.89456
437.01        20.76155
437.46        20.71885
437.90        20.77266
438.35        20.84842
438.79         20.9017
439.24        20.91255
439.68        20.87303
440.13        20.62441
440.57        20.30719
441.02        20.47372
441.46        20.93558
441.91        21.03533
442.35        20.26669
442.80        20.02384
443.24        20.10074
443.69        20.05903
444.13        19.87999
444.58        19.75916
445.02        19.71317
445.47        19.74344
445.91        19.81192
446.36        19.81036
446.80        19.71973
447.24        19.59787
447.69        19.48902
448.13        19.41926
448.58        19.40635
449.02        19.43258
449.47        19.46943
449.91        19.46398
450.36        19.41034
450.80        19.32433
451.25        19.23709
451.69        19.17604
452.13        19.15656
452.58        19.16083
453.02        19.18305
453.47        19.21805
453.91        19.25797
454.36        19.30094
454.80         19.3259
455.24         19.2893
455.69        19.19342
456.13        19.05394
456.58        18.91772
457.02        18.80098
457.46        18.73576
457.91        18.75506
458.35        18.82272
458.79        18.85385
459.24        18.83153
459.68        18.81308
460.13        18.85193
460.57        18.82825
461.01        18.72494
461.46        19.05858
461.90         19.0934
462.34        18.86227
462.79        18.99673
463.23        18.85504
463.68        18.73391
464.12        18.61956
464.56        18.67221
465.01        18.75984
465.45        18.84261
465.89        18.88024
466.34        18.86729
466.78        18.75315
467.22        18.60024
467.67        18.64245
468.11        18.83813
468.55         18.8162
468.99          18.599
469.44        18.52543
469.88         18.6092
470.32        18.66087
470.77        18.65511
471.21        18.64625
471.65        18.63117
472.10         18.5942
472.54          18.557
472.98        18.59326
473.42        18.70554
473.87        18.81564
474.31        18.89119
474.75        18.99986
475.20        19.09316
475.64        18.97949
476.08        18.73907
476.52        18.65945
476.97        18.76269
477.41        18.92235
477.85        19.06773
478.29        19.13892
478.74        19.11601
479.18         18.9878
479.62        18.84499
480.06        18.83204
480.50        18.95059
480.95        19.06985
481.39        19.14048
481.83        19.17768
482.27        19.17251
482.72        19.12149
483.16        19.06864
483.60        19.07092
484.04        19.11371
484.48        19.30646
484.93        19.71064
485.37        19.73237
485.81         19.5207
486.25        20.41594
486.69        21.05769
487.14        20.10702
487.58        19.99864
488.02        20.62491
488.46        20.17821
488.90         20.3292
489.34        20.26741
489.79        20.38342
490.23        20.59204
490.67        20.72145
491.11        20.75821
491.55        20.68856
491.99        20.56773
492.43        20.53661
492.88        20.62587
493.32          20.757
493.76        20.90851
494.20        21.07758
494.64        21.25271
495.08        21.42842
495.52        21.59853
495.96        21.77131
496.41        21.94701
496.85        22.07865
497.29         22.1716
497.73        22.34206
498.17        22.55891
498.61        22.59855
499.05        22.50594
499.49        22.58268
499.93        22.85534
500.37        23.10797
500.82        23.31931
501.26        23.64939
501.70         24.0257
502.14        24.13469
502.58        24.00961
503.02        23.97954
503.46        24.07177
503.90        24.11232
504.34        24.09275
504.78        24.07954
505.22        24.07468
505.66        24.08204
506.10        24.12072
506.54        24.17595
506.98        24.24202
507.42        24.46896
507.86        24.57048
508.30        24.72262
508.74         24.8328
509.18        24.90841
509.62        24.96596
510.06        25.03957
510.50        25.13995
510.94         25.2603
511.38        25.36607
511.82        25.40126
512.26         25.3583
512.70        25.25455
513.14        25.15665
513.58        25.16477
514.02        25.28928
514.46        25.49981
514.90        25.71476
515.34        25.73895
515.78        25.58688
516.22        25.36716
516.66        25.18521
517.10        24.87492
517.54        24.46795
517.98        25.01289
518.42        24.91056
518.86        25.16322
519.30        25.27136
519.74        25.39596
520.18        25.49083
520.62        25.46082
521.06        25.31715
521.50        25.07402
521.93        24.80405
522.37        24.63661
522.81        24.60331
523.25        24.66977
523.69         24.7831
524.13        24.85754
524.57        24.86345
525.01        24.82149
525.45        24.75096
525.89        24.68182
526.32        24.62407
526.76        24.57026
527.20        24.50205
527.64        24.39855
528.08        24.25866
528.52        24.09032
528.96        23.93541
529.40        23.85289
529.83        23.84991
530.27        23.91559
530.71        23.98014
531.15        23.93512
531.59        23.76435
532.03        23.50411
532.46        23.24213
532.90        23.13521
533.34        23.20348
533.78        23.38964
534.22        23.60099
534.66        23.69525
535.09        23.63326
535.53        23.47166
535.97        23.26079
536.41        23.07708
536.85        22.95162
537.28         22.8723
537.72        22.84619
538.16        22.81494
538.60         22.8829
539.04        22.95314
539.47        23.02633
539.91        23.11004
540.35        23.21085
540.79         23.1287
541.22        23.17963
541.66        23.22691
542.10        23.38532
542.54        23.27101
542.97        23.49159
543.41        23.59979
543.85        23.75917
544.29        23.91352
544.72        24.04085
545.16        24.17655
545.60         24.3127
546.04         24.3648
546.47        24.39957
546.91        24.67724
547.35        25.13309
547.79        25.44515
548.22        25.57277
548.66        25.62709
549.10        25.65964
549.53        25.84557
549.97        26.19473
550.41          26.246
550.84        26.48197
551.28        26.63914
551.72        26.88231
552.15        27.14872
552.59        27.43463
553.03        27.74093
553.46        28.00849
553.90        28.17879
554.34        28.24074
554.77        28.21386
555.21        28.16519
555.65        28.18891
556.08         28.3045
556.52        28.48362
556.96        28.67759
557.39        28.84546
557.83        28.96013
558.27        28.96911
558.70        28.91762
559.14        28.93515
559.57        29.02978
560.01        29.17695
560.45        29.32594
560.88        29.36321
561.32         29.3371
561.75        29.34599
562.19        29.51106
562.63        29.60459
563.06        29.65761
563.50        29.73088
563.93        29.81883
564.37        30.00301
564.80        30.12431
565.24         30.2281
565.68        30.27242
566.11         30.3611
566.55        30.51902
566.98        30.63608
567.42        30.68915
567.85        31.04945
568.29        30.91529
568.72        31.24039
569.16        31.70822
569.60        32.00568
570.03        32.08175
570.47        32.18694
570.90        32.19569
571.34        32.48211
571.77         32.3335
572.21        32.79596
572.64        33.06658
573.08        33.16371
573.51        33.07905
573.95        33.82796
574.38        34.14205
574.82        34.39791
