SpectraSmart Spectrum 2.9.0.0
--------- Device Information -----------
Spectrum Name :  反射率_0
Saving Time :  2024/04/20 00:35:35
Spectro-Module Model Name : SE2030-DUVN
Spectro-Module Serial Number : OS361AC55029948
Wavelength Start : 200
Wavelength End : 1025
Wavelength Unit : Wavelength(nm)
Spectrum Unit : Reflectance(%)
-----------Spectrum Setting ------------
Integration Time : 30ms
Average : 10
Boxcar : 0
Background removal :  enabled
linearity correction :  enabled
SC :  disabled
Intensity correction :  disabled
DWT denoise :  enabled
savitzky-golay :  disabled
FFT :  disabled
Running average :  disabled
Kalman :  disabled
High pass :  disabled
---------------BEGIN--------------------
Wavelength(nm)             Reflectance(%)
200.29               0
200.75        44.14676
201.21        43.55162
201.67        45.53439
202.13        50.58212
202.58        58.65884
203.04        70.42577
203.50          82.314
203.96        85.27797
204.42        78.70731
204.88        68.09457
205.34        58.49962
205.80        52.16446
206.26        48.03289
206.72        44.66434
207.18        41.52453
207.64         38.9257
208.10        38.11202
208.55        39.78926
209.01        42.67186
209.47        46.27237
209.93        50.00832
210.39        53.44897
210.85        55.59486
211.31        55.40642
211.77        52.69029
212.23        47.32348
212.69        39.95003
213.14        35.34002
213.60        35.95547
214.06        39.77262
214.52         43.9459
214.98        46.96476
215.44        49.00826
215.90        50.45687
216.36         51.7375
216.81        53.30529
217.27        54.92571
217.73        56.40349
218.19        56.31115
218.65        52.63757
219.11        45.09781
219.57        33.88326
220.02        21.50801
220.48        14.99021
220.94         16.8311
221.40        25.85019
221.86        37.37555
222.32        44.05126
222.77        44.01398
223.23        39.49116
223.69        34.00313
224.15        32.58965
224.61        35.46069
225.06        40.11435
225.52        44.03373
225.98        45.29286
226.44        43.96745
226.90        41.06489
227.36        37.92717
227.81        36.73948
228.27        38.28108
228.73        41.38132
229.19        44.69642
229.65        46.75583
230.10         47.3758
230.56        47.12886
231.02        46.64132
231.48        46.67531
231.93        47.26845
232.39        48.13068
232.85        48.74636
233.31        48.37571
233.77        46.91092
234.22         44.6568
234.68        42.19213
235.14        40.41478
235.60        39.67137
236.05        39.77214
236.51        40.36216
236.97        40.85278
237.43        41.08094
237.88        41.29874
238.34        41.62231
238.80        42.57697
239.26        44.20899
239.71        46.01715
240.17         47.4528
240.63        48.37877
241.08        48.86134
241.54        49.02522
242.00        48.45452
242.46        46.16557
242.91        41.44717
243.37        33.02765
243.83        21.56393
244.28         14.6771
244.74        19.95093
245.20        36.11465
245.66        51.59773
246.11        56.13975
246.57        48.80165
247.03        29.85665
247.48        4.313672
247.94       -1.906929
248.40         13.9645
248.85        33.29128
249.31        47.24458
249.77        54.24517
250.22        56.33615
250.68        55.77369
251.14        53.20539
251.59        49.65867
252.05        46.30326
252.51        42.87426
252.96        39.78803
253.42        38.15811
253.88        38.25692
254.33        39.92327
254.79        43.21606
255.25        47.79821
255.70         53.0941
256.16        58.46099
256.62        62.67085
257.07        64.41876
257.53        63.89101
257.99         61.6034
258.44        58.30821
258.90        55.75373
259.35        53.94886
259.81         52.9806
260.27        52.03275
260.72        50.35973
261.18        48.19043
261.63        45.47292
262.09        43.19304
262.55        42.24461
263.00        42.55793
263.46        43.74922
263.91        44.71074
264.37        44.36723
264.83         42.7242
265.28        40.20677
265.74        37.94715
266.19        37.11803
266.65        37.84322
267.11        39.49627
267.56        41.16164
268.02        41.52469
268.47        40.37953
268.93        38.18855
269.38        35.61513
269.84        33.97361
270.30        33.60137
270.75        34.10302
271.21        34.88868
271.66        35.08414
272.12        34.46161
272.57        33.31505
273.03        32.05344
273.48        31.21332
273.94        30.96511
274.39        31.06253
274.85        31.22068
275.31        31.02644
275.76        30.38636
276.22        29.48256
276.67        28.54293
277.13        27.98586
277.58        27.82997
278.04        27.95247
278.49        28.05754
278.95        27.78868
279.40        27.07384
279.86        26.13799
280.31        25.17445
280.77        24.57875
281.22        24.35658
281.68        24.38269
282.13         24.4939
282.59         24.4851
283.04         24.2921
283.50        24.02485
283.95        23.68096
284.41        23.28173
284.86        22.84103
285.32        22.37087
285.77        21.97318
286.22        21.87084
286.68        22.06863
287.13        22.46588
287.59         22.8682
288.04        22.97334
288.50        22.74655
288.95         22.2619
289.41        21.69746
289.86        21.26048
290.32        21.06004
290.77        21.01746
291.22        21.09179
291.68        21.18668
292.13        21.27843
292.59        21.41762
293.04        21.62561
293.50         21.9418
293.95        22.35576
294.40        22.81769
294.86        23.29907
295.31        23.77604
295.77        24.23293
296.22        24.68224
296.68        25.07775
297.13        25.32195
297.58        25.42748
298.04        25.44264
298.49        25.50129
298.95        25.84478
299.40        26.49797
299.85        27.37644
300.31        28.31808
300.76        29.07137
301.21        29.56905
301.67        29.90959
302.12        30.14634
302.58        30.41393
303.03        30.73159
303.48        31.06182
303.94        31.44057
304.39        31.89228
304.84         32.4137
305.30        32.99334
305.75        33.51846
306.20        33.82928
306.66        33.92192
307.11        33.83591
307.57        33.70523
308.02        33.66836
308.47        33.78116
308.93        33.98655
309.38        34.22755
309.83        34.46184
310.29        34.65369
310.74        34.81958
311.19        34.90049
311.65        34.79941
312.10        34.51374
312.55        34.08209
313.00        33.62694
313.46        33.33755
313.91        33.24386
314.36        33.31068
314.82        33.44584
315.27         33.5156
315.72        33.46389
316.18        33.33317
316.63        33.16041
317.08        33.01249
317.53        32.90224
317.99        32.79194
318.44        32.65536
318.89        32.44622
319.35        32.16068
319.80        31.83102
320.25        31.48557
320.70        31.16483
321.16        30.88148
321.61        30.62601
322.06        30.40588
322.51        30.23438
322.97        30.09812
323.42        29.99565
323.87        29.87192
324.32        29.64389
324.78        29.29034
325.23        28.84104
325.68        28.35218
326.13        27.92781
326.59         27.6074
327.04        27.39447
327.49        27.25093
327.94        27.11168
328.39        26.95369
328.85        26.77137
329.30          26.637
329.75         26.6324
330.20        26.75879
330.66        26.95331
331.11        27.10868
331.56        27.00787
332.01        26.60556
332.46        25.96548
332.92        25.22963
333.37          24.648
333.82        24.31567
334.27         24.1959
334.72        24.20919
335.17        24.20563
335.63        24.12317
336.08        24.00327
336.53        23.91429
336.98        23.97494
337.43         24.1969
337.88        24.52817
338.34        24.79299
338.79        24.76313
339.24        24.38082
339.69        23.72062
340.14        23.02637
340.59        22.70617
341.05        22.84298
341.50        23.31772
341.95        23.87351
342.40        24.10815
342.85        23.92826
343.30        23.47613
343.75        22.92074
344.20        22.53766
344.66        22.40854
345.11         22.4105
345.56        22.50229
346.01        22.62017
346.46        22.71673
346.91        22.83216
347.36        22.86327
347.81        22.63674
348.26        22.15482
348.72        21.50063
349.17        20.85073
349.62        20.58334
350.07        20.78012
350.52        21.30791
350.97        21.96572
351.42        22.45005
351.87        22.66476
352.32         22.6883
352.77        22.56009
353.22        22.34919
353.67        22.09805
354.13         21.7959
354.58        21.46991
355.03        21.20717
355.48        21.03361
355.93        20.95363
356.38        20.93531
356.83         20.9118
357.28        20.85834
357.73        20.77752
358.18        20.69476
358.63        20.65487
359.08        20.66162
359.53        20.69909
359.98        20.69931
360.43        20.56296
360.88        20.28197
361.33        19.89165
361.78        19.50352
362.23        19.29891
362.68        19.30953
363.13        19.46697
363.58         19.6464
364.03        19.65461
364.48         19.4427
364.93        19.07344
365.38        18.62089
365.83          18.214
366.28         17.9089
366.73        17.67334
367.18        17.50471
367.63        17.39659
368.08        17.33469
368.53        17.32397
368.98         17.3338
369.43        17.30783
369.88        17.23438
370.33        17.12692
370.78        16.99987
371.23        16.88772
371.68        16.80273
372.13        16.72481
372.58        16.67519
373.03        16.68926
373.48         16.7613
373.93        16.87968
374.38        16.96786
374.83        16.90725
375.28        16.68221
375.72        16.32226
376.17         15.9492
376.62        15.72019
377.07        15.67923
377.52        15.77697
377.97        15.93307
378.42        16.02146
378.87         16.0026
379.32        15.90989
379.77        15.78717
380.22        15.69709
380.67        15.65662
381.11        15.65071
381.56        15.62853
382.01        15.52725
382.46        15.33697
382.91        15.07774
383.36        14.83358
383.81        14.72661
384.26        14.77329
384.71        14.93933
385.15         15.1008
385.60        15.06901
386.05        14.81534
386.50        14.40638
386.95        13.99493
387.40        13.82213
387.85        13.93223
388.29        14.23245
388.74         14.5725
389.19        14.74582
389.64        14.70372
390.09        14.50728
390.54        14.24515
390.98        14.05261
391.43        13.98494
391.88        13.98913
392.33        13.99988
392.78        13.92669
393.23        13.76061
393.67        13.53468
394.12        13.33626
394.57        13.23274
395.02        13.23689
395.47        13.32191
395.91        13.43232
396.36        13.45816
396.81        13.37639
397.26        13.21317
397.71        13.04183
398.15        12.95943
398.60        12.99957
399.05        13.12278
399.50        13.24464
399.95        13.24432
400.39        13.09961
400.84        12.84347
401.29        12.58049
401.74        12.50053
402.18         12.6528
402.63         12.9659
403.08         13.2898
403.53        13.38937
403.97        13.21803
404.42        12.86324
404.87         12.4703
405.32        12.27666
405.76        12.34071
406.21        12.58025
406.66        12.88069
407.11        13.06484
407.55        13.08322
408.00        12.99519
408.45        12.85553
408.90         12.7244
409.34        12.64754
409.79        12.65733
410.24        12.71429
410.68        12.70946
411.13        12.63415
411.58        12.55366
412.03        12.48104
412.47        12.41754
412.92        12.36915
413.37        12.32729
413.81        12.31211
414.26        12.36729
414.71        12.48753
415.15         12.6671
415.60        12.82343
416.05        12.84464
416.49        12.70628
416.94        12.45008
417.39        12.16933
417.83        12.01704
418.28        12.03609
418.73        12.17172
419.17        12.34994
419.62        12.44097
420.07         12.4161
420.51        12.31979
420.96        12.19375
421.41        12.08526
421.85        12.01156
422.30        11.96533
422.74        11.94945
423.19        11.99424
423.64        12.09088
424.08        12.23682
424.53        12.38396
424.98        12.46625
425.42        12.46532
425.87        12.40324
426.31        12.29745
426.76        12.18736
427.21        12.08099
427.65        11.96033
428.10        11.87096
428.54        11.86799
428.99        11.95809
429.44        12.17711
429.88        12.40556
430.33        12.37197
430.77        12.11069
431.22        11.89322
431.66        11.79872
432.11        11.81728
432.56        11.95183
433.00          12.237
433.45        12.51428
433.89        12.53484
434.34        12.35325
434.78        12.11658
435.23        11.84679
435.67        12.37185
436.12          11.971
436.57        11.92138
437.01        11.75285
437.46        11.67855
437.90        11.70469
438.35        11.73585
438.79        11.75266
439.24        11.77606
439.68        11.79781
440.13        11.71151
440.57        11.57384
441.02        11.66468
441.46        11.87081
441.91        11.83669
442.35        11.30278
442.80        11.08365
443.24        11.06473
443.69        10.99767
444.13         10.8752
444.58        10.81318
445.02        10.81574
445.47        10.88155
445.91         10.9675
446.36        10.97875
446.80        10.89638
447.24        10.76103
447.69        10.62142
448.13         10.5268
448.58        10.49896
449.02         10.5212
449.47        10.56085
449.91        10.56061
450.36        10.51162
450.80        10.42936
451.25        10.35621
451.69        10.34343
452.13         10.4034
452.58        10.50816
453.02        10.61989
453.47        10.67768
453.91        10.67012
454.36        10.61702
454.80        10.54235
455.24        10.48822
455.69        10.47311
456.13        10.46909
456.58         10.4832
457.02        10.52058
457.46        10.57632
457.91        10.62671
458.35         10.6551
458.79        10.65711
459.24         10.6305
459.68        10.57623
460.13        10.55381
460.57        10.55154
461.01        10.56755
461.46        10.87415
461.90        11.01735
462.34        10.94348
462.79        11.00647
463.23        10.85371
463.68        10.69742
464.12        10.59391
464.56        10.65408
465.01          10.777
465.45        10.91133
465.89        10.99234
466.34        11.00876
466.78        10.94834
467.22         10.8587
467.67        10.89356
468.11        11.03414
468.55        11.05387
468.99        10.96489
469.44        10.96816
469.88        11.06979
470.32        11.15639
470.77        11.19756
471.21         11.2049
471.65        11.17306
472.10        11.10334
472.54        11.02533
472.98        11.01559
473.42        11.08513
473.87        11.17757
474.31         11.2652
474.75        11.37062
475.20        11.45979
475.64         11.4232
476.08        11.30847
476.52        11.28914
476.97        11.37965
477.41        11.50303
477.85        11.61906
478.29        11.69725
478.74        11.72489
479.18        11.68941
479.62        11.64183
480.06        11.66619
480.50        11.76117
480.95        11.84646
481.39        11.88843
481.83        11.89379
482.27        11.85921
482.72        11.78447
483.16        11.70801
483.60         11.6969
484.04        11.75966
484.48        11.92596
484.93        12.20726
485.37        12.34122
485.81        12.36385
486.25        12.78072
486.69        12.98197
487.14        12.51778
487.58        12.63918
488.02        13.37657
488.46          12.967
488.90        13.02142
489.34        12.94497
489.79         13.1117
490.23        13.44988
490.67        13.68224
491.11        13.76173
491.55        13.69784
491.99        13.54087
492.43        13.44987
492.88        13.46058
493.32        13.45856
493.76        13.47206
494.20        13.60473
494.64        13.85895
495.08         14.1939
495.52         14.5416
495.96        14.80818
496.41        14.96771
496.85        15.01753
497.29        15.00782
497.73        15.09416
498.17        15.27844
498.61        15.38545
499.05        15.42044
499.49        15.54833
499.93        15.77441
500.37         15.9676
500.82        16.12083
501.26          16.356
501.70        16.62811
502.14        16.71371
502.58        16.64107
503.02        16.64954
503.46        16.75817
503.90        16.84255
504.34        16.88236
504.78        16.90137
505.22        16.89769
505.66        16.87304
506.10        16.85056
506.54        16.86277
506.98        16.91943
507.42        17.01533
507.86        17.13199
508.30        17.23754
508.74        17.32029
509.18        17.38296
509.62        17.44259
510.06        17.52707
510.50         17.6418
510.94        17.78055
511.38        17.90708
511.82        17.96396
512.26         17.9415
512.70        17.85576
513.14        17.76753
513.58         17.7698
514.02        17.87388
514.46        18.05222
514.90        18.23442
515.34        18.25214
515.78         18.1035
516.22        17.91631
516.66        17.78559
517.10        17.50656
517.54        17.10604
517.98        17.74356
518.42         17.6594
518.86        17.94509
519.30          18.055
519.74         18.1653
520.18        18.24911
520.62        18.24142
521.06        18.15897
521.50         18.0043
521.93        17.82014
522.37        17.68729
522.81        17.62686
523.25        17.62176
523.69        17.64962
524.13        17.67141
524.57        17.67168
525.01        17.65982
525.45        17.63741
525.89        17.60607
526.32         17.5664
526.76        17.51668
527.20         17.4533
527.64        17.37733
528.08        17.29002
528.52        17.19048
528.96        17.09401
529.40        17.02097
529.83        16.97481
530.27        16.95773
530.71        16.93853
531.15        16.86785
531.59        16.74227
532.03        16.57942
532.46         16.4304
532.90        16.39081
533.34        16.46631
533.78        16.61808
534.22         16.7813
534.66         16.8573
535.09        16.81805
535.53        16.70203
535.97        16.54129
536.41        16.38482
536.85        16.25764
537.28         16.1585
537.72        16.10452
538.16        16.07125
538.60        16.13686
539.04        16.22728
539.47        16.33884
539.91        16.46931
540.35        16.61808
540.79        16.64071
541.22        16.75341
541.66         16.8419
542.10        16.98631
542.54        16.91003
542.97        17.06676
543.41        17.15325
543.85        17.29327
544.29        17.44224
544.72        17.57269
545.16        17.68861
545.60        17.78148
546.04        17.80734
546.47        17.82959
546.91        18.03839
547.35        18.40178
547.79        18.72623
548.22        18.94991
548.66        19.06419
549.10        19.09815
549.53        19.22051
549.97        19.46136
550.41        19.49967
550.84        19.70369
551.28        19.87433
551.72        20.11294
552.15        20.34028
552.59        20.54657
553.03        20.74209
553.46        20.91407
553.90        21.06268
554.34        21.18702
554.77        21.28703
555.21        21.37136
555.65        21.44365
556.08        21.50497
556.52        21.55561
556.96        21.60889
557.39        21.71203
557.83        21.86004
558.27        21.98713
558.70        22.07722
559.14        22.14887
559.57        22.19152
560.01        22.21575
560.45        22.22538
560.88        22.19809
561.32        22.18753
561.75         22.2458
562.19        22.43966
562.63        22.55431
563.06         22.6008
563.50        22.64995
563.93        22.71103
564.37        22.83881
564.80        22.93072
565.24        23.07145
565.68        23.20162
566.11        23.31046
566.55         23.4109
566.98         23.4628
567.42        23.47529
567.85        23.76226
568.29        23.71292
568.72        24.03167
569.16         24.4556
569.60        24.73395
570.03        24.82175
570.47        24.90526
570.90        24.89028
571.34        25.14637
571.77        24.90958
572.21        25.31205
572.64        25.52472
573.08        25.74596
573.51        25.98111
573.95        26.20949
574.38        26.59523
574.82        26.67099
