SpectraSmart Spectrum 2.9.0.0
--------- Device Information -----------
Spectrum Name :  反射率_0
Saving Time :  2024/04/20 00:32:10
Spectro-Module Model Name : SE2030-DUVN
Spectro-Module Serial Number : OS361AC55029948
Wavelength Start : 200
Wavelength End : 1025
Wavelength Unit : Wavelength(nm)
Spectrum Unit : Reflectance(%)
-----------Spectrum Setting ------------
Integration Time : 30ms
Average : 10
Boxcar : 0
Background removal :  enabled
linearity correction :  enabled
SC :  disabled
Intensity correction :  disabled
DWT denoise :  enabled
savitzky-golay :  disabled
FFT :  disabled
Running average :  disabled
Kalman :  disabled
High pass :  disabled
---------------BEGIN--------------------
Wavelength(nm)             Reflectance(%)
200.29               0
200.75        56.55731
201.21        53.33373
201.67        51.34205
202.13        53.40703
202.58        60.91873
203.04        74.31898
203.50        89.22126
203.96         93.8364
204.42        86.83839
204.88        75.27573
205.34        65.01631
205.80        58.86137
206.26        55.82524
206.72        54.15386
207.18        54.03744
207.64        56.33132
208.10        60.63456
208.55        66.51748
209.01        70.07655
209.47        69.02821
209.93        64.38789
210.39        57.53585
210.85        50.91667
211.31          47.126
211.77        46.37544
212.23         48.0807
212.69        51.80305
213.14        54.96835
213.60        55.37104
214.06        54.64706
214.52        53.98314
214.98        54.29473
215.44        55.56418
215.90        57.19511
216.36        59.18726
216.81        61.29706
217.27         62.9284
217.73        64.24414
218.19         64.2685
218.65        61.52271
219.11        55.81982
219.57        47.19332
220.02        37.40562
220.48        31.82874
220.94        32.37795
221.40        38.37632
221.86        46.50569
222.32        51.42371
222.77         51.7651
223.23        49.12843
223.69         46.1588
224.15        46.58754
224.61        50.22356
225.06        54.89347
225.52        58.57932
225.98         59.7242
226.44        58.39683
226.90        55.41154
227.36         51.7077
227.81          48.923
228.27        47.99316
228.73        48.27476
229.19        49.12144
229.65        49.75234
230.10        49.96623
230.56        50.03123
231.02        50.15874
231.48        50.60911
231.93        51.34065
232.39        52.23474
232.85        52.93445
233.31        52.95279
233.77        52.22486
234.22        50.91026
234.68        49.47561
235.14        48.64205
235.60          48.634
236.05        49.26208
236.51        50.16563
236.97        50.77455
237.43        50.94218
237.88        50.92617
238.34        50.73777
238.80        50.91213
239.26        51.64407
239.71        52.61747
240.17        53.56005
240.63        54.60689
241.08        55.83417
241.54         57.2805
242.00        58.30925
242.46        57.59317
242.91        54.38538
243.37        47.58283
243.83        37.85215
244.28        32.16069
244.74        37.15752
245.20        51.59126
245.66        65.09949
246.11        68.55759
246.57        61.01303
247.03         42.4411
247.48        17.87813
247.94        12.47126
248.40        28.47975
248.85        47.74977
249.31          61.364
249.77        67.34158
250.22        67.71301
250.68         64.5692
251.14        59.16858
251.59        54.39209
252.05        52.37122
252.51        52.68536
252.96        54.01891
253.42        54.16981
253.88        52.71606
254.33        50.74309
254.79        50.61062
255.25        54.33131
255.70        61.09349
256.16        68.99983
256.62        75.33418
257.07        77.13467
257.53        74.76452
257.99        69.78639
258.44        63.89384
258.90        60.02218
259.35        58.13201
259.81        57.59823
260.27        57.28269
260.72        56.24356
261.18        54.67211
261.63         52.5647
262.09        50.69237
262.55        49.60374
263.00        49.26556
263.46        49.49409
263.91        49.54675
264.37        48.80413
264.83        47.26127
265.28        45.17934
265.74         43.3675
266.19        42.53545
266.65        42.79604
267.11        43.69931
267.56        44.66889
268.02         44.8667
268.47         44.1296
268.93         42.7348
269.38        41.00264
269.84        39.66963
270.30         38.9292
270.75        38.60464
271.21        38.40898
271.66        37.90068
272.12        36.97878
272.57        35.80146
273.03        34.68817
273.48        34.03293
273.94        33.94222
274.39        34.21448
274.85        34.53833
275.31        34.44515
275.76        33.83115
276.22        32.87326
276.67        31.83218
277.13        31.20135
277.58        31.00822
278.04        31.11346
278.49        31.18465
278.95        30.82017
279.40        29.94082
279.86        28.80423
280.31        27.63484
280.77        26.87279
281.22        26.53571
281.68         26.4971
282.13        26.57169
282.59        26.52828
283.04        26.29268
283.50        25.97372
283.95        25.60124
284.41        25.24944
284.86        24.92472
285.32        24.61602
285.77        24.34112
286.22        24.20046
286.68        24.19243
287.13        24.27099
287.59        24.34923
288.04        24.27277
288.50        24.03667
288.95        23.66494
289.41        23.26878
289.86        22.94583
290.32         22.7738
290.77        22.70985
291.22        22.74198
291.68        22.81716
292.13        22.92281
292.59        23.08814
293.04        23.33292
293.50        23.69923
293.95        24.17676
294.40        24.72886
294.86        25.30957
295.31         25.8629
295.77        26.37196
296.22        26.85364
296.68        27.31045
297.13        27.72529
297.58         28.1154
298.04        28.49332
298.49        28.90528
298.95        29.46091
299.40        30.15709
299.85        30.95448
300.31        31.76926
300.76        32.46784
301.21        33.01763
301.67        33.48455
302.12        33.88092
302.58          34.286
303.03        34.70217
303.48        35.11795
303.94        35.58847
304.39        36.15962
304.84        36.83262
305.30        37.58002
305.75        38.27483
306.20         38.7434
306.66        38.97769
307.11        39.02147
307.57        39.00941
308.02        39.07297
308.47        39.27381
308.93        39.55881
309.38        39.88599
309.83        40.24276
310.29        40.59668
310.74        40.95078
311.19        41.22297
311.65        41.27727
312.10        41.09889
312.55        40.73859
313.00        40.33293
313.46        40.09615
313.91         40.0634
314.36        40.18686
314.82        40.37342
315.27        40.48944
315.72        40.47664
316.18        40.39009
316.63        40.24491
317.08        40.07623
317.53        39.90025
317.99        39.69052
318.44        39.47746
318.89        39.30618
319.35         39.1847
319.80         39.1092
320.25        39.03226
320.70        38.87406
321.16        38.61297
321.61        38.27594
322.06        37.91314
322.51        37.61342
322.97        37.39222
323.42        37.22871
323.87        37.06804
324.32        36.82753
324.78        36.48129
325.23         36.0729
325.68        35.63497
326.13        35.22807
326.59         34.8791
327.04        34.59604
327.49        34.37603
327.94        34.21793
328.39        34.11333
328.85        34.04279
329.30        34.02867
329.75        34.05045
330.20        34.08986
330.66        34.11715
331.11        34.11586
331.56        34.00934
332.01         33.7842
332.46        33.45832
332.92        33.08046
333.37         32.7521
333.82        32.51007
334.27         32.3502
334.72        32.24775
335.17        32.15306
335.63        32.03893
336.08        31.92685
336.53        31.84541
336.98         31.8529
337.43        31.95349
337.88        32.12955
338.34        32.26178
338.79        32.20708
339.24        31.92143
339.69        31.44189
340.14        30.95477
340.59        30.77256
341.05        30.94693
341.50        31.39013
341.95        31.86046
342.40          31.982
342.85        31.68062
343.30        31.08941
343.75        30.42108
344.20        30.02367
344.66        29.98782
345.11        30.17229
345.56        30.46055
346.01         30.6636
346.46         30.7063
346.91          30.665
347.36        30.50958
347.81        30.18124
348.26        29.70891
348.72        29.13829
349.17        28.59393
349.62         28.3655
350.07        28.51118
350.52        28.93192
350.97        29.46589
351.42        29.86549
351.87        30.04646
352.32         30.0613
352.77        29.93181
353.22        29.70183
353.67        29.40629
354.13        29.05254
354.58         28.6597
355.03        28.30271
355.48        28.01325
355.93        27.79981
356.38        27.66894
356.83        27.61545
357.28        27.62055
357.73        27.66262
358.18         27.7108
358.63        27.71717
359.08         27.6594
359.53        27.54879
359.98        27.35918
360.43        27.05476
360.88        26.64981
361.33        26.16737
361.78        25.70584
362.23        25.42629
362.68        25.35656
363.13        25.43707
363.58        25.56184
364.03        25.56207
364.48        25.38766
364.93        25.08777
365.38        24.69665
365.83        24.28073
366.28        23.88257
366.73        23.48887
367.18        23.14136
367.63        22.90572
368.08        22.78346
368.53        22.75454
368.98        22.75714
369.43        22.68459
369.88        22.51251
370.33        22.27803
370.78        22.00469
371.23        21.74071
371.68         21.5125
372.13        21.29675
372.58         21.1433
373.03        21.13638
373.48        21.26988
373.93        21.50584
374.38        21.71628
374.83        21.70443
375.28        21.43385
375.72        20.95796
376.17         20.4149
376.62        19.99356
377.07        19.76209
377.52         19.6708
377.97         19.6725
378.42         19.6889
378.87        19.68613
379.32        19.68559
379.77        19.68625
380.22        19.68056
380.67        19.66504
381.11        19.63386
381.56        19.56446
382.01        19.44821
382.46        19.28547
382.91        19.07679
383.36        18.86521
383.81        18.71123
384.26        18.62729
384.71        18.61236
385.15        18.59424
385.60        18.46308
386.05        18.20639
386.50        17.85901
386.95        17.54479
387.40        17.45897
387.85        17.62344
388.29        17.95484
388.74         18.2931
389.19        18.40934
389.64        18.25981
390.09        17.91536
390.54        17.50331
390.98        17.22274
391.43        17.14807
391.88         17.2079
392.33        17.30752
392.78        17.31125
393.23        17.19476
393.67        16.99689
394.12        16.82065
394.57         16.7464
395.02        16.79079
395.47        16.92239
395.91        17.07035
396.36        17.09642
396.81        16.97618
397.26        16.74761
397.71        16.51765
398.15          16.429
398.60        16.52362
399.05        16.74164
399.50         16.9635
399.95         17.0181
400.39        16.87364
400.84        16.57814
401.29        16.25946
401.74        16.14939
402.18        16.31101
402.63        16.65817
403.08        17.02528
403.53        17.15335
403.97        16.98916
404.42        16.63083
404.87        16.22891
405.32        16.02854
405.76        16.09001
406.21        16.32599
406.66        16.62355
407.11        16.80895
407.55        16.83305
408.00         16.7585
408.45        16.62955
408.90         16.4775
409.34        16.35082
409.79        16.31084
410.24        16.33477
410.68        16.32208
411.13        16.26974
411.58        16.24549
412.03        16.24603
412.47        16.23857
412.92        16.21779
413.37        16.18389
413.81        16.16992
414.26        16.24231
414.71        16.40008
415.15        16.62855
415.60        16.83094
416.05        16.87625
416.49         16.7339
416.94        16.45113
417.39        16.13164
417.83        15.94321
418.28         15.9358
418.73         16.0547
419.17         16.2202
419.62        16.29465
420.07        16.24886
420.51        16.13051
420.96        15.99682
421.41        15.91512
421.85        15.90082
422.30        15.93702
422.74        16.00143
423.19         16.0939
423.64        16.19742
424.08        16.31957
424.53        16.42436
424.98        16.47444
425.42        16.46327
425.87        16.40571
426.31        16.31161
426.76        16.20757
427.21        16.09646
427.65        15.96517
428.10        15.86693
428.54        15.86399
428.99          15.967
429.44        16.22667
429.88        16.50183
430.33        16.46347
430.77        16.15807
431.22        15.93584
431.66        15.88537
432.11        15.96309
432.56        16.16312
433.00        16.53873
433.45        16.88636
433.89        16.88817
434.34        16.62933
434.78        16.30621
435.23        15.94207
435.67        16.64577
436.12        16.09992
436.57        16.02529
437.01         15.8028
437.46        15.73817
437.90         15.8411
438.35        15.97393
438.79        16.08248
439.24        16.15058
439.68         16.1609
440.13         15.9859
440.57        15.73488
441.02        15.83872
441.46        16.15576
441.91        16.18262
442.35        15.54407
442.80        15.32909
443.24        15.37903
443.69        15.35644
444.13        15.24188
444.58        15.17716
445.02        15.16975
445.47        15.22292
445.91        15.30054
446.36        15.30967
446.80        15.23341
447.24         15.1164
447.69        15.00504
448.13        14.93758
448.58        14.93226
449.02        14.97207
449.47        15.01991
449.91        15.00961
450.36        14.93386
450.80        14.81445
451.25        14.69909
451.69        14.64406
452.13        14.66768
452.58        14.74149
453.02        14.83913
453.47        14.92048
453.91        14.97221
454.36        15.00385
454.80        15.01135
455.24         14.9881
455.69        14.94284
456.13        14.86098
456.58        14.77691
457.02        14.73466
457.46        14.74024
457.91        14.74955
458.35        14.74711
458.79        14.74333
459.24        14.73101
459.68        14.71069
460.13        14.73191
460.57        14.72855
461.01         14.6884
461.46        15.00769
461.90        15.09315
462.34        14.94024
462.79        15.04413
463.23        14.90329
463.68        14.77288
464.12        14.67395
464.56        14.74154
465.01        14.85997
465.45        14.97801
465.89        15.03501
466.34        15.02312
466.78        14.91351
467.22        14.77272
467.67        14.81334
468.11        15.00875
468.55         15.0528
468.99         14.9475
469.44         14.9422
469.88        15.04153
470.32        15.09873
470.77        15.09548
471.21        15.08147
471.65        15.05736
472.10        15.01027
472.54         14.9628
472.98        14.98558
473.42        15.08341
473.87        15.19143
474.31        15.27773
474.75        15.38513
475.20         15.4721
475.64        15.38635
476.08        15.19811
476.52        15.14937
476.97        15.25965
477.41        15.42344
477.85        15.57708
478.29        15.66206
478.74        15.65918
479.18        15.56054
479.62        15.44465
480.06        15.43878
480.50        15.54401
480.95        15.64554
481.39        15.70002
481.83        15.71793
482.27        15.69373
482.72        15.62782
483.16        15.54856
483.60        15.52095
484.04        15.55979
484.48        15.65235
484.93        15.83369
485.37        16.01085
485.81        16.27238
486.25        16.63747
486.69        16.81233
487.14        16.52321
487.58        16.41001
488.02        17.04599
488.46        16.70896
488.90        16.78951
489.34        16.72048
489.79        16.84693
490.23         17.1112
490.67        17.24189
491.11        17.23223
491.55        17.18879
491.99        17.13917
492.43        17.09686
492.88        17.08253
493.32        17.07353
493.76        17.09882
494.20        17.21746
494.64        17.43329
495.08        17.72083
495.52        18.02043
495.96        18.25292
496.41        18.39726
496.85        18.43852
497.29        18.42638
497.73        18.53093
498.17        18.74423
498.61        18.85491
499.05        18.86522
499.49        18.97083
499.93        19.17924
500.37        19.33396
500.82        19.43715
501.26         19.6508
501.70        19.92511
502.14        19.98885
502.58        19.87799
503.02        19.87869
503.46        20.01083
503.90         20.1263
504.34        20.18844
504.78        20.20491
505.22        20.17089
505.66        20.09492
506.10         20.0229
506.54        20.02449
506.98        20.11754
507.42        20.28364
507.86        20.48539
508.30        20.65994
508.74        20.78359
509.18        20.86633
509.62        20.92803
510.06        21.00184
510.50        21.09732
510.94         21.2068
511.38        21.29917
511.82        21.32701
512.26        21.28406
512.70        21.18565
513.14        21.09179
513.58        21.09161
514.02        21.19372
514.46        21.37169
514.90        21.55037
515.34        21.54986
515.78        21.37693
516.22        21.15187
516.66        20.97811
517.10        20.67323
517.54        20.26871
517.98         20.8769
518.42        20.80485
518.86        21.10138
519.30        21.23829
519.74        21.38259
520.18        21.50197
520.62        21.52401
521.06        21.46147
521.50        21.31873
521.93        21.13686
522.37        20.99507
522.81        20.91677
523.25        20.88663
523.69          20.891
524.13         20.9046
524.57        20.91352
525.01        20.92165
525.45        20.92229
525.89        20.90265
526.32        20.85976
526.76        20.79927
527.20        20.71754
527.64        20.61585
528.08        20.49925
528.52        20.36653
528.96        20.24836
529.40        20.18915
529.83        20.19282
530.27        20.25239
530.71        20.31021
531.15        20.27518
531.59        20.13428
532.03        19.91849
532.46        19.69997
532.90        19.60974
533.34         19.6647
533.78        19.81716
534.22        19.99428
534.66        20.08438
535.09         20.0545
535.53        19.94867
535.97        19.80082
536.41         19.6616
536.85        19.55456
537.28        19.47517
537.72        19.43671
538.16        19.40043
538.60        19.45997
539.04        19.53093
539.47        19.61403
539.91        19.71571
540.35        19.83966
540.79          19.812
541.22         19.8999
541.66        19.98104
542.10        20.15066
542.54        20.07714
542.97         20.2792
543.41        20.36429
543.85        20.47486
544.29        20.56805
544.72        20.63556
545.16        20.72292
545.60        20.82824
546.04        20.87571
546.47        20.92019
546.91        21.18046
547.35        21.59677
547.79        21.89108
548.22        22.02178
548.66        22.07536
549.10        22.09385
549.53         22.2278
549.97        22.48964
550.41        22.49068
550.84        22.64977
551.28         22.7448
551.72        22.91505
552.15         23.1038
552.59        23.30949
553.03        23.53541
553.46        23.74434
553.90        23.90291
554.34         24.0021
554.77        24.05133
555.21        24.08409
555.65        24.14133
556.08        24.23064
556.52        24.34242
556.96        24.46069
557.39        24.58116
557.83         24.6943
558.27        24.76538
558.70        24.80103
559.14        24.84051
559.57        24.88087
560.01        24.93286
560.45        24.98162
560.88        24.96709
561.32        24.94065
561.75        24.97221
562.19        25.14732
562.63        25.24087
563.06        25.27056
563.50        25.31088
563.93        25.36487
564.37        25.48359
564.80        25.55111
565.24        25.66646
565.68        25.77368
566.11        25.87557
566.55        25.98783
566.98        26.05865
567.42        26.08101
567.85        26.39157
568.29        26.31292
568.72        26.61095
569.16         26.9943
569.60        27.33584
570.03         27.3421
570.47        27.41498
570.90        27.37919
571.34        27.63778
571.77        27.48436
572.21        27.73826
572.64        28.01542
573.08        28.11937
573.51        28.49237
573.95        28.85733
574.38        29.04919
574.82         29.1842
