SpectraSmart Spectrum 2.9.0.0
--------- Device Information -----------
Spectrum Name :  反射率_0
Saving Time :  2024/04/20 01:00:12
Spectro-Module Model Name : SE2030-DUVN
Spectro-Module Serial Number : OS361AC55029948
Wavelength Start : 200
Wavelength End : 1025
Wavelength Unit : Wavelength(nm)
Spectrum Unit : Reflectance(%)
-----------Spectrum Setting ------------
Integration Time : 30ms
Average : 10
Boxcar : 0
Background removal :  enabled
linearity correction :  enabled
SC :  disabled
Intensity correction :  disabled
DWT denoise :  enabled
savitzky-golay :  disabled
FFT :  disabled
Running average :  disabled
Kalman :  disabled
High pass :  disabled
---------------BEGIN--------------------
Wavelength(nm)             Reflectance(%)
200.29               0
200.75         54.9689
201.21        53.79281
201.67        53.99321
202.13        55.26375
202.58        57.34592
203.04        60.61491
203.50        64.41774
203.96         66.1839
204.42        65.31329
204.88        63.09098
205.34        60.40277
205.80        57.38337
206.26        53.54146
206.72        47.82754
207.18        40.16322
207.64        34.91974
208.10        36.88166
208.55        44.81967
209.01        53.22353
209.47        58.10355
209.93        59.41254
210.39        58.45667
210.85        56.33268
211.31        54.07624
211.77        51.77909
212.23        48.97538
212.69        45.33426
213.14        41.90549
213.60           39.98
214.06        40.04519
214.52        41.54363
214.98        44.23677
215.44        48.01853
215.90        52.72056
216.36        58.13725
216.81        62.79092
217.27        65.33768
217.73        66.26705
218.19        64.85373
218.65        60.04129
219.11        51.84504
219.57        40.00316
220.02        27.27976
220.48        21.28798
220.94        24.54017
221.40        35.68303
221.86        48.97805
222.32        55.38232
222.77        52.90628
223.23        44.63685
223.69         35.2309
224.15        31.44229
224.61        33.75536
225.06        38.80208
225.52        43.61249
225.98        45.93922
226.44        45.70488
226.90         44.0119
227.36         41.7338
227.81        40.19484
228.27        40.13892
228.73        40.87204
229.19        41.86339
229.65         42.5663
230.10        42.87005
230.56        42.99724
231.02        43.17242
231.48        43.65542
231.93        44.41566
232.39        45.33717
232.85        46.11862
233.31        46.32687
233.77        45.90696
234.22        45.02853
234.68        44.03798
235.14        43.43921
235.60        43.41497
236.05        43.81654
236.51        44.53926
236.97        45.43614
237.43        46.52887
237.88        48.15427
238.34        50.11526
238.80        51.87056
239.26         52.8157
239.71        52.66089
240.17        51.92164
240.63        52.10128
241.08         53.5973
241.54        56.10074
242.00        58.34885
242.46        57.86575
242.91        53.39683
243.37        43.81654
243.83         29.6912
244.28        19.76374
244.74        23.33591
245.20        39.27388
245.66        55.91902
246.11        62.81401
246.57        59.10621
247.03        45.85133
247.48        26.85316
247.94        21.77681
248.40        33.19673
248.85        47.27734
249.31        57.43937
249.77        62.45638
250.22        63.85125
250.68        63.32172
251.14        61.72014
251.59        60.52692
252.05        60.80368
252.51        62.11874
252.96        63.66571
253.42        64.35974
253.88         64.0188
254.33        63.29081
254.79        63.55286
255.25        65.79494
255.70        69.66389
256.16        74.19067
256.62        78.24391
257.07        80.61607
257.53        81.36282
257.99        80.83867
258.44        79.06043
258.90        76.98216
259.35        74.69985
259.81        72.98622
260.27        71.51452
260.72        69.98355
261.18        68.60967
261.63        66.95271
262.09        65.70788
262.55        65.26081
263.00        65.43081
263.46        66.12688
263.91        66.39564
264.37        65.47179
264.83        63.37828
265.28        60.47939
265.74        57.85838
266.19        56.52264
266.65        56.65276
267.11        57.65683
267.56        58.78455
268.02        58.98631
268.47        58.03777
268.93        56.30799
269.38        54.18885
269.84        52.54291
270.30        51.61147
270.75        51.15353
271.21        50.87786
271.66        50.32972
272.12         49.3876
272.57        48.20417
273.03        47.02792
273.48         46.1255
273.94        45.61133
274.39        45.33175
274.85        45.09821
275.31        44.59229
275.76        43.73601
276.22        42.66557
276.67        41.57535
277.13        40.88152
277.58        40.57491
278.04        40.55683
278.49        40.48701
278.95        39.98084
279.40        38.95039
279.86        37.65238
280.31        36.31829
280.77        35.43232
281.22        35.00105
281.68        34.89969
282.13        34.89932
282.59        34.72074
283.04          34.285
283.50        33.74374
283.95        33.16947
284.41        32.71299
284.86        32.38884
285.32        32.16492
285.77        32.02895
286.22        32.04648
286.68        32.19392
287.13        32.41049
287.59        32.60305
288.04        32.59349
288.50        32.37977
288.95        31.98582
289.41        31.52459
289.86        31.09229
290.32        30.78484
290.77        30.57083
291.22        30.48013
291.68        30.51556
292.13        30.67426
292.59        30.98458
293.04        31.43136
293.50        32.00477
293.95        32.67991
294.40        33.43593
294.86        34.25943
295.31        35.14717
295.77        36.08526
296.22        37.05587
296.68        38.01546
297.13        38.87618
297.58        39.62861
298.04         40.3083
298.49        40.96209
298.95        41.71333
299.40        42.56825
299.85        43.47949
300.31        44.41413
300.76        45.30656
301.21        46.12697
301.67        46.92008
302.12        47.60537
302.58        48.14462
303.03        48.51951
303.48        48.78471
303.94        49.07993
304.39        49.56818
304.84        50.28792
305.30        51.16763
305.75        52.05262
306.20         52.7383
306.66        53.19204
307.11        53.45367
307.57        53.61185
308.02        53.70848
308.47        53.80137
308.93        53.86235
309.38        53.92003
309.83        54.09044
310.29        54.37368
310.74        54.73998
311.19        55.04115
311.65        55.03037
312.10        54.66675
312.55        54.04111
313.00        53.36786
313.46        52.97649
313.91        52.92337
314.36        53.12372
314.82        53.39923
315.27        53.48513
315.72        53.29132
316.18         52.9216
316.63        52.47499
317.08        52.11946
317.53        51.90012
317.99        51.74796
318.44        51.61895
318.89        51.43607
319.35        51.17366
319.80        50.86483
320.25        50.53299
320.70        50.21013
321.16        49.90165
321.61        49.60519
322.06        49.29564
322.51        48.94276
322.97        48.53331
323.42        48.08579
323.87        47.63256
324.32        47.23381
324.78        46.89281
325.23        46.61111
325.68        46.32042
326.13        45.91668
326.59        45.38115
327.04        44.77809
327.49        44.19079
327.94        43.75949
328.39         43.5183
328.85        43.40337
329.30        43.39367
329.75        43.37679
330.20         43.3054
330.66        43.18155
331.11        43.02411
331.56        42.80064
332.01         42.5105
332.46        42.15069
332.92        41.74613
333.37        41.37467
333.82        41.06252
334.27        40.82161
334.72        40.63969
335.17        40.48657
335.63        40.34023
336.08        40.21468
336.53          40.142
336.98        40.19304
337.43        40.36343
337.88        40.62515
338.34        40.81695
338.79         40.7316
339.24        40.31426
339.69        39.62808
340.14        38.90474
340.59        38.53675
341.05        38.60823
341.50        39.01176
341.95        39.49836
342.40         39.6768
342.85        39.45779
343.30        38.97532
343.75        38.40914
344.20        38.05304
344.66        37.98513
345.11        38.07381
345.56        38.23656
346.01        38.34515
346.46        38.34191
346.91        38.28825
347.36        38.13186
347.81          37.777
348.26        37.24263
348.72        36.58614
349.17        35.94879
349.62        35.64519
350.07        35.73858
350.52        36.11689
350.97        36.60511
351.42        36.93586
351.87        37.02165
352.32        36.92938
352.77        36.68534
353.22        36.33908
353.67         35.9355
354.13        35.48429
354.58        35.02573
355.03        34.67064
355.48        34.45026
355.93        34.35487
356.38        34.35259
356.83        34.37877
357.28        34.39617
357.73         34.3957
358.18        34.36187
358.63        34.27749
359.08         34.1338
359.53        33.93439
359.98        33.65573
360.43         33.2653
360.88        32.77605
361.33        32.21346
361.78        31.67209
362.23        31.30321
362.68        31.13635
363.13         31.1208
363.58          31.151
364.03        31.05812
364.48        30.79251
364.93        30.39752
365.38        29.92593
365.83        29.47714
366.28        29.09357
366.73        28.74813
367.18        28.43694
367.63        28.15295
368.08        27.89093
368.53        27.66596
368.98        27.46386
369.43         27.2505
369.88        27.02055
370.33        26.78215
370.78        26.55348
371.23        26.37272
371.68        26.24933
372.13        26.16224
372.58        26.10724
373.03        26.07936
373.48        26.06193
373.93        26.04728
374.38        25.99217
374.83        25.83053
375.28        25.55485
375.72        25.18115
376.17        24.78611
376.62        24.45462
377.07        24.22299
377.52        24.07312
377.97        23.98906
378.42        23.94157
378.87        23.90913
379.32        23.88919
379.77        23.86864
380.22        23.82492
380.67        23.75125
381.11        23.65768
381.56        23.51814
382.01        23.31734
382.46        23.06209
382.91        22.75547
383.36         22.4719
383.81        22.32004
384.26        22.31298
384.71        22.42793
385.15        22.53958
385.60        22.45936
386.05        22.15686
386.50        21.69365
386.95        21.23581
387.40        21.04614
387.85        21.17107
388.29        21.51092
388.74        21.89014
389.19         22.0504
389.64        21.93882
390.09         21.6296
390.54         21.2646
390.98        21.06235
391.43        21.09217
391.88        21.26391
392.33        21.44077
392.78        21.43011
393.23        21.20971
393.67         20.8489
394.12          20.505
394.57        20.31903
395.02        20.32116
395.47        20.45957
395.91        20.65024
396.36        20.72481
396.81        20.64513
397.26         20.4578
397.71         20.2564
398.15        20.16223
398.60        20.22137
399.05        20.37464
399.50        20.52777
399.95        20.54936
400.39        20.41317
400.84        20.15512
401.29        19.87612
401.74        19.75865
402.18        19.85563
402.63        20.10331
403.08        20.36461
403.53        20.42048
403.97        20.23008
404.42        19.87896
404.87        19.51325
405.32        19.37203
405.76        19.50466
406.21        19.81994
406.66        20.18805
407.11        20.40888
407.55        20.42809
408.00        20.31699
408.45        20.12605
408.90        19.89386
409.34        19.68491
409.79        19.57869
410.24         19.5642
410.68        19.54154
411.13        19.50816
411.58        19.53771
412.03        19.60253
412.47         19.6219
412.92        19.57842
413.37        19.48507
413.81        19.40298
414.26        19.44502
414.71        19.62011
415.15         19.8996
415.60        20.16167
416.05        20.23529
416.49        20.07961
416.94        19.75658
417.39        19.38913
417.83        19.17422
418.28        19.17017
418.73        19.30929
419.17        19.50312
419.62        19.60406
420.07        19.57516
420.51        19.46531
420.96         19.3261
421.41        19.21315
421.85        19.14222
422.30        19.10581
422.74        19.09108
423.19        19.11417
423.64        19.16343
424.08        19.24675
424.53        19.32973
424.98        19.38069
425.42        19.39251
425.87        19.37453
426.31         19.3298
426.76         19.2746
427.21        19.20555
427.65        19.10981
428.10        19.03005
428.54        19.01172
428.99        19.06716
429.44        19.26633
429.88         19.4833
430.33        19.39263
430.77        19.05522
431.22        18.86509
431.66        18.88225
432.11        18.97987
432.56        19.13379
433.00        19.42869
433.45        19.67329
433.89        19.59279
434.34        19.31693
434.78        19.03673
435.23        18.73508
435.67        19.66586
436.12        19.07817
436.57        19.02091
437.01        18.76399
437.46        18.67284
437.90        18.76495
438.35         18.8738
438.79        18.95202
439.24        19.00805
439.68        19.02848
440.13        18.85966
440.57        18.61367
441.02        18.77353
441.46        19.16448
441.91        19.19354
442.35        18.42938
442.80        18.18117
443.24        18.26458
443.69        18.27135
444.13        18.16141
444.58        18.07641
445.02        18.02088
445.47        18.00623
445.91        18.01375
446.36        17.97113
446.80        17.86811
447.24         17.7492
447.69        17.64135
448.13        17.54723
448.58        17.48111
449.02        17.43808
449.47        17.40866
449.91        17.36972
450.36        17.32203
450.80        17.26938
451.25        17.23067
451.69         17.2165
452.13        17.23386
452.58        17.26919
453.02        17.31323
453.47        17.35406
453.91        17.38734
454.36        17.41459
454.80        17.42644
455.24        17.40724
455.69        17.36308
456.13        17.28052
456.58        17.19898
457.02        17.16752
457.46        17.19108
457.91        17.21641
458.35        17.22065
458.79        17.21271
459.24        17.18365
459.68        17.13696
460.13        17.13402
460.57        17.10612
461.01         17.0412
461.46        17.39909
461.90        17.48875
462.34        17.30323
462.79        17.41421
463.23        17.24154
463.68        17.08118
464.12        16.96021
464.56        17.03404
465.01        17.16851
465.45        17.29996
465.89        17.35346
466.34        17.31888
466.78        17.16338
467.22        16.96991
467.67        16.99243
468.11        17.20289
468.55        17.24912
468.99        17.12374
469.44        17.09702
469.88        17.17051
470.32        17.17967
470.77        17.12154
471.21        17.07835
471.65        17.05662
472.10        17.03605
472.54        17.01818
472.98        17.04252
473.42        17.10841
473.87        17.15617
474.31         17.1853
474.75        17.29848
475.20        17.45648
475.64        17.46583
476.08        17.36401
476.52        17.36573
476.97        17.48032
477.41        17.60608
477.85        17.69846
478.29        17.73815
478.74        17.71901
479.18        17.61864
479.62        17.51287
480.06        17.52489
480.50        17.65085
480.95        17.77221
481.39          17.843
481.83        17.87586
482.27        17.86454
482.72        17.80653
483.16        17.73312
483.60        17.71592
484.04        17.77136
484.48        17.89668
484.93         18.1205
485.37        18.33467
485.81        18.43846
486.25        18.89898
486.69        19.64417
487.14        19.04927
487.58        18.83703
488.02        19.42741
488.46        19.04259
488.90        19.13986
489.34        19.02181
489.79         19.1339
490.23        19.40201
490.67        19.55461
491.11        19.58265
491.55        19.56545
491.99        19.53891
492.43         19.5494
492.88        19.61666
493.32        19.70015
493.76        19.81054
494.20        19.97809
494.64        20.20046
495.08        20.48127
495.52        20.77477
495.96         20.9787
496.41        21.10298
496.85         21.2262
497.29        21.36758
497.73        21.56921
498.17        21.80416
498.61        21.90509
499.05         21.8935
499.49        21.99712
499.93        22.23331
500.37        22.41534
500.82         22.5467
501.26        22.81746
501.70        23.16835
502.14        23.28564
502.58        23.19306
503.02        23.19588
503.46        23.31407
503.90        23.38194
504.34        23.38531
504.78        23.38106
505.22        23.37231
505.66        23.35176
506.10        23.34174
506.54        23.37216
506.98        23.45127
507.42        23.57755
507.86        23.72574
508.30        23.85228
508.74        23.94293
509.18        23.99989
509.62        24.05418
510.06        24.15742
510.50        24.31746
510.94        24.52061
511.38        24.70455
511.82        24.76907
512.26        24.69752
512.70        24.52245
513.14         24.3372
513.58        24.28535
514.02        24.39063
514.46        24.60975
514.90        24.85152
515.34        24.90529
515.78        24.77549
516.22        24.57951
516.66         24.4169
517.10        24.10866
517.54        23.68629
517.98        24.21221
518.42        24.08207
518.86        24.32871
519.30         24.4528
519.74        24.61207
520.18         24.7528
520.62        24.76723
521.06        24.66104
521.50        24.44888
521.93        24.20418
522.37        24.05828
522.81        24.04191
523.25        24.11872
523.69        24.23038
524.13        24.28361
524.57        24.25049
525.01        24.15842
525.45         24.0389
525.89        23.94016
526.32        23.87745
526.76        23.83791
527.20         23.7973
527.64        23.72444
528.08        23.61188
528.52        23.46749
528.96        23.32851
529.40        23.24763
529.83        23.23156
530.27        23.27147
530.71        23.30207
531.15          23.223
531.59        23.02263
532.03        22.73762
532.46        22.45984
532.90        22.35077
533.34        22.43088
533.78        22.64174
534.22         22.8842
534.66         23.0056
535.09        22.96355
535.53         22.8154
535.97        22.61576
536.41         22.4487
536.85        22.34685
537.28        22.29546
537.72        22.29529
538.16        22.28009
538.60        22.35016
539.04         22.4141
539.47        22.48149
539.91        22.57285
540.35        22.69703
540.79        22.65401
541.22        22.74242
541.66        22.81164
542.10          22.971
542.54        22.84912
542.97        23.05347
543.41        23.16199
543.85        23.33894
544.29        23.52263
544.72        23.68242
545.16        23.83996
545.60        23.98389
546.04        24.03537
546.47        24.06492
546.91        24.33604
547.35        24.78822
547.79        25.10325
548.22        25.23914
548.66        25.30326
549.10        25.34574
549.53        25.53889
549.97        25.89746
550.41        25.97278
550.84        26.24136
551.28        26.43939
551.72        26.71567
552.15        26.98524
552.59        27.24119
553.03        27.49433
553.46        27.70754
553.90        27.85054
554.34        27.91877
554.77        27.93991
555.21        27.93415
555.65        27.98951
556.08        28.10866
556.52         28.2712
556.96        28.44458
557.39        28.61237
557.83        28.75333
558.27         28.8086
558.70        28.80232
559.14        28.83201
559.57        28.90056
560.01        28.99281
560.45        29.08788
560.88        29.11796
561.32        29.13655
561.75        29.22593
562.19        29.47059
562.63         29.5817
563.06        29.57965
563.50         29.5626
563.93        29.56152
564.37        29.68075
564.80        29.79341
565.24        29.99676
565.68        30.20377
566.11        30.38606
566.55        30.55005
566.98        30.64198
567.42        30.65688
567.85         30.9889
568.29        30.84297
568.72        31.13247
569.16        31.54721
569.60         31.8455
570.03        31.99349
570.47        32.13256
570.90        32.12909
571.34        32.60365
571.77        32.51615
572.21        32.79871
572.64        33.17115
573.08        33.20704
573.51        33.51292
573.95        34.07212
574.38        34.25259
574.82         34.5242
