SpectraSmart Spectrum 2.9.0.0
--------- Device Information -----------
Spectrum Name :  反射率_0
Saving Time :  2024/04/19 23:51:10
Spectro-Module Model Name : SE2030-DUVN
Spectro-Module Serial Number : OS361AC55029948
Wavelength Start : 200
Wavelength End : 1025
Wavelength Unit : Wavelength(nm)
Spectrum Unit : Reflectance(%)
-----------Spectrum Setting ------------
Integration Time : 30ms
Average : 10
Boxcar : 0
Background removal :  enabled
linearity correction :  enabled
SC :  disabled
Intensity correction :  disabled
DWT denoise :  enabled
savitzky-golay :  disabled
FFT :  disabled
Running average :  disabled
Kalman :  disabled
High pass :  disabled
---------------BEGIN--------------------
Wavelength(nm)             Reflectance(%)
200.29               0
200.75        62.16468
201.21        67.72725
201.67        76.74507
202.13        86.67151
202.58        95.54644
203.04        103.4253
203.50        107.6354
203.96        103.8611
204.42        94.47669
204.88        83.81877
205.34         75.2504
205.80        69.74032
206.26        66.08118
206.72        63.10326
207.18        61.00306
207.64        61.49057
208.10        65.49104
208.55        72.00886
209.01        76.89085
209.47        77.78242
209.93         75.3793
210.39        70.88842
210.85        66.19199
211.31         63.2799
211.77        62.38253
212.23        63.11692
212.69        65.30212
213.14        67.59187
213.60        68.45157
214.06        68.81547
214.52        69.39108
214.98        71.01244
215.44        73.73978
215.90        77.11069
216.36        80.96415
216.81        84.30571
217.27         86.1411
217.73        87.04808
218.19        86.33485
218.65        82.90147
219.11        76.78528
219.57        67.90924
220.02        58.77621
220.48        56.01039
220.94        61.67147
221.40          74.396
221.86        89.02499
222.32        97.65498
222.77        98.41227
223.23        93.86554
223.69        87.71376
224.15         85.3835
224.61        87.42593
225.06        91.21186
225.52        94.89674
225.98        96.85078
226.44         97.0392
226.90        96.26437
227.36         95.0535
227.81        94.09312
228.27        93.89198
228.73        93.93936
229.19        93.97356
229.65        93.71761
230.10        93.10956
230.56        92.60087
231.02        92.13417
231.48         91.7151
231.93        91.29964
232.39        90.87203
232.85        90.59987
233.31        90.86487
233.77        91.64063
234.22        92.78414
234.68        93.70467
235.14        93.30873
235.60        91.43337
236.05        88.51579
236.51        85.34808
236.97        83.02947
237.43        81.83131
237.88        81.70043
238.34        82.20411
238.80        82.86808
239.26        83.17413
239.71        83.27457
240.17        82.88722
240.63        82.11496
241.08        81.05708
241.54        79.52738
242.00        77.32774
242.46         73.9043
242.91        68.75288
243.37        60.72963
243.83        50.00868
244.28        42.12038
244.74        43.26748
245.20        53.35835
245.66        64.65093
246.11        69.84553
246.57        68.20924
247.03        60.62063
247.48        48.87576
247.94        44.58339
248.40        50.03362
248.85        57.37345
249.31        62.96955
249.77        66.27702
250.22         68.0274
250.68        69.14532
251.14        69.84288
251.59        70.02421
252.05        69.82099
252.51        69.30149
252.96        68.25605
253.42        66.77193
253.88        65.33018
254.33        64.31603
254.79        65.05958
255.25        68.50559
255.70        74.04356
256.16        80.48172
256.62        86.37403
257.07        90.15751
257.53        91.87144
257.99        92.02113
258.44        90.48268
258.90        88.13821
259.35        85.29579
259.81         83.0722
260.27        81.40925
260.72        80.24233
261.18        79.78941
261.63        79.42793
262.09        79.64588
262.55        80.44421
263.00        81.48719
263.46        82.78409
263.91        83.50803
264.37        83.18734
264.83        81.80988
265.28         79.6228
265.74        77.51622
266.19        76.13496
266.65        75.73378
267.11        75.89796
267.56        76.19209
268.02        76.02424
268.47        75.23282
268.93        74.07026
269.38        72.69976
269.84        71.58293
270.30         70.8261
270.75        70.27518
271.21        69.82718
271.66        69.29501
272.12        68.61425
272.57        67.82028
273.03        66.95988
273.48        65.98218
273.94        64.98439
274.39        63.94439
274.85         62.9512
275.31        62.02611
275.76        61.13935
276.22        60.31371
276.67        59.53285
277.13        58.94799
277.58        58.46687
278.04        58.11398
278.49        57.63678
278.95        56.82487
279.40        55.60419
279.86        54.19409
280.31        52.75564
280.77        51.73243
281.22         51.0981
281.68          50.777
282.13        50.54118
282.59        50.14994
283.04        49.50851
283.50        48.75084
283.95        47.93416
284.41        47.22777
284.86        46.62132
285.32         46.0973
285.77        45.58567
286.22        45.08327
286.68        44.59635
287.13        44.11451
287.59        43.65396
288.04        43.15533
288.50        42.64287
288.95         42.0787
289.41         41.5374
289.86        41.04334
290.32         40.6573
290.77        40.35196
291.22        40.10479
291.68        39.84568
292.13        39.55668
292.59        39.28032
293.04        39.08498
293.50        39.10947
293.95        39.35449
294.40        39.76503
294.86        40.22701
295.31        40.56883
295.77        40.74982
296.22        40.81877
296.68        40.84935
297.13        40.94622
297.58        41.15092
298.04        41.43122
298.49        41.75742
298.95        42.12876
299.40        42.50916
299.85        42.90088
300.31        43.27013
300.76        43.54817
301.21        43.72865
301.67        43.85931
302.12        43.93225
302.58        44.01551
303.03        44.09876
303.48        44.19047
303.94         44.3423
304.39        44.58419
304.84        44.92116
305.30         45.3247
305.75        45.69276
306.20        45.90044
306.66        45.94343
307.11         45.8432
307.57        45.68442
308.02        45.51244
308.47        45.37789
308.93         45.2587
309.38        45.16631
309.83        45.17551
310.29        45.27755
310.74        45.45071
311.19        45.57536
311.65        45.45612
312.10        45.06126
312.55        44.45948
313.00        43.82125
313.46        43.40901
313.91        43.26529
314.36        43.32565
314.82        43.45068
315.27        43.43808
315.72         43.2171
316.18        42.86619
316.63         42.4624
317.08        42.13308
317.53        41.91082
317.99        41.74331
318.44        41.58986
318.89        41.37927
319.35        41.09384
319.80         40.7646
320.25        40.42705
320.70        40.13481
321.16        39.89429
321.61        39.68761
322.06        39.47957
322.51        39.21964
322.97        38.88813
323.42        38.51391
323.87        38.11011
324.32        37.70465
324.78        37.30674
325.23        36.92307
325.68        36.56001
326.13        36.23435
326.59        35.95113
327.04        35.73555
327.49        35.56791
327.94        35.41794
328.39        35.27314
328.85        35.11064
329.30        34.99197
329.75        34.96988
330.20        35.04537
330.66        35.17418
331.11        35.28609
331.56        35.21281
332.01        34.92117
332.46        34.45662
332.92        33.93171
333.37        33.55674
333.82        33.40065
334.27         33.4316
334.72        33.56006
335.17        33.62476
335.63         33.5605
336.08        33.41228
336.53        33.26668
336.98         33.2832
337.43        33.48664
337.88        33.82083
338.34        34.09521
338.79         34.0546
339.24        33.63511
339.69        32.92629
340.14        32.18419
340.59        31.83547
341.05        31.97208
341.50        32.46685
341.95         33.0628
342.40        33.36034
342.85        33.26106
343.30        32.90121
343.75        32.43577
344.20        32.11713
344.66        32.02122
345.11        32.03338
345.56        32.11458
346.01        32.20805
346.46        32.27118
346.91         32.3387
347.36        32.32921
347.81        32.10156
348.26        31.65996
348.72        31.08121
349.17        30.49659
349.62         30.2047
350.07        30.27602
350.52        30.60592
350.97        31.06434
351.42        31.45393
351.87        31.69671
352.32        31.83491
352.77        31.84451
353.22        31.69223
353.67        31.39623
354.13        30.98489
354.58        30.52521
355.03        30.17115
355.48        29.96792
355.93        29.89253
356.38         29.9047
356.83        29.92642
357.28        29.92351
357.73        29.90664
358.18         29.8727
358.63        29.81838
359.08        29.74011
359.53        29.63059
359.98        29.47506
360.43        29.25728
360.88        28.98297
361.33        28.66562
361.78        28.35144
362.23        28.11502
362.68        27.97003
363.13        27.88793
363.58        27.81972
364.03        27.68638
364.48        27.46231
364.93        27.17024
365.38        26.82363
365.83        26.45081
366.28        26.07808
366.73        25.70888
367.18        25.37472
367.63        25.12178
368.08        24.95511
368.53        24.86027
368.98        24.80614
369.43        24.73772
369.88        24.63761
370.33        24.52178
370.78        24.38501
371.23        24.22542
371.68        24.04873
372.13        23.84468
372.58        23.65996
373.03        23.57681
373.48        23.60099
373.93        23.70245
374.38        23.78797
374.83        23.71228
375.28        23.44904
375.72        23.03883
376.17        22.59399
376.62        22.25621
377.07        22.07714
377.52        22.01891
377.97        22.03831
378.42        22.06571
378.87        22.07108
379.32        22.06752
379.77        22.06356
380.22        22.06927
380.67        22.08223
381.11        22.09366
381.56        22.05962
382.01        21.93541
382.46        21.71518
382.91        21.41275
383.36         21.0996
383.81        20.87905
384.26         20.7743
384.71         20.7735
385.15        20.78295
385.60           20.66
386.05        20.38413
386.50        20.00162
386.95        19.65488
387.40        19.56731
387.85        19.76548
388.29         20.1521
388.74        20.55035
389.19        20.70527
389.64        20.56786
390.09        20.21568
390.54        19.78874
390.98         19.5062
391.43         19.4462
391.88        19.52659
392.33        19.64064
392.78        19.63474
393.23        19.48576
393.67        19.24619
394.12         19.0275
394.57        18.91387
395.02        18.92366
395.47        19.01612
395.91         19.1409
396.36        19.19288
396.81        19.14866
397.26         19.0354
397.71        18.90117
398.15        18.80167
398.60        18.77653
399.05        18.79839
399.50         18.8249
399.95        18.79596
400.39        18.69979
400.84        18.55081
401.29         18.4113
401.74        18.39404
402.18        18.52487
402.63        18.75437
403.08        18.97465
403.53        19.01428
403.97        18.84205
404.42        18.52601
404.87        18.18323
405.32        18.00724
405.76        18.04552
406.21        18.23583
406.66        18.48383
407.11        18.64097
407.55        18.66609
408.00        18.60745
408.45        18.51089
408.90        18.40695
409.34        18.33736
409.79        18.37058
410.24         18.4527
410.68        18.42669
411.13        18.28595
411.58        18.11967
412.03        17.96505
412.47         17.8598
412.92        17.81918
413.37        17.82209
413.81        17.87187
414.26        17.98655
414.71        18.15013
415.15        18.36643
415.60        18.54097
416.05        18.54737
416.49        18.36185
416.94        18.02586
417.39        17.66409
417.83        17.48081
418.28        17.52772
418.73        17.73553
419.17        17.98759
419.62        18.08848
420.07        17.99684
420.51        17.78098
420.96        17.52536
421.41        17.34013
421.85        17.25578
422.30        17.24426
422.74        17.27995
423.19          17.358
423.64        17.45698
424.08        17.59038
424.53        17.71033
424.98        17.75792
425.42        17.72218
425.87        17.62034
426.31          17.482
426.76        17.36637
427.21        17.28058
427.65        17.20009
428.10        17.15258
428.54        17.15648
428.99        17.21379
429.44        17.39788
429.88        17.58766
430.33        17.47661
430.77        17.12352
431.22        16.88557
431.66        16.83887
432.11        16.90922
432.56         17.0838
433.00         17.4308
433.45        17.74687
433.89        17.71942
434.34        17.44525
434.78        17.11811
435.23        16.76128
435.67        17.54088
436.12        17.01338
436.57        16.99969
437.01        16.81623
437.46        16.73033
437.90        16.74593
438.35        16.73878
438.79        16.70126
439.24        16.69059
439.68        16.70765
440.13        16.60068
440.57        16.44109
441.02        16.61496
441.46        16.95641
441.91        16.95215
442.35          16.239
442.80        15.99653
443.24        16.06405
443.69         16.0741
444.13        15.97942
444.58        15.88814
445.02        15.80199
445.47        15.74128
445.91        15.70164
446.36          15.638
446.80        15.54634
447.24        15.45788
447.69         15.3922
448.13        15.34482
448.58        15.32362
449.02        15.32481
449.47        15.33071
449.91        15.30627
450.36        15.25047
450.80        15.17036
451.25        15.09721
451.69        15.06357
452.13        15.08134
452.58        15.13173
453.02        15.19548
453.47         15.2423
453.91        15.26429
454.36        15.26951
454.80        15.25819
455.24        15.23104
455.69        15.19746
456.13         15.1395
456.58        15.08638
457.02        15.07395
457.46        15.10447
457.91        15.13384
458.35        15.14329
458.79        15.14025
459.24        15.11882
459.68        15.08225
460.13        15.08743
460.57        15.07742
461.01         15.0414
461.46        15.38029
461.90        15.48452
462.34        15.34566
462.79        15.47004
463.23        15.34532
463.68        15.22301
464.12        15.10758
464.56        15.13831
465.01         15.2034
465.45        15.27462
465.89        15.32332
466.34        15.34524
466.78        15.30066
467.22        15.23144
467.67         15.3139
468.11        15.50935
468.55        15.51204
468.99        15.34991
469.44        15.32103
469.88        15.43862
470.32         15.5375
470.77        15.57552
471.21        15.56738
471.65        15.50671
472.10        15.39685
472.54        15.27862
472.98        15.25085
473.42        15.32776
473.87        15.43301
474.31        15.53349
474.75        15.67239
475.20        15.80227
475.64        15.76635
476.08        15.61759
476.52         15.5762
476.97         15.6585
477.41        15.76364
477.85        15.84771
478.29        15.88854
478.74        15.87634
479.18        15.79165
479.62        15.69965
480.06         15.7053
480.50        15.80458
480.95         15.8933
481.39        15.92796
481.83        15.91955
482.27        15.86126
482.72        15.74657
483.16        15.62688
483.60        15.58506
484.04        15.63101
484.48        15.81665
484.93        16.12894
485.37        16.22757
485.81         16.2477
486.25        16.69993
486.69        16.85118
487.14        16.63768
487.58        16.63405
488.02        17.06377
488.46        16.59107
488.90        16.59912
489.34         16.6705
489.79        16.77035
490.23        16.85678
490.67        17.01205
491.11        17.17393
491.55        17.08591
491.99        16.80798
492.43        16.67807
492.88        16.74025
493.32        16.80637
493.76         16.8658
494.20        16.98202
494.64        17.14783
495.08        17.34133
495.52        17.54087
495.96        17.72492
496.41         17.8843
496.85        17.98789
497.29        18.04778
497.73        18.17179
498.17        18.33858
498.61         18.3619
499.05        18.27393
499.49         18.3126
499.93        18.49938
500.37        18.66594
500.82        18.80088
501.26        19.04074
501.70        19.32845
502.14        19.40854
502.58          19.308
503.02        19.29173
503.46        19.37901
503.90        19.42796
504.34        19.42247
504.78        19.40329
505.22        19.37288
505.66        19.33051
506.10         19.2995
506.54        19.31153
506.98        19.37471
507.42        19.48254
507.86        19.61474
508.30         19.7365
508.74        19.83297
509.18        19.90517
509.62        19.96463
510.06        20.03164
510.50        20.11151
510.94        20.20225
511.38        20.27576
511.82        20.28823
512.26         20.2352
512.70        20.13013
513.14        20.03333
513.58        20.03509
514.02        20.14428
514.46        20.33476
514.90        20.52953
515.34        20.54671
515.78        20.38871
516.22        20.17732
516.66        20.01745
517.10        19.72791
517.54        19.33839
517.98        19.97026
518.42        19.90275
518.86        20.18379
519.30        20.27944
519.74        20.36867
520.18        20.42734
520.62        20.39457
521.06        20.29018
521.50        20.11556
521.93        19.92315
522.37        19.80954
522.81        19.79543
523.25         19.8559
523.69        19.94897
524.13        20.00536
524.57        20.00305
525.01        19.96109
525.45        19.89531
525.89        19.83097
526.32        19.77742
526.76        19.72747
527.20        19.67522
527.64        19.61745
528.08        19.55243
528.52         19.4805
528.96         19.4136
529.40        19.36622
529.83        19.33907
530.27        19.33359
530.71        19.31861
531.15        19.24692
531.59        19.11621
532.03        18.94498
532.46        18.78386
532.90        18.72818
533.34        18.78562
533.78        18.92063
534.22         19.0742
534.66        19.15551
535.09        19.13741
535.53        19.05554
535.97        18.93667
536.41         18.8211
536.85        18.72936
537.28        18.66124
537.72        18.63208
538.16        18.60864
538.60        18.68032
539.04        18.76064
539.47        18.85072
539.91        18.95821
540.35        19.08563
540.79        19.06736
541.22        19.14945
541.66        19.19636
542.10         19.3003
542.54        19.15231
542.97        19.27309
543.41        19.32747
543.85        19.45779
544.29        19.60905
544.72        19.74701
545.16        19.87455
545.60        19.97894
546.04        19.99953
546.47        20.00113
546.91        20.21379
547.35        20.58734
547.79        20.84872
548.22        20.95868
548.66        20.99965
549.10        21.01085
549.53        21.13931
549.97        21.38984
550.41        21.37903
550.84        21.50376
551.28        21.55609
551.72        21.68441
552.15        21.86202
552.59         22.0903
553.03        22.36119
553.46        22.61623
553.90        22.78924
554.34        22.86459
554.77        22.86187
555.21        22.83082
555.65        22.84032
556.08        22.90707
556.52        23.01073
556.96        23.12594
557.39        23.24256
557.83        23.34307
558.27        23.37901
558.70        23.37295
559.14        23.40504
559.57        23.47624
560.01        23.57472
560.45        23.66911
560.88         23.6822
561.32        23.65754
561.75        23.66932
562.19        23.81126
562.63        23.88949
563.06        23.92659
563.50        23.98648
563.93        24.06634
564.37        24.20615
564.80         24.2911
565.24        24.41568
565.68        24.52693
566.11        24.62741
566.55        24.73166
566.98        24.79282
567.42        24.80468
567.85        25.07138
568.29        24.95148
568.72        25.20958
569.16        25.58539
569.60        25.84375
570.03         25.9479
570.47        26.05239
570.90        26.05435
571.34        26.40225
571.77         26.2576
572.21        26.60373
572.64        26.79654
573.08        26.89544
573.51         27.1856
573.95        27.49619
574.38        27.67705
574.82        27.87218
