SpectraSmart Spectrum 2.9.0.0
--------- Device Information -----------
Spectrum Name :  反射率_0
Saving Time :  2024/04/20 00:23:33
Spectro-Module Model Name : SE2030-DUVN
Spectro-Module Serial Number : OS361AC55029948
Wavelength Start : 200
Wavelength End : 1025
Wavelength Unit : Wavelength(nm)
Spectrum Unit : Reflectance(%)
-----------Spectrum Setting ------------
Integration Time : 30ms
Average : 10
Boxcar : 0
Background removal :  enabled
linearity correction :  enabled
SC :  disabled
Intensity correction :  disabled
DWT denoise :  enabled
savitzky-golay :  disabled
FFT :  disabled
Running average :  disabled
Kalman :  disabled
High pass :  disabled
---------------BEGIN--------------------
Wavelength(nm)             Reflectance(%)
200.29               0
200.75        54.20628
201.21        56.35239
201.67        61.35209
202.13         67.9348
202.58        75.05526
203.04        83.01256
203.50        89.82296
203.96        90.85769
204.42         86.3915
204.88        79.62829
205.34        73.34432
205.80         68.5574
206.26        64.38159
206.72        59.45243
207.18        53.74111
207.64         50.4634
208.10        52.91409
208.55        60.32069
209.01         67.2591
209.47         69.7427
209.93        68.21101
210.39        64.26397
210.85        59.98676
211.31        57.63958
211.77        57.48615
212.23        58.97172
212.69        61.39597
213.14        62.33831
213.60        60.57078
214.06        58.32373
214.52        56.81657
214.98         56.6611
215.44        57.66507
215.90        59.27027
216.36        61.58222
216.81        64.47565
217.27        67.28323
217.73        70.01405
218.19        71.44714
218.65        69.93097
219.11        65.32082
219.57        57.66765
220.02        48.91901
220.48        44.73167
220.94        47.00871
221.40        54.83683
221.86        64.51894
222.32        70.24259
222.77        70.57471
223.23        67.38953
223.69        63.55563
224.15        63.12527
224.61        66.18025
225.06        70.56277
225.52        74.35814
225.98        76.02195
226.44        75.60586
226.90        73.83904
227.36        71.66518
227.81        70.56762
228.27        71.18949
228.73        72.76079
229.19        74.28233
229.65         74.6151
230.10        73.72081
230.56         72.2824
231.02        70.94637
231.48        70.55984
231.93         71.0835
232.39        72.13104
232.85        73.14314
233.31        73.34067
233.77        72.54376
234.22        71.08193
234.68        69.19398
235.14        67.23344
235.60        65.48478
236.05        63.91327
236.51        62.78175
236.97        62.44244
237.43        62.97704
237.88         64.6626
238.34        67.05392
238.80        69.00251
239.26          69.516
239.71        68.56394
240.17        66.65804
240.63        65.31466
241.08         65.0178
241.54        65.38551
242.00        65.74733
242.46        64.70107
242.91         61.4902
243.37        55.42175
243.83        47.05414
244.28        42.09287
244.74        46.04036
245.20        57.61175
245.66        68.77922
246.11        72.80502
246.57        69.00344
247.03        57.70126
247.48        41.34025
247.94        35.27537
248.40        42.54431
248.85         52.7488
249.31        60.32088
249.77        63.92234
250.22        64.57331
250.68        63.48604
251.14        61.43969
251.59        59.93474
252.05        60.09982
252.51        61.79893
252.96        63.77967
253.42        64.08817
253.88        62.61203
254.33         60.3872
254.79        60.02582
255.25        63.86907
255.70        71.15891
256.16        79.90567
256.62        87.56164
257.07        91.35963
257.53        91.45673
257.99        89.09418
258.44        85.13934
258.90        81.63962
259.35        78.85522
259.81        77.17337
260.27        75.96188
260.72        74.69628
261.18        73.58858
261.63        72.23662
262.09        71.39323
262.55        71.46192
263.00        72.18114
263.46        73.39218
263.91        74.02267
264.37         73.2404
264.83        71.07769
265.28        67.96585
265.74        65.07418
266.19        63.48239
266.65        63.42406
267.11        64.28645
267.56        65.33935
268.02        65.57318
268.47        64.75778
268.93        63.26677
269.38         61.4397
269.84        60.03824
270.30        59.26995
270.75        58.89914
271.21        58.69618
271.66        58.30463
272.12        57.61557
272.57         56.7292
273.03        55.80582
273.48         54.9704
273.94        54.32151
274.39        53.75777
274.85        53.18768
275.31        52.40923
275.76        51.37027
276.22        50.17831
276.67        48.98528
277.13        48.16195
277.58         47.6808
278.04        47.48107
278.49        47.22556
278.95        46.54887
279.40        45.36245
279.86        43.92738
280.31        42.47678
280.77        41.51929
281.22        41.05081
281.68        40.94196
282.13        40.93574
282.59        40.72864
283.04        40.22335
283.50        39.57535
283.95        38.86313
284.41        38.26178
284.86        37.78405
285.32        37.40312
285.77        37.08322
286.22        36.86051
286.68        36.72781
287.13        36.65128
287.59        36.59003
288.04        36.42651
288.50        36.16438
288.95         35.7865
289.41        35.37848
289.86        34.98986
290.32        34.69218
290.77        34.46196
291.22        34.28849
291.68         34.1172
292.13        33.94518
292.59        33.82046
293.04        33.81523
293.50        34.06283
293.95         34.5612
294.40        35.24597
294.86        36.00746
295.31        36.68372
295.77         37.2288
296.22        37.68676
296.68        38.09237
297.13        38.48703
297.58        38.90591
298.04        39.34082
298.49        39.82478
298.95        40.45681
299.40        41.22091
299.85        42.08047
300.31        42.95193
300.76        43.68827
301.21        44.25776
301.67        44.73564
302.12        45.11896
302.58        45.48621
303.03        45.83837
303.48        46.17847
303.94        46.59165
304.39        47.15962
304.84        47.88964
305.30        48.73501
305.75        49.53599
306.20        50.07851
306.66        50.34259
307.11        50.37815
307.57        50.32178
308.02        50.29392
308.47        50.36657
308.93        50.49224
309.38        50.65881
309.83        50.91005
310.29        51.22787
310.74        51.60492
311.19        51.91602
311.65        51.95339
312.10        51.68264
312.55        51.16864
313.00        50.61211
313.46        50.32638
313.91        50.36059
314.36        50.64013
314.82        50.96923
315.27        51.05272
315.72        50.80232
316.18        50.33127
316.63        49.79069
317.08         49.4267
317.53        49.29647
317.99        49.30843
318.44        49.35672
318.89        49.26036
319.35        48.96819
319.80        48.54569
320.25        48.07288
320.70        47.67367
321.16        47.38005
321.61        47.16055
322.06        46.95628
322.51        46.68108
322.97         46.3047
323.42        45.86708
323.87          45.417
324.32        45.03794
324.78        44.74307
325.23        44.52271
325.68        44.30974
326.13        44.00219
326.59        43.58078
327.04        43.11287
327.49        42.66879
327.94        42.36848
328.39        42.23856
328.85        42.20753
329.30        42.27588
329.75        42.37267
330.20        42.45239
330.66        42.50605
331.11        42.48719
331.56        42.26013
332.01        41.81173
332.46        41.17565
332.92        40.48182
333.37        39.98476
333.82        39.76256
334.27        39.78272
334.72        39.93727
335.17        40.02303
335.63        39.95857
336.08        39.80214
336.53        39.64355
336.98        39.65461
337.43        39.86317
337.88        40.20163
338.34        40.48045
338.79        40.45316
339.24        40.05248
339.69        39.36483
340.14        38.63057
340.59        38.24874
341.05        38.31121
341.50        38.70766
341.95        39.19928
342.40        39.41361
342.85        39.26056
343.30         38.8635
343.75        38.38598
344.20        38.09437
344.66        38.05724
345.11        38.15267
345.56        38.29742
346.01        38.36266
346.46        38.30135
346.91        38.18387
347.36        37.98476
347.81        37.64843
348.26         37.2006
348.72        36.68407
349.17        36.21947
349.62        36.08217
350.07        36.31541
350.52        36.81247
350.97        37.38796
351.42        37.76437
351.87        37.85711
352.32        37.73294
352.77        37.44613
353.22        37.09313
353.67        36.72789
354.13        36.34922
354.58        35.96162
355.03        35.61823
355.48        35.33831
355.93        35.13004
356.38        35.00085
356.83        34.94614
357.28        34.94551
357.73        34.97804
358.18        34.99146
358.63        34.90778
359.08        34.70671
359.53        34.41222
359.98        34.05405
360.43        33.67841
360.88        33.31045
361.33        32.94859
361.78        32.62115
362.23         32.3732
362.68        32.20964
363.13        32.11162
363.58        32.03976
364.03        31.92953
364.48        31.75196
364.93        31.51139
365.38        31.20248
365.83        30.82827
366.28        30.40453
366.73        29.94325
367.18        29.47637
367.63        29.05032
368.08        28.68408
368.53        28.37819
368.98        28.12792
369.43        27.91453
369.88        27.72824
370.33         27.5727
370.78         27.4359
371.23        27.30123
371.68        27.16269
372.13        27.01226
372.58        26.86746
373.03        26.76503
373.48        26.70494
373.93        26.66847
374.38        26.61149
374.83        26.46624
375.28        26.21955
375.72        25.88742
376.17        25.53417
376.62        25.22154
377.07        24.98204
377.52        24.80745
377.97        24.68907
378.42        24.61069
378.87        24.55789
379.32        24.52291
379.77        24.50547
380.22        24.50388
380.67        24.50781
381.11        24.51597
381.56        24.47093
382.01        24.30306
382.46        24.00942
382.91        23.61867
383.36        23.22847
383.81        22.98425
384.26        22.91467
384.71        22.98333
385.15        23.08737
385.60         23.0715
386.05        22.90051
386.50        22.62451
386.95         22.3407
387.40        22.20365
387.85        22.24161
388.29        22.38648
388.74        22.54985
389.19        22.59732
389.64        22.49781
390.09         22.2908
390.54        22.03987
390.98        21.83668
391.43        21.73261
391.88        21.69336
392.33        21.67004
392.78        21.59235
393.23        21.45391
393.67        21.26814
394.12        21.12576
394.57         21.0815
395.02        21.14364
395.47        21.28456
395.91        21.44305
396.36        21.48929
396.81        21.39974
397.26        21.20766
397.71        20.99298
398.15         20.8591
398.60        20.85458
399.05        20.93526
399.50        21.02799
399.95        21.02728
400.39        20.91127
400.84        20.70641
401.29        20.49658
401.74         20.4335
402.18        20.55683
402.63        20.80753
403.08        21.05723
403.53         21.1025
403.97        20.90669
404.42        20.55028
404.87        20.17399
405.32        20.00878
405.76        20.10581
406.21        20.38346
406.66        20.72008
407.11        20.92658
407.55         20.9507
408.00        20.85563
408.45        20.69473
408.90        20.50855
409.34        20.35566
409.79        20.31644
410.24        20.35133
410.68        20.31508
411.13        20.20264
411.58        20.10323
412.03        20.03543
412.47        19.99793
412.92        19.99416
413.37         20.0146
413.81        20.07108
414.26        20.19968
414.71        20.38821
415.15        20.62648
415.60        20.82747
416.05        20.88001
416.49        20.75824
416.94        20.50321
417.39        20.19936
417.83        19.98492
418.28        19.90751
418.73        19.92376
419.17        19.98901
419.62        20.02054
420.07        19.99684
420.51        19.94603
420.96         19.8861
421.41         19.8197
421.85        19.74925
422.30        19.68587
422.74        19.63907
423.19        19.65864
423.64        19.74036
424.08        19.87848
424.53         20.0239
424.98        20.12079
425.42        20.15212
425.87        20.13526
426.31        20.07915
426.76        20.00819
427.21        19.92382
427.65        19.81173
428.10         19.7185
428.54        19.69652
428.99        19.75904
429.44        19.97567
429.88        20.21576
430.33        20.14093
430.77        19.81146
431.22        19.63659
431.66        19.66886
432.11        19.76029
432.56        19.88172
433.00        20.12135
433.45        20.29944
433.89         20.1709
434.34        19.88243
434.78        19.62329
435.23        19.34566
435.67        20.30133
436.12        19.64289
436.57        19.49774
437.01        19.15023
437.46        19.03522
437.90        19.18212
438.35        19.39946
438.79        19.59248
439.24         19.6984
439.68        19.68667
440.13        19.42233
440.57        19.06128
441.02        19.15737
441.46        19.54725
441.91        19.60822
442.35        18.87347
442.80        18.64753
443.24        18.73497
443.69        18.72732
444.13        18.59727
444.58        18.50918
445.02        18.47308
445.47        18.49566
445.91        18.54107
446.36        18.50986
446.80        18.38822
447.24        18.23008
447.69        18.09124
448.13        18.01751
448.58        18.02856
449.02        18.10284
449.47        18.19269
449.91        18.21369
450.36        18.15266
450.80        18.03348
451.25        17.90808
451.69         17.8388
452.13        17.84633
452.58        17.89921
453.02        17.97066
453.47        18.02261
453.91        18.04218
454.36        18.04215
454.80        18.01701
455.24        17.95516
455.69        17.86975
456.13        17.74899
456.58        17.63995
457.02        17.60315
457.46         17.6438
457.91        17.70057
458.35        17.74753
458.79        17.79054
459.24        17.81454
459.68        17.82166
460.13        17.85931
460.57        17.83114
461.01        17.72327
461.46        18.02389
461.90        18.03992
462.34        17.80621
462.79        17.92093
463.23        17.77681
463.68          17.663
464.12        17.57879
464.56        17.67414
465.01         17.8187
465.45        17.95187
465.89        18.00379
466.34        17.96741
466.78        17.80572
467.22        17.60545
467.67        17.63267
468.11        17.85899
468.55        17.91885
468.99        17.80541
469.44        17.79969
469.88        17.90318
470.32         17.9447
470.77        17.91341
471.21        17.88478
471.65        17.86188
472.10        17.82025
472.54        17.77477
472.98        17.78822
473.42        17.86292
473.87        17.93398
474.31        17.97246
474.75        18.04159
475.20        18.09868
475.64         17.9635
476.08        17.72615
476.52        17.67983
476.97        17.84606
477.41        18.09563
477.85        18.33791
478.29         18.4773
478.74        18.48219
479.18        18.35023
479.62        18.18381
480.06        18.14398
480.50        18.23513
480.95         18.3411
481.39         18.4151
481.83        18.42116
482.27        18.33744
482.72        18.37668
483.16        18.21613
483.60        18.21922
484.04        18.29407
484.48        18.49927
484.93        18.82305
485.37        18.95206
485.81         19.0911
486.25         19.4617
486.69        19.99356
487.14        19.68437
487.58        19.45038
488.02        20.13097
488.46        19.53693
488.90        19.46329
489.34        19.25319
489.79        19.38804
490.23        19.77387
490.67        20.04943
491.11        20.13951
491.55        20.01915
491.99        19.77229
492.43        19.66843
492.88        19.75619
493.32        19.86158
493.76        19.96745
494.20        20.13043
494.64        20.34017
495.08        20.57342
495.52        20.80375
495.96        21.00656
496.41        21.17405
496.85        21.27074
497.29        21.31935
497.73        21.46018
498.17        21.67015
498.61        21.72367
499.05        21.65378
499.49        21.73351
499.93        21.98315
500.37        22.20444
500.82        22.37557
501.26        22.64607
501.70        22.94885
502.14         22.9855
502.58        22.80816
503.02        22.76046
503.46        22.87152
503.90        22.96568
504.34        23.00749
504.78        23.01722
505.22        22.98872
505.66        22.92825
506.10        22.87259
506.54        22.87411
506.98        22.94814
507.42        23.08397
507.86        23.25196
508.30        23.40256
508.74        23.51724
509.18        23.60019
509.62        23.67619
510.06        23.78629
510.50        23.93691
510.94        24.11609
511.38        24.27135
511.82        24.32008
512.26        24.24978
512.70        24.08824
513.14        23.91976
513.58        23.87238
514.02        23.96702
514.46        24.16786
514.90        24.38962
515.34        24.43156
515.78        24.29976
516.22        24.10738
516.66        23.95658
517.10        23.67193
517.54        23.28255
517.98        23.85409
518.42        23.75691
518.86        24.00174
519.30        24.08374
519.74        24.17105
520.18        24.23376
520.62        24.20182
521.06        24.09106
521.50        23.90633
521.93        23.70443
522.37        23.58801
522.81        23.57987
523.25        23.65371
523.69        23.76092
524.13        23.82321
524.57        23.81596
525.01         23.7579
525.45        23.67654
525.89        23.61533
526.32        23.58628
526.76        23.57891
527.20        23.56275
527.64        23.49637
528.08        23.37234
528.52        23.20202
528.96        23.03703
529.40         22.9525
529.83        22.95955
530.27        23.04336
530.71        23.12366
531.15        23.07514
531.59        22.88045
532.03        22.58422
532.46        22.29111
532.90         22.1832
533.34        22.28475
533.78        22.52739
534.22         22.8027
534.66        22.94477
535.09        22.90695
535.53        22.75241
535.97        22.53547
536.41        22.33919
536.85        22.19925
537.28        22.10249
537.72        22.06152
538.16        22.02905
538.60        22.10854
539.04        22.20647
539.47        22.31748
539.91        22.43861
540.35        22.57189
540.79        22.52076
541.22        22.59703
541.66        22.67536
542.10        22.86736
542.54        22.79456
542.97        23.03584
543.41        23.12969
543.85        23.23432
544.29        23.30328
544.72         23.3429
545.16        23.42867
545.60        23.56128
546.04        23.64841
546.47        23.72561
546.91        23.99869
547.35        24.39401
547.79        24.61349
548.22         24.6503
548.66        24.65876
549.10        24.69644
549.53        24.91569
549.97        25.29796
550.41        25.35135
550.84        25.53086
551.28        25.59957
551.72         25.7436
552.15        25.94571
552.59        26.21425
553.03        26.53582
553.46        26.83595
553.90        27.03134
554.34        27.10413
554.77        27.08257
555.21        27.03763
555.65        27.06965
556.08        27.19872
556.52        27.38898
556.96        27.59272
557.39        27.77103
557.83        27.89652
558.27        27.92155
558.70        27.87838
559.14        27.87302
559.57        27.91366
560.01        27.98435
560.45        28.06251
560.88        28.07771
561.32        28.08118
561.75        28.15774
562.19        28.39445
562.63        28.51138
563.06        28.53139
563.50        28.56459
563.93        28.62106
564.37        28.75208
564.80        28.82845
565.24        28.96787
565.68        29.10219
566.11        29.22127
566.55        29.34045
566.98        29.40894
567.42        29.42006
567.85        29.74168
568.29        29.60986
568.72        29.91364
569.16        30.35324
569.60         30.6734
570.03        30.82704
570.47        30.99125
570.90        31.02649
571.34        31.43423
571.77        31.21539
572.21        31.62422
572.64         31.7286
573.08        31.90769
573.51         32.0849
573.95        32.49099
574.38        32.89701
574.82        33.14545
