SpectraSmart Spectrum 2.9.0.0
--------- Device Information -----------
Spectrum Name :  反射率_0
Saving Time :  2024/04/20 00:55:44
Spectro-Module Model Name : SE2030-DUVN
Spectro-Module Serial Number : OS361AC55029948
Wavelength Start : 200
Wavelength End : 1025
Wavelength Unit : Wavelength(nm)
Spectrum Unit : Reflectance(%)
-----------Spectrum Setting ------------
Integration Time : 30ms
Average : 10
Boxcar : 0
Background removal :  enabled
linearity correction :  enabled
SC :  disabled
Intensity correction :  disabled
DWT denoise :  enabled
savitzky-golay :  disabled
FFT :  disabled
Running average :  disabled
Kalman :  disabled
High pass :  disabled
---------------BEGIN--------------------
Wavelength(nm)             Reflectance(%)
200.29               0
200.75         60.1219
201.21        60.72845
201.67        63.55861
202.13        69.31281
202.58        78.03206
203.04        89.92421
203.50        101.2479
203.96        103.0962
204.42        95.38235
204.88        84.01389
205.34        74.02201
205.80        67.45765
206.26        63.17815
206.72        59.69357
207.18        56.75467
207.64        55.39539
208.10        56.90881
208.55        61.27678
209.01        65.96808
209.47        69.71053
209.93        72.33856
210.39         73.8506
210.85        74.36238
211.31        74.13716
211.77         73.2524
212.23        71.71911
212.69        69.40176
213.14        67.13883
213.60        65.66212
214.06        65.32059
214.52        65.94972
214.98        67.51265
215.44        69.84448
215.90        72.80343
216.36        75.91689
216.81        77.63579
217.27        77.07439
217.73        74.99399
218.19         71.5622
218.65        66.74152
219.11        60.64918
219.57        53.10296
220.02        45.67653
220.48        43.00599
220.94         46.4252
221.40        55.11589
221.86        65.54671
222.32        72.25983
222.77        73.81035
223.23         71.7983
223.69        68.48821
224.15        67.27206
224.61        68.55436
225.06        70.80125
225.52        72.89497
225.98        73.97178
226.44        74.02277
226.90         73.5201
227.36        72.82931
227.81        72.37717
228.27        72.52576
228.73        72.88332
229.19        73.14425
229.65        72.97462
230.10        72.35884
230.56        71.65535
231.02        70.98329
231.48        70.54141
231.93        70.29926
232.39        70.17213
232.85        70.13737
233.31        70.23493
233.77        70.42786
234.22        70.72981
234.68        70.89867
235.14        70.42158
235.60        69.28206
236.05        67.70473
236.51        66.22167
236.97        65.62156
237.43        66.16367
237.88        67.98955
238.34        70.75019
238.80        73.51346
239.26        75.25599
239.71        75.89507
240.17        75.42632
240.63        74.68809
241.08        74.08895
241.54        73.35634
242.00        72.30116
242.46        70.39648
242.91        67.27197
243.37        62.29285
243.83        56.06634
244.28        53.21337
244.74        57.74662
245.20        68.31538
245.66        78.05623
246.11        81.52947
246.57         78.2466
247.03        68.43461
247.48        53.68118
247.94        46.83052
248.40        51.34567
248.85        58.74136
249.31        64.58193
249.77        67.75936
250.22        68.94659
250.68        69.22461
251.14        68.61595
251.59        66.83215
252.05        64.23478
252.51        61.07977
252.96        58.15699
253.42        57.14207
253.88         58.5139
254.33        61.64122
254.79        66.52417
255.25         72.8961
255.70        80.06768
256.16        87.31576
256.62        93.40702
257.07        97.02621
257.53        98.37506
257.99        97.90501
258.44        95.67043
258.90        92.85973
259.35        89.72856
259.81        87.30022
260.27        85.33109
260.72        83.55981
261.18        82.22227
261.63        80.77592
262.09        79.81413
262.55        79.51312
263.00        79.64166
263.46        80.19177
263.91        80.32001
264.37        79.50037
264.83        77.70005
265.28        75.16715
265.74        72.80275
266.19        71.29177
266.65        70.85491
267.11        71.04132
267.56        71.32941
268.02        70.99982
268.47        69.87619
268.93        68.24277
269.38        66.34959
269.84        64.81984
270.30        63.81823
270.75        63.15926
271.21        62.67165
271.66        62.06357
272.12        61.23778
272.57        60.26763
273.03        59.24793
273.48         58.2064
273.94        57.24738
274.39         56.3224
274.85        55.44948
275.31        54.57183
275.76        53.65095
276.22          52.729
276.67        51.86326
277.13        51.29277
277.58        50.94505
278.04        50.79837
278.49        50.53281
278.95        49.82273
279.40        48.58767
279.86          47.074
280.31        45.52588
280.77        44.48111
281.22        43.93632
281.68        43.77194
282.13        43.70081
282.59        43.37471
283.04        42.69851
283.50        41.85633
283.95        40.97909
284.41        40.32247
284.86         39.9039
285.32        39.65995
285.77        39.50152
286.22        39.38771
286.68        39.28766
287.13        39.18781
287.59        39.06437
288.04        38.81771
288.50        38.46909
288.95         38.0028
289.41        37.51997
289.86        37.09429
290.32        36.80458
290.77        36.61713
291.22        36.52446
291.68        36.47407
292.13        36.45113
292.59        36.49916
293.04        36.64819
293.50        36.97021
293.95        37.45631
294.40        38.06578
294.86        38.74372
295.31        39.41596
295.77        40.05704
296.22        40.68067
296.68         41.2821
297.13        41.83822
297.58         42.3562
298.04        42.84174
298.49        43.33321
298.95        43.93981
299.40        44.65751
299.85        45.45937
300.31        46.27178
300.76        46.95909
301.21        47.50449
301.67        47.99038
302.12          48.439
302.58         48.9694
303.03        49.57379
303.48         50.2296
303.94         50.9721
304.39        51.80386
304.84        52.71222
305.30        53.67376
305.75        54.54551
306.20        55.14806
306.66        55.47992
307.11        55.58032
307.57        55.60753
308.02        55.70654
308.47        55.95308
308.93        56.29535
309.38        56.68444
309.83        57.11296
310.29        57.54765
310.74         57.9822
311.19        58.32324
311.65         58.4142
312.10        58.22764
312.55        57.81778
313.00        57.33498
313.46        57.01451
313.91         56.8977
314.36        56.94014
314.82        57.03106
315.27        57.01522
315.72        56.83272
316.18         56.5519
316.63        56.22564
317.08         55.9543
317.53         55.7589
317.99        55.58913
318.44        55.40899
318.89        55.15178
319.35        54.80202
319.80        54.39342
320.25        53.95402
320.70        53.52754
321.16        53.12378
321.61        52.73721
322.06        52.36142
322.51         51.9924
322.97        51.61578
323.42        51.24482
323.87        50.85678
324.32        50.42211
324.78        49.92778
325.23        49.40187
325.68        48.85458
326.13        48.31819
326.59        47.80816
327.04        47.34732
327.49         46.9385
327.94        46.59158
328.39         46.2965
328.85        46.01641
329.30        45.77888
329.75        45.55595
330.20         45.3344
330.66        45.09894
331.11        44.83067
331.56        44.43345
332.01        43.89704
332.46        43.24656
332.92        42.57446
333.37        42.06855
333.82        41.77938
334.27        41.68161
334.72        41.68057
335.17        41.60422
335.63        41.38644
336.08        41.08363
336.53        40.78303
336.98         40.6527
337.43        40.72483
337.88        40.94013
338.34        41.13285
338.79         41.0888
339.24        40.74154
339.69        40.16202
340.14        39.54495
340.59        39.21597
341.05        39.24411
341.50        39.53291
341.95        39.88322
342.40        39.98673
342.85           39.77
343.30        39.34232
343.75        38.83508
344.20        38.46118
344.66        38.28397
345.11        38.20839
345.56        38.19811
346.01        38.19586
346.46        38.16533
346.91         38.1416
347.36        38.05645
347.81        37.79145
348.26        37.35053
348.72        36.79556
349.17        36.24516
349.62        35.97514
350.07         36.0436
350.52        36.35053
350.97        36.75417
351.42        37.03995
351.87        37.13485
352.32        37.09324
352.77        36.92556
353.22        36.65367
353.67        36.31093
354.13        35.91262
354.58        35.50273
355.03        35.19703
355.48        35.02828
355.93        34.98502
356.38        35.02618
356.83        35.07555
357.28        35.09652
357.73        35.08398
358.18         35.0469
358.63        35.00682
359.08        34.95962
359.53         34.8951
359.98        34.75396
360.43        34.44859
360.88         33.9847
361.33        33.41138
361.78        32.85524
362.23        32.51839
362.68        32.44457
363.13        32.56202
363.58        32.75425
364.03        32.83987
364.48        32.75577
364.93        32.54061
365.38        32.22406
365.83          31.866
366.28        31.50027
366.73        31.11592
367.18        30.72367
367.63        30.34264
368.08        29.98642
368.53         29.6699
368.98        29.40969
369.43        29.21566
369.88        29.08432
370.33        29.01026
370.78        28.96109
371.23        28.88548
371.68        28.76865
372.13        28.61459
372.58        28.45936
373.03        28.37082
373.48        28.35707
373.93        28.38551
374.38        28.40224
374.83         28.3266
375.28        28.13918
375.72        27.85972
376.17        27.54407
376.62        27.24046
377.07        26.97986
377.52        26.75671
377.97        26.58026
378.42        26.46219
378.87        26.39667
379.32        26.37511
379.77        26.37929
380.22        26.37749
380.67        26.35711
381.11        26.32751
381.56        26.26141
382.01        26.14008
382.46        25.96375
382.91        25.73215
383.36        25.50092
383.81        25.35352
384.26        25.30429
384.71        25.34225
385.15        25.37633
385.60        25.27296
386.05        25.01079
386.50        24.63229
386.95        24.27243
387.40          24.143
387.85        24.27576
388.29         24.5864
388.74        24.91477
389.19        25.01838
389.64         24.8501
390.09        24.47514
390.54        24.04299
390.98        23.78623
391.43        23.77808
391.88        23.92765
392.33        24.08094
392.78         24.0175
393.23        23.71562
393.67         23.2571
394.12         22.8245
394.57        22.58574
395.02        22.57456
395.47        22.72687
395.91        22.94728
396.36        23.04463
396.81         22.9729
397.26        22.78624
397.71        22.57558
398.15        22.45831
398.60        22.48403
399.05        22.58921
399.50        22.69573
399.95        22.69588
400.39        22.56649
400.84        22.34099
401.29        22.09002
401.74        21.94321
402.18        21.94399
402.63        22.04393
403.08        22.16055
403.53        22.15648
403.97        22.00265
404.42        21.75852
404.87        21.50672
405.32        21.38341
405.76        21.41815
406.21        21.55963
406.66        21.73785
407.11        21.84488
407.55        21.85043
408.00        21.79286
408.45         21.6955
408.90         21.5438
409.34        21.37856
409.79        21.30431
410.24        21.29493
410.68        21.21858
411.13        21.07547
411.58        20.94737
412.03        20.84796
412.47        20.77111
412.92        20.71935
413.37        20.68818
413.81        20.69308
414.26        20.77187
414.71        20.91559
415.15        21.11912
415.60        21.29411
416.05        21.32765
416.49        21.19386
416.94        20.92881
417.39        20.63171
417.83        20.46461
418.28         20.4722
418.73        20.59945
419.17        20.75722
419.62        20.79592
420.07        20.68554
420.51        20.47912
420.96        20.24922
421.41        20.08448
421.85        20.00645
422.30        19.99718
422.74        20.02599
423.19        20.08238
423.64        20.14489
424.08        20.22742
424.53        20.29481
424.98        20.31678
425.42         20.2905
425.87        20.22645
426.31        20.13415
426.76        20.04021
427.21        19.94309
427.65        19.82619
428.10        19.73546
428.54        19.71951
428.99        19.78741
429.44        20.00953
429.88        20.23968
430.33        20.11797
430.77        19.70849
431.22        19.42954
431.66        19.36019
432.11        19.39938
432.56        19.53142
433.00        19.83454
433.45        20.10457
433.89        20.04113
434.34        19.76688
434.78        19.48184
435.23        19.16754
435.67         20.1047
436.12        19.48009
436.57        19.38695
437.01        19.08369
437.46        18.95131
437.90        19.01163
438.35        19.09745
438.79        19.15858
439.24        19.19826
439.68        19.20156
440.13        19.01331
440.57        18.75553
441.02        18.92779
441.46        19.35439
441.91        19.43167
442.35        18.69806
442.80         18.4499
443.24         18.4991
443.69        18.44103
444.13        18.26331
444.58        18.15353
445.02        18.12571
445.47        18.17688
445.91        18.26131
446.36        18.26227
446.80        18.15738
447.24        18.00528
447.69        17.85248
448.13        17.73119
448.58        17.66394
449.02         17.6364
449.47        17.62721
449.91        17.59486
450.36        17.53633
450.80        17.46381
451.25        17.40696
451.69        17.39145
452.13        17.42697
452.58        17.49226
453.02        17.56946
453.47        17.63497
453.91        17.67982
454.36         17.7081
454.80        17.71133
455.24        17.67536
455.69        17.60927
456.13        17.50137
456.58        17.39391
457.02         17.3396
457.46        17.34487
457.91        17.35529
458.35        17.35194
458.79        17.34918
459.24         17.3369
459.68         17.3161
460.13        17.33754
460.57        17.31422
461.01        17.23116
461.46         17.5587
461.90         17.6122
462.34         17.4075
462.79         17.5253
463.23        17.37667
463.68         17.2484
464.12        17.14841
464.56        17.22783
465.01        17.35678
465.45        17.48162
465.89        17.54159
466.34        17.52943
466.78        17.40767
467.22        17.24907
467.67        17.29411
468.11        17.51063
468.55        17.54511
468.99        17.40632
469.44        17.39423
469.88        17.51547
470.32        17.59461
470.77        17.60694
471.21        17.60398
471.65        17.58465
472.10        17.53589
472.54        17.48072
472.98        17.49423
473.42        17.58285
473.87        17.67414
474.31        17.74415
474.75        17.86371
475.20        17.98773
475.64        17.93338
476.08        17.76471
476.52        17.73715
476.97        17.86909
477.41        18.04486
477.85        18.20609
478.29         18.3116
478.74        18.34375
479.18        18.28145
479.62         18.2026
480.06        18.23426
480.50        18.37445
480.95        18.50291
481.39        18.57008
481.83        18.58569
482.27        18.54552
482.72        18.45414
483.16        18.36725
483.60        18.35867
484.04        18.43197
484.48        18.66426
484.93        19.08398
485.37        19.18831
485.81        19.16095
486.25        19.83495
486.69        20.79172
487.14        19.91051
487.58        19.47449
488.02        20.36226
488.46        19.76332
488.90        19.96911
489.34        19.87342
489.79        20.13712
490.23        20.61488
490.67        20.82306
491.11        20.77431
491.55        20.70389
491.99        20.68237
492.43        20.70325
492.88        20.79871
493.32        20.97306
493.76        21.20648
494.20        21.45783
494.64        21.71107
495.08        21.97545
495.52        22.23092
495.96        22.45103
496.41        22.64063
496.85        22.78643
497.29          22.905
497.73         23.1107
498.17         23.3747
498.61        23.47247
499.05        23.44129
499.49        23.57045
499.93          23.882
500.37        24.16225
500.82        24.38263
501.26        24.69965
501.70        25.04234
502.14        25.08894
502.58        24.90834
503.02         24.8949
503.46        25.08334
503.90        25.27324
504.34        25.41279
504.78        25.50333
505.22        25.53042
505.66        25.50647
506.10        25.47098
506.54        25.48199
506.98        25.55919
507.42        25.68929
507.86        25.85427
508.30        26.02344
508.74        26.18118
509.18        26.32878
509.62        26.47126
510.06        26.61634
510.50        26.76418
510.94        26.91258
511.38        27.03273
511.82         27.0818
512.26        27.05579
512.70        26.96763
513.14        26.87887
513.58        26.88151
514.02        26.98641
514.46        27.17064
514.90        27.36094
515.34        27.37208
515.78        27.22627
516.22        27.02172
516.66        26.86285
517.10        26.58589
517.54        26.22014
517.98        26.79116
518.42        26.72759
518.86        26.99268
519.30        27.09803
519.74        27.20484
520.18        27.28569
520.62        27.27743
521.06        27.19363
521.50        27.03332
521.93         26.8459
522.37        26.72308
522.81        26.68567
523.25        26.71398
523.69        26.76179
524.13        26.75334
524.57        26.66962
525.01        26.53245
525.45        26.38252
525.89        26.28362
526.32        26.24978
526.76        26.26192
527.20        26.27498
527.64        26.22289
528.08        26.09087
528.52        25.89921
528.96        25.69942
529.40         25.5677
529.83         25.5188
530.27        25.53586
530.71         25.5581
531.15        25.49244
531.59        25.32471
532.03        25.09039
532.46        24.85919
532.90         24.7575
533.34        24.80039
533.78        24.94008
534.22        25.10587
534.66        25.19076
535.09         25.1611
535.53        25.05924
535.97        24.91522
536.41        24.77332
536.85        24.65599
537.28        24.56458
537.72        24.51492
538.16        24.45737
538.60        24.51195
539.04        24.57129
539.47        24.64665
539.91        24.76291
540.35        24.92821
540.79        24.92257
541.22        25.06785
541.66        25.18752
542.10        25.39815
542.54        25.28961
542.97        25.53488
543.41         25.6698
543.85        25.87706
544.29        26.08623
544.72        26.26473
545.16        26.43909
545.60        26.59809
546.04         26.6567
546.47        26.69043
546.91        26.98608
547.35        27.47666
547.79        27.81072
548.22        27.95147
548.66        28.03278
549.10         28.1107
549.53        28.37162
549.97        28.81629
550.41        28.91938
550.84        29.20542
551.28        29.38864
551.72        29.65227
552.15        29.93046
552.59         30.2237
553.03        30.53338
553.46        30.80475
553.90        30.98925
554.34        31.07751
554.77        31.08905
555.21        31.08463
555.65        31.14658
556.08        31.29016
556.52         31.4866
556.96        31.69678
557.39        31.89832
557.83        32.06503
558.27        32.13238
558.70        32.12635
559.14        32.15393
559.57        32.21863
560.01        32.30707
560.45        32.39677
560.88        32.40795
561.32        32.40084
561.75        32.48343
562.19        32.75558
562.63        32.86855
563.06        32.86091
563.50        32.91809
563.93        33.03656
564.37        33.19789
564.80        33.25303
565.24         33.3863
565.68        33.52084
566.11        33.65485
566.55        33.81543
566.98        33.87042
567.42        33.84414
567.85        34.37677
568.29        34.49989
568.72        34.85786
569.16        35.14724
569.60        35.44215
570.03        35.69877
570.47        35.93064
570.90        35.95796
571.34        36.38784
571.77        36.08506
572.21        36.60568
572.64        36.79925
573.08        37.16036
573.51        37.09024
573.95        37.76632
574.38        38.09822
574.82        38.52983
