SpectraSmart Spectrum 2.9.0.0
--------- Device Information -----------
Spectrum Name :  反射率_0
Saving Time :  2024/04/20 00:26:50
Spectro-Module Model Name : SE2030-DUVN
Spectro-Module Serial Number : OS361AC55029948
Wavelength Start : 200
Wavelength End : 1025
Wavelength Unit : Wavelength(nm)
Spectrum Unit : Reflectance(%)
-----------Spectrum Setting ------------
Integration Time : 30ms
Average : 10
Boxcar : 0
Background removal :  enabled
linearity correction :  enabled
SC :  disabled
Intensity correction :  disabled
DWT denoise :  enabled
savitzky-golay :  disabled
FFT :  disabled
Running average :  disabled
Kalman :  disabled
High pass :  disabled
---------------BEGIN--------------------
Wavelength(nm)             Reflectance(%)
200.29               0
200.75        55.35368
201.21        54.66877
201.67        55.41187
202.13        57.81302
202.58        61.81357
203.04        67.54988
203.50        73.56194
203.96        75.59422
204.42        73.12926
204.88        68.81024
205.34        64.30634
205.80        59.95174
206.26        55.01488
206.72        47.98033
207.18        39.04291
207.64        34.23796
208.10        39.10073
208.55        51.18075
209.01        62.47477
209.47         67.0163
209.93        65.45947
210.39        60.49284
210.85        54.41536
211.31        49.37559
211.77        45.56357
212.23        41.83236
212.69        38.80635
213.14        39.29077
213.60        43.12505
214.06        48.58483
214.52        53.29421
214.98        56.34374
215.44        58.18598
215.90        58.92435
216.36        59.20606
216.81        60.23969
217.27        62.07229
217.73        64.42334
218.19        65.30649
218.65        61.86745
219.11        53.64814
219.57        40.95821
220.02        26.82353
220.48        19.40121
220.94        21.62266
221.40         31.9587
221.86        44.80941
222.32         51.3998
222.77        49.67834
223.23        42.54732
223.69         34.4222
224.15        31.64743
224.61        34.48404
225.06        39.62072
225.52        44.07254
225.98          45.512
226.44        43.88391
226.90        40.35456
227.36        35.99788
227.81        32.65867
228.27        31.43204
228.73        31.60546
229.19        32.59618
229.65        33.73031
230.10         34.7476
230.56        35.73003
231.02        36.78136
231.48        38.02028
231.93        39.36508
232.39        40.69357
232.85        41.63424
233.31        41.65301
233.77         40.6952
234.22        38.96652
234.68        36.96243
235.14        35.46564
235.60        34.78751
236.05        34.78542
236.51        35.24228
236.97        35.75963
237.43        36.27061
237.88        37.10558
238.34        38.30479
238.80        39.91336
239.26        41.67421
239.71        43.08808
240.17        44.20548
240.63        45.88497
241.08        48.38097
241.54         51.5513
242.00        54.24064
242.46        54.22449
242.91        50.42215
243.37        41.73303
243.83        29.13905
244.28        21.97127
244.74        29.09587
245.20        48.18966
245.66        66.55404
246.11         73.7362
246.57        69.00966
247.03        53.01461
247.48        29.21133
247.94        19.43593
248.40        28.82169
248.85        42.75082
249.31        53.17031
249.77        57.94682
250.22        58.52876
250.68        56.77489
251.14        53.82589
251.59        51.96704
252.05        52.72028
252.51         55.3737
252.96        58.47245
253.42        59.81821
253.88        58.86877
254.33        56.66988
254.79         55.1822
255.25        55.98129
255.70        58.78851
256.16        62.47657
256.62        65.64262
257.07        66.74982
257.53        65.92078
257.99        63.78077
258.44        60.93026
258.90        58.89188
259.35        57.51818
259.81        56.83002
260.27        56.14026
260.72        54.86315
261.18        53.21447
261.63         51.0595
262.09        49.14687
262.55        48.02026
263.00        47.65491
263.46        47.90889
263.91        48.00632
264.37        47.26411
264.83         45.6819
265.28        43.52229
265.74        41.66869
266.19        40.94844
266.65        41.44918
267.11        42.65577
267.56        43.86226
268.02        44.04414
268.47        43.02807
268.93        41.18273
269.38        38.94221
269.84        37.24332
270.30        36.35935
270.75        36.05007
271.21        36.02397
271.66         35.8331
272.12        35.32645
272.57         34.6382
273.03        33.94495
273.48        33.41998
273.94        33.13462
274.39        32.96658
274.85        32.75019
275.31        32.23345
275.76        31.37714
276.22        30.31093
276.67        29.25053
277.13        28.60804
277.58        28.39484
278.04        28.50185
278.49        28.62528
278.95        28.38833
279.40        27.70831
279.86        26.80624
280.31         25.8667
280.77        25.28025
281.22        25.05138
281.68         25.0572
282.13        25.14177
282.59        25.11319
283.04        24.91219
283.50        24.65045
283.95        24.32367
284.41        23.94962
284.86        23.54284
285.32        23.11926
285.77        22.78348
286.22        22.76361
286.68        23.05902
287.13          23.555
287.59        24.05466
288.04        24.25165
288.50        24.11116
288.95         23.7149
289.41        23.22101
289.86        22.80316
290.32        22.57459
290.77        22.46952
291.22        22.50462
291.68        22.67199
292.13        22.95271
292.59        23.35971
293.04        23.84472
293.50        24.33783
293.95        24.80825
294.40        25.25831
294.86        25.69829
295.31        26.16457
295.77        26.67009
296.22        27.20316
296.68         27.7575
297.13        28.29944
297.58        28.83117
298.04        29.37187
298.49        29.93537
298.95        30.57874
299.40        31.29096
299.85        32.04393
300.31        32.79629
300.76         33.4847
301.21        34.08783
301.67        34.64433
302.12        35.12888
302.58        35.56599
303.03        35.94534
303.48        36.28062
303.94        36.64086
304.39        37.09138
304.84        37.64429
305.30         38.2637
305.75         38.8406
306.20        39.23043
306.66        39.42637
307.11        39.46612
307.57        39.44532
308.02        39.43309
308.47        39.48287
308.93        39.56186
309.38         39.6765
309.83        39.88931
310.29         40.1818
310.74        40.53059
311.19        40.80878
311.65        40.81124
312.10        40.50574
312.55        39.96581
313.00        39.36071
313.46        38.95253
313.91        38.79122
314.36        38.81737
314.82        38.91753
315.27         38.9271
315.72        38.78246
316.18        38.54881
316.63        38.27073
317.08        38.02327
317.53        37.82467
317.99        37.63177
318.44        37.42793
318.89        37.18532
319.35        36.89646
319.80        36.57928
320.25        36.24035
320.70        35.88597
321.16        35.51843
321.61        35.14361
322.06        34.76677
322.51        34.40041
322.97        34.04221
323.42        33.69642
323.87        33.35403
324.32        33.00476
324.78        32.64011
325.23        32.27407
325.68        31.89688
326.13        31.49966
326.59        31.08729
327.04        30.68703
327.49        30.32106
327.94        30.02703
328.39        29.80978
328.85        29.63751
329.30        29.52344
329.75        29.44327
330.20        29.37589
330.66        29.29742
331.11        29.18765
331.56        28.96114
332.01         28.6028
332.46        28.13596
332.92        27.61314
333.37        27.13561
333.82        26.74935
334.27        26.45342
334.72        26.24091
335.17        26.09146
335.63         25.9819
336.08        25.91402
336.53        25.89237
336.98        25.93303
337.43        26.02069
337.88        26.14388
338.34        26.18002
338.79        25.98058
339.24        25.51283
339.69        24.82653
340.14        24.13733
340.59        23.80826
341.05        23.90653
341.50        24.32818
341.95         24.8292
342.40        25.02453
342.85        24.82396
343.30        24.35918
343.75        23.78771
344.20        23.37109
344.66        23.18727
345.11        23.11851
345.56        23.13536
346.01        23.19127
346.46         23.2449
346.91        23.33513
347.36        23.34636
347.81        23.08526
348.26         22.5501
348.72        21.82766
349.17        21.11553
349.62        20.82701
350.07        21.04782
350.52        21.63041
350.97         22.3386
351.42        22.81688
351.87        22.96018
352.32        22.86528
352.77        22.60593
353.22        22.30611
353.67        22.02432
354.13        21.73469
354.58        21.44151
355.03        21.19552
355.48        21.01186
355.93        20.90537
356.38        20.85936
356.83        20.82982
357.28        20.79627
357.73        20.75161
358.18        20.70249
358.63        20.66546
359.08        20.63881
359.53        20.61789
359.98         20.5579
360.43        20.39288
360.88        20.12347
361.33        19.77728
361.78        19.44651
362.23        19.28123
362.68        19.30408
363.13        19.45282
363.58        19.62378
364.03        19.65683
364.48        19.50794
364.93        19.22921
365.38         18.8621
365.83        18.48159
366.28        18.13472
366.73        17.81069
367.18        17.54899
367.63        17.40914
368.08        17.39001
368.53         17.4698
368.98         17.5888
369.43        17.64678
369.88        17.61731
370.33        17.53018
370.78        17.39833
371.23        17.25197
371.68        17.11176
372.13        16.96206
372.58        16.85158
373.03         16.8645
373.48        17.00065
373.93        17.22325
374.38        17.43189
374.83        17.47092
375.28        17.30966
375.72        16.99232
376.17        16.61505
376.62        16.29552
377.07        16.08577
377.52        15.95617
377.97        15.90692
378.42        15.93483
378.87        16.02015
379.32        16.15658
379.77        16.29977
380.22        16.37879
380.67        16.37674
381.11        16.31078
381.56         16.1901
382.01        16.05531
382.46        15.92256
382.91         15.7763
383.36        15.64067
383.81        15.54875
384.26        15.50418
384.71        15.51344
385.15        15.51382
385.60        15.40781
386.05        15.18382
386.50         14.8672
386.95        14.57014
387.40        14.47099
387.85        14.59229
388.29        14.86741
388.74        15.14271
389.19        15.20162
389.64        15.00697
390.09        14.62707
390.54        14.20375
390.98         13.9592
391.43         13.9619
391.88        14.12616
392.33        14.32455
392.78        14.37501
393.23        14.24623
393.67        13.99643
394.12        13.74649
394.57        13.61003
395.02        13.61128
395.47        13.70871
395.91        13.82823
396.36        13.83039
396.81        13.68817
397.26        13.44407
397.71        13.19886
398.15        13.08536
398.60        13.14099
399.05         13.3105
399.50        13.48353
399.95        13.50233
400.39        13.33704
400.84        13.03323
401.29        12.71033
401.74        12.58581
402.18        12.72027
402.63        13.03295
403.08        13.37063
403.53        13.49383
403.97        13.35017
404.42         13.0261
404.87        12.65698
405.32        12.46361
405.76        12.50118
406.21        12.69322
406.66        12.93217
407.11        13.05224
407.55         13.0099
408.00        12.86382
408.45        12.67713
408.90        12.52416
409.34        12.45338
409.79        12.49273
410.24        12.58994
410.68        12.61676
411.13        12.55868
411.58        12.48364
412.03        12.41087
412.47         12.3537
412.92        12.32033
413.37        12.29646
413.81        12.29609
414.26         12.3538
414.71        12.46364
415.15        12.62618
415.60        12.76271
416.05        12.76792
416.49        12.61893
416.94        12.35109
417.39        12.06365
417.83        11.91915
418.28        11.95883
418.73        12.12691
419.17        12.32348
419.62        12.37813
420.07        12.26036
420.51          12.031
420.96        11.77551
421.41        11.61052
421.85        11.56411
422.30        11.60116
422.74        11.68332
423.19        11.77848
423.64        11.86291
424.08        11.95629
424.53        12.02447
424.98        12.02896
425.42        11.96578
425.87        11.84415
426.31        11.69875
426.76        11.59566
427.21        11.54291
427.65        11.52045
428.10        11.52551
428.54        11.52884
428.99        11.52528
429.44        11.57947
429.88        11.64201
430.33        11.55148
430.77        11.35305
431.22        11.26445
431.66        11.31278
432.11        11.41198
432.56        11.54085
433.00        11.75586
433.45        11.93054
433.89        11.88158
434.34         11.6844
434.78        11.46005
435.23        11.21911
435.67        11.73419
436.12        11.36861
436.57         11.3395
437.01        11.19611
437.46        11.13127
437.90        11.14804
438.35        11.15463
438.79        11.13885
439.24        11.13271
439.68        11.13216
440.13        11.03639
440.57        10.89234
441.02        10.95172
441.46        11.10606
441.91        11.02686
442.35        10.48982
442.80        10.27295
443.24        10.26884
443.69         10.2405
444.13        10.16162
444.58        10.10962
445.02        10.08294
445.47        10.09249
445.91        10.11691
446.36        10.09888
446.80        10.02859
447.24        9.931041
447.69        9.842384
448.13        9.794621
448.58        9.800566
449.02         9.84761
449.47        9.897607
449.91        9.884113
450.36        9.800102
450.80        9.666997
451.25        9.538303
451.69        9.484637
452.13          9.5233
452.58        9.618905
453.02        9.734455
453.47        9.808575
453.91        9.825321
454.36        9.804415
454.80        9.750119
455.24        9.672159
455.69        9.587094
456.13        9.483183
456.58        9.398664
457.02        9.384185
457.46        9.443655
457.91        9.539432
458.35        9.635578
458.79        9.694603
459.24        9.703607
459.68        9.671824
460.13        9.656704
460.57        9.651091
461.01        9.657159
461.46        9.920818
461.90        10.03214
462.34         9.95046
462.79        9.999461
463.23        9.856568
463.68        9.714933
464.12        9.623206
464.56        9.680997
465.01         9.79807
465.45        9.921608
465.89        9.982767
466.34        9.972022
466.78        9.882686
467.22        9.770836
467.67        9.796594
468.11        9.947386
468.55        10.01069
468.99        9.983348
469.44        10.02635
469.88        10.13881
470.32        10.22267
470.77        10.25136
471.21        10.23925
471.65        10.18487
472.10        10.08931
472.54        9.988377
472.98        9.967249
473.42        10.03944
473.87        10.15106
474.31        10.26596
474.75        10.38601
475.20        10.47624
475.64        10.44076
476.08        10.33319
476.52        10.32871
476.97        10.44265
477.41        10.59753
477.85        10.74409
478.29        10.83459
478.74          10.853
479.18        10.79587
479.62        10.71963
480.06        10.71595
480.50        10.78774
480.95        10.85567
481.39        10.89179
481.83        10.90549
482.27        10.89496
482.72         10.8646
483.16        10.83447
483.60        10.85013
484.04        10.92402
484.48        11.05476
484.93        11.27028
485.37        11.48448
485.81        11.71802
486.25        12.09958
486.69        12.21117
487.14        11.90161
487.58        12.02973
488.02        12.69768
488.46        12.39397
488.90        12.35499
489.34        12.14649
489.79        12.33528
490.23        12.83422
490.67        13.12802
491.11        13.15679
491.55         13.0757
491.99        12.94391
492.43        12.86661
492.88        12.88183
493.32        12.89231
493.76        12.92933
494.20        13.09839
494.64        13.40143
495.08        13.79459
495.52        14.20018
495.96         14.5105
496.41        14.69631
496.85        14.75797
497.29        14.75543
497.73        14.86031
498.17        15.07906
498.61        15.23291
499.05        15.31631
499.49        15.47584
499.93        15.71221
500.37        15.90098
500.82        16.04214
501.26        16.26746
501.70        16.53679
502.14        16.62626
502.58        16.56313
503.02        16.58457
503.46        16.70851
503.90        16.81049
504.34        16.87197
504.78        16.91787
505.22         16.9451
505.66        16.95847
506.10        16.97754
506.54        17.00055
506.98        17.03006
507.42        17.12043
507.86        17.28789
508.30        17.26677
508.74        17.51061
509.18        17.64076
509.62        17.78073
510.06        17.89821
510.50        17.99106
510.94        18.06458
511.38        18.10725
511.82        18.11513
512.26        18.09336
512.70        18.04499
513.14        18.01256
513.58        18.05951
514.02        18.18688
514.46        18.37376
514.90        18.56094
515.34        18.59713
515.78        18.48315
516.22        18.33665
516.66        18.23304
517.10        17.94026
517.54        17.48087
517.98        18.02194
518.42        17.83733
518.86        18.05508
519.30        18.14289
519.74        18.26774
520.18        18.38417
520.62        18.39647
521.06        18.31226
521.50        18.14157
521.93        17.94177
522.37        17.81702
522.81        17.79179
523.25        17.83821
523.69        17.91267
524.13        17.94567
524.57        17.91583
525.01        17.84269
525.45        17.75083
525.89        17.67773
526.32        17.63377
526.76        17.60842
527.20        17.57695
527.64        17.50658
528.08        17.39025
528.52        17.23634
528.96        17.08288
529.40        16.98473
529.83        16.95084
530.27         16.9714
530.71        16.98691
531.15        16.90396
531.59        16.71203
532.03        16.44653
532.46        16.19115
532.90        16.09176
533.34        16.16611
533.78        16.35803
534.22        16.57951
534.66        16.69592
535.09        16.66807
535.53        16.54557
535.97        16.36784
536.41        16.19553
536.85        16.05782
537.28        15.94681
537.72        15.88069
538.16        15.83937
538.60        15.89995
539.04        15.99065
539.47        16.10173
539.91        16.21984
540.35        16.34371
540.79        16.33623
541.22        16.42025
541.66        16.49944
542.10        16.65653
542.54        16.61542
542.97         16.8137
543.41        16.94123
543.85        17.11532
544.29        17.29331
544.72        17.45237
545.16        17.60682
545.60        17.75091
546.04        17.82938
546.47        17.89657
546.91        18.15292
547.35        18.55355
547.79        18.85515
548.22        19.02829
548.66        19.15809
549.10        19.28058
549.53        19.52395
549.97        19.88431
550.41         19.9837
550.84        20.17735
551.28        20.29321
551.72        20.47705
552.15        20.65599
552.59        20.82534
553.03        21.21581
553.46        21.37904
553.90          21.588
554.34        21.71315
554.77        21.77854
555.21        21.82789
555.65        21.92596
556.08        22.08633
556.52        22.28398
556.96        22.48007
557.39        22.64429
557.83        22.75672
558.27        22.77444
558.70        22.74069
559.14        22.76806
559.57        22.86539
560.01        23.01302
560.45        23.15937
560.88        23.19476
561.32        23.15669
561.75        23.13143
562.19        23.23253
562.63        23.30451
563.06        23.37584
563.50        23.49457
563.93        23.64098
564.37        23.82782
564.80        23.93491
565.24         24.0671
565.68        24.17717
566.11        24.27442
566.55        24.37955
566.98        24.44491
567.42        24.47686
567.85        24.79603
568.29        24.76669
568.72        25.13564
569.16        25.62797
569.60        25.97204
570.03        26.12083
570.47        26.25651
570.90        26.27806
571.34        26.60041
571.77        26.50436
572.21        26.86132
572.64        26.88442
573.08        27.24263
573.51        27.43345
573.95        27.92579
574.38        28.14056
574.82        28.30333
