SpectraSmart Spectrum 2.9.0.0
--------- Device Information -----------
Spectrum Name :  反射率_0
Saving Time :  2024/04/20 00:03:01
Spectro-Module Model Name : SE2030-DUVN
Spectro-Module Serial Number : OS361AC55029948
Wavelength Start : 200
Wavelength End : 1025
Wavelength Unit : Wavelength(nm)
Spectrum Unit : Reflectance(%)
-----------Spectrum Setting ------------
Integration Time : 30ms
Average : 10
Boxcar : 0
Background removal :  enabled
linearity correction :  enabled
SC :  disabled
Intensity correction :  disabled
DWT denoise :  enabled
savitzky-golay :  disabled
FFT :  disabled
Running average :  disabled
Kalman :  disabled
High pass :  disabled
---------------BEGIN--------------------
Wavelength(nm)             Reflectance(%)
200.29               0
200.75        59.52604
201.21         58.6983
201.67        59.47041
202.13        63.53423
202.58        71.61287
203.04         83.9602
203.50        96.63818
203.96         99.7496
204.42         92.6772
204.88        81.61987
205.34        72.00537
205.80        66.40678
206.26        63.86753
206.72        62.98274
207.18        63.65415
207.64        65.24538
208.10        66.78061
208.55        68.95364
209.01        69.97174
209.47        69.10444
209.93        66.82074
210.39        63.45773
210.85        60.41924
211.31        59.40674
211.77        60.59232
212.23        63.87375
212.69        68.36595
213.14        70.24765
213.60        67.70296
214.06        63.75768
214.52        60.66044
214.98        59.59587
215.44        60.23784
215.90        61.82642
216.36        64.32111
216.81        67.28666
217.27        69.94948
217.73        72.45791
218.19        73.74817
218.65        72.38507
219.11        68.21346
219.57        61.09579
220.02        52.77894
220.48        48.52757
220.94        50.04398
221.40        56.58228
221.86        64.40627
222.32        67.60971
222.77        65.00063
223.23        58.71318
223.69        52.47314
224.15        51.50451
224.61        55.62893
225.06        61.83033
225.52        67.25912
225.98        69.58006
226.44        68.84323
226.90        66.14903
227.36        62.64367
227.81        60.26778
228.27        59.98345
228.73        60.91408
229.19        62.28912
229.65        63.23945
230.10        63.55125
230.56        63.62514
231.02        63.67324
231.48        63.96484
231.93        64.47034
232.39        65.08624
232.85        65.51439
233.31        65.38257
233.77        64.63291
234.22        63.39162
234.68        62.00538
235.14        60.99257
235.60        60.54984
236.05        60.59233
236.51        60.87638
236.97        60.97204
237.43        60.77987
237.88        60.56036
238.34         60.3648
238.80         60.9381
239.26        62.49933
239.71        64.57278
240.17        66.63936
240.63        68.62193
241.08        70.53216
241.54        72.43929
242.00         73.5668
242.46        72.30243
242.91        67.87865
243.37         59.0429
243.83        46.76719
244.28        40.13287
244.74          47.416
245.20        66.08074
245.66        84.24706
246.11        92.45442
246.57        90.18667
247.03        78.52276
247.48        58.50888
247.94        45.15203
248.40         45.9684
248.85        52.01833
249.31        57.80096
249.77         61.7004
250.22        64.20165
250.68        66.50716
251.14        68.79279
251.59        70.49204
252.05        71.37482
252.51        71.42786
252.96        70.30857
253.42        68.18871
253.88        65.77943
254.33        63.57356
254.79        63.37397
255.25        66.58987
255.70        72.49205
256.16        79.59752
256.62        86.03912
257.07        89.76371
257.53        90.79651
257.99        89.88478
258.44        87.18063
258.90        83.92982
259.35        80.54344
259.81         77.9621
260.27        75.98563
260.72        74.41338
261.18        73.39727
261.63        72.36171
262.09        71.87833
262.55        72.11258
263.00        72.78588
263.46        73.86043
263.91        74.38488
264.37        73.66794
264.83        71.72989
265.28        68.90452
265.74        66.28562
266.19        64.85395
266.65        64.82324
267.11        65.62637
267.56        66.53712
268.02        66.54459
268.47        65.43377
268.93        63.58385
269.38        61.39598
269.84        59.74853
270.30        58.87719
270.75        58.51042
271.21        58.35827
271.66        57.96123
272.12        57.18606
272.57        56.18113
273.03         55.1077
273.48        54.09591
273.94        53.26485
274.39        52.50567
274.85        51.80966
275.31        51.10018
275.76        50.32108
276.22        49.52631
276.67        48.71941
277.13        48.04806
277.58        47.45705
278.04        46.97227
278.49        46.40314
278.95        45.59459
279.40         44.4964
279.86        43.28615
280.31        42.10427
280.77        41.33043
281.22        40.92894
281.68        40.81651
282.13        40.77371
282.59        40.54626
283.04        40.05592
283.50        39.44494
283.95        38.77828
284.41         38.2149
284.86        37.76828
285.32        37.42031
285.77        37.16135
286.22        37.06455
286.68        37.11539
287.13        37.24968
287.59        37.38326
288.04        37.33848
288.50        37.11164
288.95        36.71497
289.41        36.25338
289.86        35.80572
290.32        35.46599
290.77        35.20873
291.22        35.05874
291.68         35.0129
292.13        35.06868
292.59        35.25622
293.04        35.59027
293.50        36.11331
293.95         36.8017
294.40        37.61802
294.86        38.49664
295.31        39.34788
295.77        40.14772
296.22        40.91813
296.68        41.67144
297.13        42.41202
297.58        43.15921
298.04        43.91599
298.49        44.72002
298.95        45.67963
299.40         46.7797
299.85        47.97757
300.31        49.18626
300.76        50.24966
301.21        51.13732
301.67        51.93264
302.12         52.6349
302.58        53.34053
303.03        54.04681
303.48        54.75235
303.94        55.54068
304.39        56.48178
304.84        57.57942
305.30        58.79052
305.75        59.93382
306.20        60.77236
306.66        61.28604
307.11        61.52243
307.57        61.65422
308.02        61.84309
308.47        62.17015
308.93        62.57375
309.38        62.99806
309.83        63.43217
310.29         63.8514
310.74        64.26854
311.19        64.59236
311.65        64.66483
312.10        64.46149
312.55        64.02953
313.00        63.56303
313.46        63.36577
313.91         63.4766
314.36        63.82561
314.82        64.19408
315.27        64.25191
315.72        63.90829
316.18        63.29816
316.63        62.60418
317.08        62.12988
317.53        61.94621
317.99          61.942
318.44        62.00185
318.89        61.92249
319.35        61.64037
319.80        61.23108
320.25        60.75094
320.70        60.28841
321.16        59.86904
321.61        59.46574
322.06        59.06636
322.51        58.66733
322.97        58.25279
323.42        57.84572
323.87        57.42624
324.32        56.96263
324.78        56.44464
325.23        55.91196
325.68        55.37162
326.13        54.85192
326.59         54.3674
327.04        53.93702
327.49        53.58475
327.94        53.35986
328.39        53.25167
328.85        53.20406
329.30        53.18642
329.75        53.05729
330.20        52.77635
330.66         52.3623
331.11        51.87427
331.56         51.3392
332.01        50.78625
332.46        50.21041
332.92        49.66402
333.37         49.2704
333.82         49.0503
334.27        48.99974
334.72        49.03108
335.17        48.98239
335.63        48.78903
336.08        48.49809
336.53        48.19439
336.98        48.05428
337.43        48.11158
337.88        48.30857
338.34        48.47428
338.79        48.38631
339.24        47.97616
339.69         47.3182
340.14        46.61887
340.59        46.22239
341.05        46.20723
341.50        46.47945
341.95        46.82593
342.40         46.9139
342.85        46.66901
343.30         46.2082
343.75        45.69118
344.20        45.37888
344.66        45.33399
345.11        45.42895
345.56         45.5839
346.01        45.67474
346.46        45.64616
346.91        45.56118
347.36        45.35799
347.81        44.92691
348.26         44.2905
348.72        43.51375
349.17        42.77624
349.62        42.45142
350.07        42.61042
350.52        43.11692
350.97        43.74505
351.42        44.15196
351.87        44.23102
352.32        44.06946
352.77        43.72438
353.22        43.29622
353.67        42.84853
354.13        42.38066
354.58        41.91544
355.03        41.54114
355.48        41.28286
355.93        41.13761
356.38        41.09702
356.83        41.12912
357.28        41.20176
357.73        41.29891
358.18        41.35883
358.63        41.29042
359.08        41.07218
359.53        40.72791
359.98        40.30813
360.43        39.89354
360.88        39.51446
361.33         39.1597
361.78        38.83459
362.23        38.54548
362.68        38.29256
363.13        38.07802
363.58        37.88533
364.03        37.68105
364.48          37.449
364.93         37.1879
365.38        36.89426
365.83        36.57327
366.28        36.23395
366.73        35.87978
367.18        35.52878
367.63        35.20644
368.08        34.92152
368.53        34.67577
368.98         34.4553
369.43        34.23143
369.88        33.99686
370.33        33.75846
370.78        33.53149
371.23        33.34533
371.68        33.20605
372.13        33.09686
372.58        33.00182
373.03        32.89949
373.48        32.77428
373.93        32.62289
374.38        32.43734
374.83        32.20334
375.28        31.92026
375.72        31.59155
376.17        31.24447
376.62        30.88275
377.07         30.5301
377.52        30.19941
377.97        29.93859
378.42        29.81504
378.87        29.82889
379.32        29.94618
379.77        30.09878
380.22         30.1842
380.67        30.17233
381.11        30.08929
381.56        29.94495
382.01        29.78611
382.46        29.62979
382.91        29.45542
383.36        29.27747
383.81         29.1179
384.26        28.97952
384.71        28.87387
385.15        28.75576
385.60        28.56102
386.05        28.28336
386.50        27.94654
386.95        27.63905
387.40        27.50076
387.85        27.55074
388.29        27.72794
388.74        27.92871
389.19        27.98304
389.64        27.85327
390.09        27.57763
390.54        27.25103
390.98        27.01822
391.43        26.94098
391.88        26.96729
392.33        26.99712
392.78        26.88593
393.23        26.62542
393.67        26.26119
394.12        25.95361
394.57        25.83626
395.02        25.93199
395.47        26.18772
395.91        26.49764
396.36        26.64512
396.81        26.58006
397.26        26.35978
397.71         26.1004
398.15        25.95765
398.60        25.99512
399.05        26.14096
399.50        26.29865
399.95        26.33192
400.39        26.21353
400.84        25.98491
401.29        25.73852
401.74        25.63966
402.18        25.73606
402.63        25.96177
403.08         26.1988
403.53         26.2589
403.97        26.10385
404.42        25.81144
404.87         25.4948
405.32        25.34015
405.76        25.39061
406.21        25.57986
406.66        25.82116
407.11        25.97958
407.55         26.0176
408.00        25.98711
408.45        25.91331
408.90        25.77096
409.34        25.60743
409.79        25.54826
410.24        25.57183
410.68        25.53713
411.13        25.44581
411.58        25.38717
412.03         25.3649
412.47        25.34814
412.92        25.33035
413.37        25.31377
413.81        25.31883
414.26        25.39387
414.71        25.53397
415.15        25.73228
415.60        25.90119
416.05         25.9325
416.49        25.80227
416.94        25.54772
417.39        25.26683
417.83        25.11635
418.28        25.14184
418.73        25.29197
419.17        25.48024
419.62        25.56367
420.07          25.512
420.51         25.3724
420.96        25.21915
421.41        25.13997
421.85        25.15013
422.30        25.23127
422.74        25.33926
423.19        25.45217
423.64          25.546
424.08         25.6405
424.53        25.70813
424.98         25.7396
425.42        25.73901
425.87        25.71079
426.31        25.65527
426.76        25.58379
427.21        25.49018
427.65        25.36427
428.10        25.26215
428.54        25.24314
428.99        25.32367
429.44        25.59539
429.88        25.89025
430.33        25.77988
430.77        25.34358
431.22         25.1044
431.66        25.14321
432.11        25.28799
432.56        25.49936
433.00        25.91076
433.45        26.27498
433.89        26.15369
434.34          25.706
434.78        25.49561
435.23        24.98076
435.67        26.25008
436.12        25.48209
436.57        25.42249
437.01         25.1017
437.46        25.02558
437.90        25.22252
438.35        25.45676
438.79        25.64248
439.24        25.75578
439.68        25.77152
440.13        25.49204
440.57        25.09555
441.02        25.27542
441.46        25.80725
441.91         25.8833
442.35        24.89979
442.80        24.58872
443.24        24.70138
443.69        24.69574
444.13        24.54176
444.58        24.46333
445.02        24.47314
445.47        24.57156
445.91        24.70972
446.36        24.75089
446.80        24.67069
447.24        24.54203
447.69         24.4149
448.13        24.31731
448.58         24.2743
449.02        24.26893
449.47        24.28568
449.91        24.28946
450.36        24.27671
450.80        24.25584
451.25        24.23981
451.69        24.22317
452.13        24.21496
452.58        24.20703
453.02         24.2073
453.47        24.23765
453.91        24.29716
454.36        24.37455
454.80        24.44083
455.24        24.44305
455.69        24.38106
456.13        24.25233
456.58        24.11026
457.02        24.02092
457.46        23.99578
457.91        23.95905
458.35        23.90937
458.79        23.91086
459.24        23.95226
459.68        24.02415
460.13        24.15187
460.57        24.14938
461.01        23.98179
461.46        24.32333
461.90        24.26926
462.34        23.94791
462.79        24.14015
463.23        24.04522
463.68        23.99682
464.12        23.92372
464.56        24.01125
465.01        24.10818
465.45        24.19287
465.89        24.24433
466.34        24.26138
466.78         24.2011
467.22        24.11209
467.67        24.16437
468.11        24.33196
468.55        24.34092
468.99        24.20749
469.44        24.18044
469.88         24.2687
470.32        24.33015
470.77        24.34008
471.21        24.32927
471.65        24.29709
472.10        24.23859
472.54        24.17402
472.98        24.18111
473.42        24.26645
473.87        24.33745
474.31        24.38397
474.75        24.54379
475.20        24.75898
475.64        24.76012
476.08        24.60588
476.52        24.60697
476.97        24.77794
477.41         24.9693
477.85        25.11587
478.29        25.18704
478.74        25.17228
479.18        25.04353
479.62        24.90371
480.06        24.91882
480.50        25.08558
480.95        25.24084
481.39        25.33419
481.83        25.40594
482.27        25.44611
482.72        25.44058
483.16        25.42446
483.60        25.44101
484.04        25.49688
484.48        25.68885
484.93         26.0502
485.37        26.12593
485.81        26.26622
486.25        26.89932
486.69        27.92064
487.14        27.41521
487.58        26.89053
488.02        27.59416
488.46        27.20869
488.90        27.33374
489.34         27.1228
489.79        27.36998
490.23        27.93581
490.67        28.15723
491.11        28.04859
491.55        27.99546
491.99        28.05457
492.43        28.10808
492.88         28.1774
493.32        28.31405
493.76        28.52163
494.20        28.76909
494.64        29.04444
495.08        29.39012
495.52        29.74503
495.96        29.93096
496.41        29.98662
496.85        30.11263
497.29         30.3305
497.73        30.59688
498.17        30.87844
498.61        31.03978
499.05        31.10664
499.49        31.30255
499.93        31.63963
500.37        31.93056
500.82        32.15686
501.26        32.45757
501.70        32.78477
502.14        32.88449
502.58        32.80045
503.02        32.82491
503.46        32.98516
503.90        33.13614
504.34        33.23919
504.78        33.29487
505.22        33.29547
505.66        33.25443
506.10        33.22103
506.54        33.24456
506.98        33.33773
507.42         33.5308
507.86        33.80078
508.30        33.86514
508.74        34.08892
509.18        34.17405
509.62        34.25581
510.06        34.35843
510.50        34.49322
510.94        34.64561
511.38        34.78276
511.82        34.86544
512.26        34.88397
512.70        34.85032
513.14        34.81014
513.58        34.82837
514.02        34.91159
514.46        35.04647
514.90        35.17952
515.34        35.14962
515.78        35.01001
516.22        34.82407
516.66        34.68774
517.10        34.44432
517.54        34.11729
517.98         34.6249
518.42          34.568
518.86        34.81384
519.30        34.92518
519.74        35.03987
520.18        35.12606
520.62        35.11613
521.06        35.02177
521.50         34.8515
521.93        34.65192
522.37         34.5091
522.81        34.44675
523.25        34.44477
523.69        34.48032
524.13        34.51425
524.57        34.52841
525.01         34.5301
525.45        34.51529
525.89        34.47606
526.32        34.41253
526.76        34.33029
527.20        34.22863
527.64        34.11479
528.08        33.99324
528.52        33.85828
528.96         33.7374
529.40        33.66953
529.83        33.65453
530.27         33.6913
530.71        33.71363
531.15        33.61916
531.59        33.39865
532.03        33.09217
532.46         32.7912
532.90        32.66236
533.34        32.72622
533.78        32.91999
534.22         33.1558
534.66        33.29821
535.09        33.30199
535.53        33.22113
535.97        33.07698
536.41        32.90029
536.85        32.71639
537.28        32.53413
537.72        32.40253
538.16        32.30216
538.60         32.4006
539.04        32.54291
539.47        32.70889
539.91        32.87807
540.35        33.05047
540.79        32.95195
541.22         33.0445
541.66        33.15133
542.10        33.43739
542.54        33.34298
542.97        33.72076
543.41        33.90473
543.85         34.1238
544.29        34.30413
544.72         34.4311
545.16        34.58124
545.60        34.75016
546.04        34.81305
546.47         34.8522
546.91         35.2157
547.35        35.80913
547.79        36.18438
548.22        36.30404
548.66        36.35743
549.10        36.41823
549.53        36.71968
549.97         37.2553
550.41        37.33971
550.84        37.64946
551.28        37.81984
551.72        38.08615
552.15        38.35981
552.59        38.64704
553.03        38.95518
553.46        39.22655
553.90        39.41904
554.34        39.52051
554.77         39.5465
555.21        39.56305
555.65        39.65646
556.08        39.83838
556.52        40.08197
556.96        40.33242
557.39        40.53658
557.83         40.6714
558.27        40.69761
558.70        40.65926
559.14        40.66106
559.57        40.74483
560.01        40.87174
560.45        41.02304
560.88        41.07108
561.32         41.0813
561.75        41.23952
562.19        41.64703
562.63        41.71743
563.06        41.55014
563.50        41.62815
563.93        41.91816
564.37        42.15084
564.80        42.12225
565.24        42.20307
565.68        42.33044
566.11        42.44968
566.55        42.59066
566.98        42.69976
567.42        42.77121
567.85        43.17295
568.29        43.15786
568.72        43.49384
569.16        43.92245
569.60        44.26478
570.03        44.45904
570.47        44.73793
570.90         44.8784
571.34        45.24389
571.77        44.87487
572.21        45.54214
572.64        45.76475
573.08        46.11981
573.51        46.17018
573.95        46.61556
574.38        46.95833
574.82        47.31784
