SpectraSmart Spectrum 2.9.0.0
--------- Device Information -----------
Spectrum Name :  反射率_0
Saving Time :  2024/04/20 01:01:50
Spectro-Module Model Name : SE2030-DUVN
Spectro-Module Serial Number : OS361AC55029948
Wavelength Start : 200
Wavelength End : 1025
Wavelength Unit : Wavelength(nm)
Spectrum Unit : Reflectance(%)
-----------Spectrum Setting ------------
Integration Time : 30ms
Average : 10
Boxcar : 0
Background removal :  enabled
linearity correction :  enabled
SC :  disabled
Intensity correction :  disabled
DWT denoise :  enabled
savitzky-golay :  disabled
FFT :  disabled
Running average :  disabled
Kalman :  disabled
High pass :  disabled
---------------BEGIN--------------------
Wavelength(nm)             Reflectance(%)
200.29               0
200.75        61.39761
201.21        65.75439
201.67        74.43304
202.13        85.93341
202.58        98.84852
203.04        113.6077
203.50        125.6452
203.96        125.4235
204.42          114.28
204.88        99.22578
205.34        86.72861
205.80        79.71214
206.26        76.84454
206.72        76.75953
207.18        79.55854
207.64        83.70664
208.10        86.77115
208.55        89.22384
209.01        89.68929
209.47        88.17957
209.93        85.34995
210.39        81.27291
210.85        77.54542
211.31         76.0844
211.77        77.10437
212.23         80.7002
212.69        85.82021
213.14        87.90936
213.60        84.94031
214.06        80.25596
214.52        76.95683
214.98        76.96184
215.44        79.90043
215.90        84.96362
216.36        91.25774
216.81        95.94935
217.27        97.30085
217.73        96.49106
218.19        94.29247
218.65        91.65402
219.11        89.05711
219.57         86.0176
220.02        83.62801
220.48        85.17258
220.94        91.15891
221.40        100.8191
221.86        111.0434
222.32        117.2113
222.77        118.2124
223.23        115.6444
223.69        111.5776
224.15        109.1499
224.61        109.1282
225.06        110.3517
225.52        112.2137
225.98        114.0655
226.44        115.8499
226.90        117.7519
227.36        120.0072
227.81        122.5276
228.27        125.1854
228.73        127.6009
229.19        128.9443
229.65         128.353
230.10        126.0821
230.56        123.1174
231.02        120.4961
231.48        119.6933
231.93        120.6261
232.39         122.693
232.85        125.0044
233.31        126.2952
233.77         126.199
234.22         125.229
234.68        123.3993
235.14        120.7433
235.60        117.5852
236.05        113.9744
236.51        110.7647
236.97        109.2032
237.43        109.5303
237.88        112.0354
238.34        115.5137
238.80        117.1981
239.26        115.1903
239.71        110.1075
240.17        103.4241
240.63        97.97364
241.08         94.5877
241.54        92.58195
242.00        91.27914
242.46        89.18711
242.91        85.50753
243.37        79.56647
243.83        71.90638
244.28        67.65164
244.74        71.37244
245.20        81.64625
245.66        91.24818
246.11        94.22052
246.57        89.83227
247.03        78.29308
247.48        61.47456
247.94        53.77333
248.40        59.10358
248.85        67.74555
249.31        74.69488
249.77        78.66643
250.22        80.49811
250.68        81.42608
251.14         81.6856
251.59        81.26928
252.05         80.4876
252.51        79.54259
252.96        78.58913
253.42        78.25358
253.88        78.93562
254.33        80.43168
254.79        83.82458
255.25         89.9144
255.70        97.86728
256.16        106.4272
256.62        113.7514
257.07        117.8315
257.53        118.9648
257.99        118.0443
258.44         115.246
258.90        111.9946
259.35        108.6345
259.81        106.3144
260.27        104.8145
260.72        104.0001
261.18        104.0988
261.63        104.2513
262.09        104.9353
262.55        105.9813
263.00        106.9677
263.46         108.088
263.91        108.3207
264.37        107.1301
264.83        104.5595
265.28        100.9667
265.74        97.65829
266.19         95.7255
266.65        95.48463
267.11        96.28863
267.56        97.31493
268.02        97.49323
268.47        96.54036
268.93        94.85357
269.38        92.84722
269.84        91.41892
270.30        90.78807
270.75        90.64109
271.21        90.61504
271.66        90.12535
272.12        89.05219
272.57        87.57467
273.03        86.00089
273.48        84.65169
273.94        83.71893
274.39        83.01234
274.85        82.43074
275.31        81.69304
275.76        80.68951
276.22        79.55939
276.67        78.38233
277.13        77.49463
277.58        76.82439
278.04        76.35665
278.49        75.74395
278.95        74.70282
279.40        73.12769
279.86        71.31465
280.31        69.47102
280.77        68.15194
281.22        67.31885
281.68         66.8695
282.13        66.50713
282.59        65.93119
283.04        65.01908
283.50        63.95829
283.95        62.81263
284.41        61.79179
284.86        60.88871
285.32         60.0902
285.77        59.34671
286.22        58.70859
286.68         58.1874
287.13        57.73478
287.59        57.32348
288.04        56.79614
288.50        56.16916
288.95        55.42252
289.41        54.66803
289.86        53.98162
290.32        53.44677
290.77        53.00595
291.22        52.63899
291.68        52.27984
292.13        51.89643
292.59        51.54591
293.04        51.25808
293.50        51.12156
293.95        51.13269
294.40         51.2619
294.86        51.46169
295.31        51.66092
295.77        51.84316
296.22        52.03009
296.68        52.23207
297.13        52.45045
297.58        52.69242
298.04        52.94779
298.49        53.23341
298.95        53.63064
299.40        54.11271
299.85        54.65108
300.31        55.15564
300.76        55.46292
301.21        55.56213
301.67        55.55273
302.12        55.48306
302.58         55.5239
303.03        55.67484
303.48        55.90803
303.94        56.24627
304.39        56.66553
304.84        57.15009
305.30        57.68702
305.75        58.14243
306.20        58.35447
306.66        58.32498
307.11        58.08195
307.57        57.77469
308.02        57.53176
308.47        57.42455
308.93        57.40789
309.38        57.43528
309.83        57.50249
310.29        57.58428
310.74        57.68319
311.19        57.71672
311.65        57.54442
312.10        57.14661
312.55        56.57353
313.00         55.9798
313.46         55.6055
313.91        55.48258
314.36        55.55447
314.82        55.68156
315.27        55.66425
315.72        55.43029
316.18        55.05861
316.63        54.62051
317.08        54.24543
317.53        53.96694
317.99        53.73199
318.44         53.5092
318.89        53.23794
319.35        52.90535
319.80        52.54783
320.25        52.19016
320.70        51.86741
321.16        51.58422
321.61        51.33103
322.06         51.0968
322.51        50.87315
322.97        50.64046
323.42        50.40659
323.87         50.1459
324.32        49.82639
324.78        49.43762
325.23        49.01504
325.68         48.5699
326.13        48.13419
326.59        47.72818
327.04        47.37667
327.49        47.10608
327.94        46.96404
328.39        46.94728
328.85        47.00902
329.30        47.13295
329.75        47.20945
330.20        47.19425
330.66         47.0816
331.11        46.89794
331.56        46.62742
332.01        46.28405
332.46        45.87674
332.92        45.44944
333.37        45.10853
333.82        44.88605
334.27        44.78686
334.72        44.78511
335.17        44.82293
335.63        44.85935
336.08        44.90921
336.53        44.98314
336.98        45.12647
337.43         45.3315
337.88        45.57396
338.34         45.7257
338.79         45.6381
339.24        45.27326
339.69        44.68708
340.14        44.08228
340.59        43.79625
341.05        43.90155
341.50        44.31074
341.95        44.80825
342.40        45.05462
342.85         44.9703
343.30        44.66601
343.75        44.29288
344.20        44.09944
344.66        44.14751
345.11        44.32006
345.56        44.53903
346.01        44.68404
346.46        44.70561
346.91        44.66257
347.36         44.5222
347.81        44.22073
348.26        43.78152
348.72        43.25391
349.17        42.75489
349.62        42.55056
350.07        42.69284
350.52        43.08818
350.97        43.58153
351.42         43.9377
351.87        44.07853
352.32        44.05483
352.77        43.89621
353.22        43.65855
353.67        43.37838
354.13         43.0615
354.58         42.7112
355.03        42.38376
355.48        42.10479
355.93        41.88601
356.38        41.74228
356.83        41.68289
357.28        41.69244
357.73        41.74475
358.18        41.79927
358.63        41.79289
359.08        41.70092
359.53        41.54038
359.98        41.29689
360.43        40.95284
360.88        40.52216
361.33        40.01597
361.78        39.52261
362.23        39.18654
362.68        39.03552
363.13        39.02802
363.58        39.05033
364.03        38.91997
364.48        38.58841
364.93        38.09956
365.38        37.54287
365.83        37.07881
366.28        36.75889
366.73        36.53892
367.18        36.35033
367.63        36.08298
368.08        35.71672
368.53        35.30523
368.98        34.90786
369.43        34.60384
369.88        34.41217
370.33        34.30104
370.78        34.23805
371.23        34.17512
371.68        34.09137
372.13        33.99503
372.58        33.89265
373.03        33.79836
373.48        33.71013
373.93        33.60998
374.38        33.48384
374.83        33.31293
375.28        33.09343
375.72        32.83058
376.17        32.55013
376.62        32.25092
377.07        31.95103
377.52        31.65882
377.97        31.41447
378.42        31.27583
378.87        31.24387
379.32        31.29213
379.77        31.36084
380.22        31.35884
380.67        31.26113
381.11        31.09242
381.56        30.87091
382.01        30.65691
382.46         30.4704
382.91        30.29016
383.36        30.11503
383.81        29.93986
384.26        29.76497
384.71        29.61343
385.15        29.45828
385.60        29.26528
386.05        29.03211
386.50        28.76534
386.95        28.54383
387.40        28.49208
387.85        28.61862
388.29        28.86608
388.74        29.11337
389.19         29.1644
389.64        28.98285
390.09         28.6139
390.54        28.19222
390.98        27.92794
391.43        27.89236
391.88        28.00848
392.33        28.12705
392.78        28.03114
393.23        27.70352
393.67        27.22114
394.12        26.78173
394.57        26.56497
395.02        26.60406
395.47        26.82847
395.91        27.12634
396.36        27.27065
396.81        27.20699
397.26        27.00151
397.71        26.75832
398.15        26.61326
398.60        26.62852
399.05        26.73203
399.50        26.85144
399.95        26.88851
400.39        26.81906
400.84        26.67339
401.29        26.50536
401.74        26.41052
402.18         26.4239
402.63         26.5092
403.08        26.59872
403.53        26.57981
403.97        26.43038
404.42        26.19778
404.87        25.97312
405.32        25.90619
405.76        26.02179
406.21        26.26728
406.66        26.53234
407.11        26.64448
407.55         26.5656
408.00        26.35365
408.45        26.09324
408.90        25.86873
409.34        25.75231
409.79        25.83584
410.24        26.02243
410.68        26.05278
411.13          25.904
411.58        25.70561
412.03        25.51295
412.47         25.3849
412.92         25.3454
413.37        25.36478
413.81        25.43949
414.26        25.58373
414.71         25.7755
415.15         26.0171
415.60        26.21152
416.05        26.23247
416.49        26.05403
416.94        25.71717
417.39        25.33277
417.83        25.08196
418.28        25.02164
418.73         25.0996
419.17        25.23567
419.62        25.29263
420.07        25.23862
420.51        25.11858
420.96         24.9932
421.41         24.9285
421.85        24.93332
422.30        24.99268
422.74        25.07149
423.19        25.16174
423.64        25.24451
424.08        25.33848
424.53        25.40911
424.98        25.43571
425.42        25.41889
425.87        25.36231
426.31        25.28483
426.76        25.22583
427.21         25.1809
427.65        25.13205
428.10        25.09163
428.54        25.04774
428.99        25.00826
429.44        25.09255
429.88        25.19735
430.33        24.99268
430.77        24.57094
431.22        24.41154
431.66        24.54042
432.11        24.70965
432.56        24.86059
433.00        25.12019
433.45         25.2912
433.89         25.0956
434.34        24.72739
434.78        24.46874
435.23        24.22125
435.67        25.36645
436.12        24.40335
436.57        24.32315
437.01        24.18265
437.46        24.15343
437.90        24.24656
438.35        24.42369
438.79        24.60291
439.24        24.67416
439.68        24.61567
440.13        24.26964
440.57        23.82566
441.02        23.96854
441.46        24.48878
441.91        24.60267
442.35         23.7193
442.80        23.46901
443.24        23.60972
443.69        23.63031
444.13        23.48772
444.58        23.37522
445.02        23.30727
445.47        23.29237
445.91        23.31944
446.36        23.31773
446.80        23.27292
447.24        23.23064
447.69        23.20081
448.13        23.15041
448.58        23.08756
449.02        23.01765
449.47        22.93811
449.91        22.83607
450.36        22.72308
450.80        22.60364
451.25        22.51167
451.69        22.47571
452.13        22.50624
452.58        22.58429
453.02        22.68519
453.47        22.77645
453.91        22.84446
454.36        22.89259
454.80        22.91236
455.24        22.88916
455.69        22.83364
456.13        22.72894
456.58        22.62049
457.02        22.56472
457.46        22.56834
457.91        22.56454
458.35        22.54149
458.79        22.54086
459.24        22.55246
459.68        22.57457
460.13        22.65246
460.57        22.64281
461.01        22.51963
461.46        22.90957
461.90        22.94355
462.34        22.68926
462.79        22.90939
463.23        22.81931
463.68        22.75815
464.12        22.67947
464.56        22.76683
465.01        22.87298
465.45        22.95242
465.89        22.96147
466.34        22.90024
466.78        22.70657
467.22        22.47707
467.67        22.52751
468.11         22.8142
468.55        22.88008
468.99        22.71719
469.44        22.68504
469.88        22.78667
470.32        22.80068
470.77        22.72836
471.21        22.68694
471.65        22.68662
472.10        22.69549
472.54        22.70732
472.98        22.75716
473.42        22.83944
473.87        22.87947
474.31        22.88508
474.75        23.00933
475.20        23.20366
475.64        23.20792
476.08        23.06321
476.52        23.03988
476.97         23.1488
477.41        23.26018
477.85        23.32947
478.29        23.35448
478.74        23.33122
479.18        23.22152
479.62        23.11011
480.06        23.13498
480.50        23.28665
480.95        23.42021
481.39        23.48072
481.83         23.4929
482.27        23.44882
482.72        23.33774
483.16        23.21703
483.60        23.17173
484.04        23.22286
484.48        23.41831
484.93        23.76287
485.37        23.81737
485.81        23.89111
486.25        24.13213
486.69        25.45272
487.14        24.58396
487.58        23.94263
488.02        24.83578
488.46        24.38803
488.90        24.58648
489.34        24.28278
489.79        24.28989
490.23        24.54626
490.67        24.71562
491.11        24.77593
491.55        24.71299
491.99        24.57312
492.43        24.52208
492.88        24.58708
493.32        24.64911
493.76        24.71544
494.20        24.85089
494.64        25.05298
495.08        25.31972
495.52        25.59794
495.96        25.76779
496.41        25.84354
496.85        25.91979
497.29         26.0238
497.73        26.21393
498.17        26.45631
498.61        26.53687
499.05        26.48076
499.49        26.57713
499.93        26.83789
500.37        27.00535
500.82        27.08678
501.26        27.34273
501.70         27.7056
502.14         27.7826
502.58        27.61339
503.02         27.5864
503.46        27.72675
503.90        27.82891
504.34        27.86354
504.78        27.87723
505.22        27.86691
505.66         27.8295
506.10        27.79409
506.54        27.80271
506.98        27.86636
507.42        27.97623
507.86        28.11011
508.30        28.22881
508.74        28.31883
509.18        28.38811
509.62        28.44953
510.06        28.52403
510.50        28.61776
510.94        28.72486
511.38        28.82693
511.82         28.8962
512.26        28.92649
512.70        28.92436
513.14        28.92019
513.58        28.95669
514.02        29.03508
514.46        29.14626
514.90        29.25126
515.34         29.2203
515.78        29.09492
516.22        28.94879
516.66        28.85918
517.10        28.62419
517.54        28.26011
517.98        28.77815
518.42        28.66513
518.86        28.88173
519.30        28.95975
519.74        29.04725
520.18        29.11286
520.62        29.08771
521.06        28.98519
521.50        28.81434
521.93        28.62289
522.37        28.49768
522.81        28.46007
523.25        28.48677
523.69        28.55013
524.13        28.60427
524.57        28.63014
525.01        28.63851
525.45        28.62612
525.89        28.58755
526.32         28.5242
526.76        28.43821
527.20        28.33869
527.64        28.24746
528.08        28.17029
528.52        28.10047
528.96        28.04136
529.40        27.99377
529.83        27.95505
530.27        27.93561
530.71        27.90911
531.15        27.83659
531.59        27.71738
532.03        27.56422
532.46        27.42495
532.90        27.39518
533.34        27.47854
533.78        27.63897
534.22        27.80934
534.66        27.88642
535.09        27.84166
535.53        27.71816
535.97        27.55472
536.41        27.41051
536.85        27.31053
537.28        27.25212
537.72        27.24447
538.16        27.21798
538.60        27.29913
539.04        27.36924
539.47        27.43744
539.91        27.52813
540.35        27.65203
540.79        27.56854
541.22         27.6429
541.66        27.69379
542.10        27.85376
542.54        27.67061
542.97        27.88063
543.41        27.97298
543.85        28.14515
544.29        28.32139
544.72        28.45977
545.16        28.57785
545.60         28.6617
546.04        28.62337
546.47        28.55576
546.91        28.78413
547.35        29.24222
547.79        29.55233
548.22        29.66677
548.66        29.71308
549.10        29.74451
549.53        29.95845
549.97        30.36182
550.41         30.4145
550.84        30.67131
551.28        30.82811
551.72        31.06009
552.15        31.27143
552.59         31.4624
553.03        31.64811
553.46        31.80135
553.90        31.91434
554.34        31.98427
554.77         32.0162
555.21        32.04705
555.65        32.12106
556.08        32.24163
556.52        32.39007
556.96        32.53995
557.39        32.68958
557.83        32.81886
558.27        32.85569
558.70        32.81995
559.14        32.81137
559.57        32.83195
560.01        32.87367
560.45        32.92419
560.88         32.9133
561.32         32.9033
561.75        33.00954
562.19         33.3194
562.63        33.43187
563.06        33.39411
563.50         33.4555
563.93        33.60821
564.37        33.78173
564.80        33.81716
565.24        33.92543
565.68        34.03831
566.11        34.13121
566.55        34.22748
566.98        34.27619
567.42        34.26908
567.85        34.62537
568.29        34.45724
568.72        34.81539
569.16        35.34327
569.60        35.70798
570.03        35.84644
570.47        36.00359
570.90         36.0266
571.34         36.4166
571.77        36.00794
572.21        36.53057
572.64        36.73964
573.08        36.77753
573.51        36.73777
573.95        37.56285
574.38        38.00714
574.82        38.16475
