SpectraSmart Spectrum 2.9.0.0
--------- Device Information -----------
Spectrum Name :  反射率_0
Saving Time :  2024/04/20 00:26:23
Spectro-Module Model Name : SE2030-DUVN
Spectro-Module Serial Number : OS361AC55029948
Wavelength Start : 200
Wavelength End : 1025
Wavelength Unit : Wavelength(nm)
Spectrum Unit : Reflectance(%)
-----------Spectrum Setting ------------
Integration Time : 30ms
Average : 10
Boxcar : 0
Background removal :  enabled
linearity correction :  enabled
SC :  disabled
Intensity correction :  disabled
DWT denoise :  enabled
savitzky-golay :  disabled
FFT :  disabled
Running average :  disabled
Kalman :  disabled
High pass :  disabled
---------------BEGIN--------------------
Wavelength(nm)             Reflectance(%)
200.29               0
200.75        50.34801
201.21        51.20388
201.67         54.4704
202.13        60.43191
202.58        68.84867
203.04        80.02283
203.50        90.28568
203.96        91.19641
204.42         83.0124
204.88        71.50246
205.34        61.49267
205.80        54.86608
206.26        50.38057
206.72        46.42192
207.18        42.60007
207.64        40.04936
208.10        40.47039
208.55        44.16405
209.01         48.2234
209.47        50.75296
209.93        51.71049
210.39        51.59357
210.85        50.83831
211.31        50.00016
211.77        49.16903
212.23        48.09229
212.69        47.02754
213.14         47.1468
213.60        48.28728
214.06        50.10843
214.52        51.79797
214.98        53.07972
215.44        54.07822
215.90        54.70932
216.36        55.31184
216.81        56.42209
217.27        57.88168
217.73        59.54569
218.19        60.03043
218.65        57.35313
219.11        51.17489
219.57        41.61985
220.02        30.70559
220.48        24.40327
220.94        24.81607
221.40        31.05337
221.86        39.25791
222.32        43.26204
222.77        41.66853
223.23        36.57497
223.69        31.28209
224.15        30.46749
224.61        33.97628
225.06        39.06807
225.52        43.33997
225.98        45.03361
226.44        44.16793
226.90        41.74731
227.36        38.38214
227.81        35.13707
228.27         33.0075
228.73        31.65508
229.19        31.30351
229.65        32.19194
230.10        33.99227
230.56        36.33784
231.02        38.61824
231.48        40.07268
231.93        40.59705
232.39        40.46688
232.85         39.8981
233.31        39.24604
233.77        38.67729
234.22        38.11621
234.68        37.65646
235.14         37.3707
235.60        37.29096
236.05        37.42139
236.51        37.82575
236.97        38.57459
237.43        39.76625
237.88        41.69646
238.34        44.04449
238.80        45.81357
239.26         46.1907
239.71         45.0393
240.17        43.42818
240.63        43.61993
241.08        46.15298
241.54        50.50428
242.00         54.9759
242.46        56.39852
242.91        53.29362
243.37        44.77035
243.83        31.42904
244.28        21.91725
244.74        25.36269
245.20        40.50199
245.66        56.16227
246.11        62.34216
246.57        58.15779
247.03        44.57678
247.48        25.72347
247.94        21.59716
248.40        34.17128
248.85        49.19654
249.31        59.78682
249.77        64.57377
250.22        65.16544
250.68        63.18559
251.14        59.79126
251.59        57.43484
252.05        57.66971
252.51        59.89621
252.96         62.3266
253.42        62.13729
253.88        58.96231
254.33        54.43425
254.79        51.27713
255.25        51.70267
255.70        55.29689
256.16        60.49313
256.62        65.24224
257.07        67.32548
257.53        66.80095
257.99        64.50508
258.44        61.43743
258.90        59.56945
259.35        58.66859
259.81        58.53111
260.27        58.17099
260.72        56.76299
261.18        54.61826
261.63          51.739
262.09        49.19108
262.55        47.93806
263.00        47.94767
263.46        48.86637
263.91        49.56886
264.37        48.98016
264.83        47.11398
265.28        44.42233
265.74        42.07152
266.19        41.25977
266.65        42.10004
267.11        43.89886
267.56        45.73046
268.02         46.2869
268.47        45.33488
268.93         43.3402
269.38        40.84231
269.84         38.9549
270.30        38.01115
270.75         37.7094
271.21        37.70446
271.66        37.47105
272.12         36.8448
272.57        36.00808
273.03        35.17759
273.48        34.57219
273.94        34.28411
274.39        34.17521
274.85        34.06424
275.31        33.68147
275.76        32.96839
276.22         32.0372
276.67        31.10618
277.13        30.59652
277.58         30.5071
278.04        30.72762
278.49        30.88877
278.95        30.53259
279.40        29.58038
279.86        28.29582
280.31        26.98563
280.77         26.2114
281.22        26.00124
281.68        26.19001
282.13        26.48496
282.59        26.48992
283.04        26.11483
283.50        25.53928
283.95        24.91843
284.41         24.5054
284.86        24.33835
285.32        24.33678
285.77         24.4226
286.22        24.55033
286.68        24.67513
287.13        24.79343
287.59        24.86673
288.04        24.80927
288.50        24.63632
288.95        24.34856
289.41        24.03038
289.86        23.74165
290.32        23.55418
290.77        23.44224
291.22        23.43128
291.68        23.51952
292.13        23.70085
292.59        23.98696
293.04        24.35082
293.50        24.76385
293.95        25.20304
294.40        25.65695
294.86        26.12984
295.31        26.64345
295.77        27.20014
296.22        27.79332
296.68        28.38338
297.13        28.88486
297.58        29.29426
298.04        29.64247
298.49        30.00681
298.95        30.54682
299.40        31.26766
299.85        32.10735
300.31        32.95048
300.76        33.61776
301.21        34.06908
301.67         34.3921
302.12         34.6251
302.58        34.88361
303.03        35.18225
303.48        35.50364
303.94         35.8933
304.39        36.38198
304.84        36.96686
305.30        37.62313
305.75        38.23542
306.20        38.64785
306.66        38.84924
307.11        38.87039
307.57        38.81884
308.02         38.7869
308.47        38.83195
308.93        38.92012
309.38        39.03486
309.83        39.20078
310.29        39.39936
310.74        39.62497
311.19        39.79562
311.65         39.7757
312.10        39.54367
312.55        39.14511
313.00        38.70141
313.46        38.40048
313.91        38.27282
314.36        38.28288
314.82        38.33905
315.27        38.31445
315.72        38.16075
316.18        37.92812
316.63        37.66736
317.08        37.46472
317.53        37.33558
317.99        37.23597
318.44        37.12276
318.89        36.92133
319.35         36.6147
319.80        36.23406
320.25        35.81777
320.70        35.42528
321.16        35.07362
321.61        34.75409
322.06        34.44978
322.51        34.13559
322.97        33.79734
323.42        33.45087
323.87        33.10039
324.32        32.75644
324.78        32.41665
325.23        32.08658
325.68         31.7471
326.13        31.37498
326.59        30.97182
327.04        30.57234
327.49        30.20743
327.94        29.92751
328.39        29.74209
328.85        29.61534
329.30        29.55817
329.75        29.54139
330.20         29.5392
330.66        29.52705
331.11        29.47839
331.56        29.29941
332.01        28.97246
332.46        28.51955
332.92        28.00039
333.37        27.53013
333.82        27.15953
334.27        26.88899
334.72        26.69945
335.17        26.54864
335.63        26.41037
336.08        26.29305
336.53        26.23084
336.98        26.28776
337.43        26.45712
337.88          26.713
338.34        26.88949
338.79        26.76801
339.24        26.30002
339.69        25.55656
340.14         24.7958
340.59        24.45366
341.05        24.61567
341.50        25.14964
341.95        25.77886
342.40         26.0702
342.85        25.91823
343.30        25.47109
343.75        24.89175
344.20        24.44931
344.66        24.22927
345.11        24.11135
345.56        24.07862
346.01        24.10727
346.46        24.15891
346.91        24.26548
347.36         24.2991
347.81        24.04414
348.26        23.49416
348.72        22.74728
349.17        22.00071
349.62        21.66749
350.07        21.83956
350.52        22.36891
350.97        23.04472
351.42        23.55023
351.87        23.78101
352.32        23.81821
352.77        23.69232
353.22         23.4575
353.67         23.1572
354.13          22.789
354.58        22.39497
355.03        22.08672
355.48        21.89802
355.93        21.82667
356.38        21.83965
356.83        21.86674
357.28        21.87807
357.73        21.87551
358.18        21.86776
358.63        21.87294
359.08        21.88698
359.53        21.89659
359.98        21.85476
360.43        21.69607
360.88        21.42126
361.33        21.06156
361.78        20.70515
362.23         20.4941
362.68        20.45618
363.13        20.53839
363.58        20.65495
364.03        20.67217
364.48        20.54891
364.93         20.3235
365.38        20.02434
365.83        19.70405
366.28        19.39683
366.73        19.09687
367.18        18.82944
367.63        18.63302
368.08        18.51284
368.53        18.46207
368.98        18.45794
369.43        18.45638
369.88        18.44316
370.33        18.43005
370.78         18.4069
371.23        18.36314
371.68        18.29749
372.13         18.1975
372.58        18.10348
373.03        18.08841
373.48        18.15656
373.93        18.28216
374.38        18.37755
374.83        18.30719
375.28        18.05128
375.72        17.65077
376.17         17.2277
376.62        16.93744
377.07        16.82986
377.52        16.85873
377.97         16.9631
378.42        17.04568
378.87        17.07022
379.32        17.06013
379.77        17.03243
380.22        17.01062
380.67        17.00008
381.11        16.98997
381.56        16.94918
382.01        16.85049
382.46        16.69037
382.91        16.47814
383.36        16.26606
383.81         16.1273
384.26         16.0768
384.71        16.10686
385.15        16.13939
385.60        16.05493
386.05        15.83798
386.50         15.5258
386.95        15.24074
387.40         15.1756
387.85         15.3523
388.29        15.68803
388.74        16.02573
389.19         16.1468
389.64        16.00762
390.09         15.6746
390.54        15.26702
390.98        14.97213
391.43        14.86102
391.88        14.86934
392.33        14.90956
392.78        14.85487
393.23        14.68723
393.67        14.45019
394.12        14.24186
394.57        14.14198
395.02        14.16559
395.47        14.27819
395.91        14.41761
396.36        14.46297
396.81        14.38683
397.26        14.21796
397.71        14.03246
398.15        13.93153
398.60        13.95075
399.05        14.04762
399.50        14.13824
399.95        14.10157
400.39        13.91562
400.84        13.61664
401.29        13.30629
401.74        13.16993
402.18        13.26157
402.63        13.51543
403.08        13.79768
403.53        13.89579
403.97         13.7637
404.42        13.47706
404.87        13.16117
405.32        13.02168
405.76        13.10559
406.21        13.33839
406.66        13.60978
407.11        13.75048
407.55        13.71664
408.00        13.56586
408.45          13.363
408.90        13.18679
409.34        13.08891
409.79        13.10017
410.24         13.1695
410.68        13.16527
411.13        13.07437
411.58        12.97199
412.03         12.8734
412.47        12.78396
412.92        12.71418
413.37        12.65235
413.81        12.63126
414.26        12.71559
414.71        12.89965
415.15        13.16906
415.60         13.4138
416.05        13.47586
416.49         13.3188
416.94        12.99787
417.39        12.63042
417.83        12.40947
418.28        12.39158
418.73        12.51182
419.17         12.6881
419.62        12.77722
420.07        12.74468
420.51        12.63939
420.96        12.50217
421.41        12.37789
421.85        12.28222
422.30        12.20559
422.74        12.15099
423.19        12.14951
423.64        12.19353
424.08        12.28428
424.53        12.37376
424.98        12.39723
425.42        12.34188
425.87        12.23257
426.31        12.10037
426.76        12.00337
427.21        11.95011
427.65        11.91497
428.10        11.91828
428.54        11.97184
428.99        12.06937
429.44        12.25824
429.88         12.4399
430.33        12.37539
430.77        12.10738
431.22        11.89749
431.66        11.81319
432.11        11.82633
432.56        11.93481
433.00        12.17935
433.45        12.41316
433.89        12.40999
434.34        12.23051
434.78        12.01292
435.23        11.76489
435.67        12.29037
436.12         11.8754
436.57        11.79296
437.01        11.58765
437.46         11.4888
437.90        11.50703
438.35        11.54363
438.79        11.56731
439.24        11.57887
439.68        11.56794
440.13        11.44023
440.57        11.26743
441.02        11.34482
441.46        11.56637
441.91        11.57475
442.35        11.10184
442.80        10.93048
443.24        10.94494
443.69        10.90427
444.13        10.79511
444.58        10.72342
445.02         10.6943
445.47        10.70996
445.91        10.74185
446.36        10.72003
446.80        10.63189
447.24        10.51156
447.69        10.39643
448.13          10.317
448.58        10.28981
449.02        10.30433
449.47         10.3324
449.91        10.32413
450.36        10.27291
450.80        10.18991
451.25        10.11734
451.69        10.10765
452.13        10.17182
452.58        10.28124
453.02        10.39329
453.47        10.43914
453.91        10.40593
454.36        10.31564
454.80        10.19821
455.24        10.10649
455.69        10.06363
456.13        10.04169
456.58        10.04367
457.02        10.06767
457.46        10.10749
457.91        10.14246
458.35        10.16138
458.79        10.16613
459.24         10.1545
459.68        10.12331
460.13        10.12239
460.57        10.12937
461.01        10.14032
461.46           10.42
461.90        10.53967
462.34         10.4579
462.79        10.51651
463.23        10.37676
463.68        10.23893
464.12        10.15178
464.56        10.21889
465.01        10.34265
465.45        10.47679
465.89        10.56357
466.34        10.59175
466.78         10.5479
467.22        10.46867
467.67        10.48762
468.11        10.58505
468.55         10.5501
468.99         10.4121
469.44        10.38787
469.88        10.48922
470.32        10.60149
470.77        10.68324
471.21        10.72557
471.65        10.71568
472.10        10.65869
472.54        10.58603
472.98        10.57682
473.42        10.64431
473.87        10.73364
474.31        10.81545
474.75        10.90764
475.20        10.97846
475.64        10.92498
476.08        10.80424
476.52        10.79858
476.97        10.92272
477.41        11.09687
477.85        11.26355
478.29        11.36215
478.74        11.37353
479.18        11.29591
479.62        11.19632
480.06        11.18329
480.50        11.26156
480.95        11.34385
481.39        11.39162
481.83        11.39947
482.27        11.36203
482.72        11.29078
483.16        11.21487
483.60        11.18348
484.04         11.2043
484.48        11.31043
484.93        11.55341
485.37        11.69926
485.81         11.7875
486.25        12.34274
486.69        12.81741
487.14        12.17772
487.58        12.29476
488.02        13.07341
488.46        12.61176
488.90        12.67682
489.34        12.56813
489.79        12.73146
490.23         13.0794
490.67        13.30027
491.11        13.35309
491.55        13.27442
491.99        13.12153
492.43        13.04395
492.88        13.07858
493.32        13.11891
493.76        13.18248
494.20        13.35041
494.64        13.62066
495.08        13.95801
495.52        14.30438
495.96        14.58234
496.41        14.76963
496.85        14.85766
497.29        14.88796
497.73        15.00297
498.17        15.20177
498.61        15.31463
499.05        15.35127
499.49        15.48308
499.93        15.71818
500.37        15.92369
500.82        16.09151
501.26        16.34242
501.70        16.63081
502.14        16.73315
502.58        16.67603
503.02        16.69718
503.46        16.81442
503.90        16.90202
504.34        16.93973
504.78        16.95168
505.22        16.93781
505.66        16.90385
506.10        16.87211
506.54        16.87288
506.98         16.9182
507.42        17.00414
507.86        17.12499
508.30        17.26896
508.74        17.42431
509.18         17.5832
509.62        17.73886
510.06        17.88244
510.50        18.00927
510.94        18.12265
511.38        18.20151
511.82        18.21527
512.26        18.16472
512.70        18.06013
513.14        17.95947
513.58        17.95023
514.02        18.04217
514.46         18.2125
514.90        18.39134
515.34        18.40888
515.78         18.2629
516.22        18.07857
516.66        17.95028
517.10         17.6744
517.54        17.27653
517.98         17.9122
518.42        17.82324
518.86        18.09571
519.30        18.18584
519.74        18.27323
520.18        18.33251
520.62        18.30105
521.06        18.19687
521.50        18.02013
521.93        17.82121
522.37        17.69262
522.81        17.65551
523.25        17.68986
523.69        17.75261
524.13        17.77262
524.57        17.73018
525.01        17.64474
525.45        17.54745
525.89        17.48747
526.32        17.47554
526.76        17.49489
527.20        17.51091
527.64        17.47513
528.08        17.37522
528.52        17.22393
528.96        17.06126
529.40        16.94576
529.83        16.89013
530.27        16.88493
530.71         16.8777
531.15        16.78616
531.59        16.60171
532.03        16.35651
532.46        16.12719
532.90        16.04736
533.34        16.13074
533.78        16.32429
534.22        16.54171
534.66        16.65134
535.09         16.6164
535.53        16.48654
535.97        16.30361
536.41        16.13258
536.85        16.00321
537.28        15.90546
537.72        15.85693
538.16        15.83609
538.60        15.91772
539.04        16.02954
539.47        16.15507
539.91        16.27122
540.35        16.37609
540.79        16.33573
541.22        16.38392
541.66         16.4413
542.10        16.59403
542.54        16.56181
542.97        16.77139
543.41        16.89817
543.85        17.05536
544.29        17.20621
544.72        17.33366
545.16        17.46036
545.60        17.58277
546.04        17.64197
546.47        17.69179
546.91        17.93104
547.35        18.31421
547.79        18.60178
548.22        18.75969
548.66        18.86271
549.10        18.94662
549.53        19.14164
549.97         19.4514
550.41        19.52301
550.84        19.71377
551.28        19.83308
551.72        20.01423
552.15        20.22888
552.59        20.47767
553.03        20.75653
553.46        21.01763
553.90         21.1989
554.34        21.28819
554.77        21.32337
555.21        21.35729
555.65        21.36851
556.08        21.51516
556.52        21.66905
556.96        21.84652
557.39        22.00764
557.83        22.14505
558.27         22.2628
558.70        22.35696
559.14        22.42305
559.57        22.45755
560.01        22.49204
560.45        22.52491
560.88        22.51275
561.32        22.50714
561.75        22.56811
562.19        22.76777
562.63        22.89353
563.06         22.9569
563.50        23.02608
563.93        23.10386
564.37        23.23689
564.80        23.32044
565.24        23.44483
565.68        23.55719
566.11        23.66299
566.55        23.77895
566.98        23.84505
567.42         23.8689
567.85        24.19978
568.29        24.19817
568.72        24.51257
569.16        24.89112
569.60        25.16771
570.03         25.3007
570.47        25.42526
570.90        25.44571
571.34        25.76729
571.77         25.5601
572.21        26.04135
572.64         26.1693
573.08        26.37911
573.51        26.56549
573.95        27.20125
574.38        27.25143
574.82        27.49381
