SpectraSmart Spectrum 2.9.0.0
--------- Device Information -----------
Spectrum Name :  反射率_0
Saving Time :  2024/04/19 23:52:52
Spectro-Module Model Name : SE2030-DUVN
Spectro-Module Serial Number : OS361AC55029948
Wavelength Start : 200
Wavelength End : 1025
Wavelength Unit : Wavelength(nm)
Spectrum Unit : Reflectance(%)
-----------Spectrum Setting ------------
Integration Time : 30ms
Average : 10
Boxcar : 0
Background removal :  enabled
linearity correction :  enabled
SC :  disabled
Intensity correction :  disabled
DWT denoise :  enabled
savitzky-golay :  disabled
FFT :  disabled
Running average :  disabled
Kalman :  disabled
High pass :  disabled
---------------BEGIN--------------------
Wavelength(nm)             Reflectance(%)
200.29               0
200.75        55.74933
201.21        54.81822
201.67        55.33376
202.13        58.97084
202.58        66.45668
203.04        77.98929
203.50        90.05255
203.96        93.56651
204.42        87.71518
204.88        78.09824
205.34        69.50843
205.80        64.15429
206.26        61.18264
206.72        59.21328
207.18        58.29367
207.64        59.23185
208.10        62.14886
208.55        66.70621
209.01        69.97052
209.47        70.43404
209.93        68.58554
210.39        65.19968
210.85        61.41387
211.31        58.37317
211.77         56.0434
212.23        53.83568
212.69        51.87966
213.14        51.33056
213.60        52.20995
214.06        54.29765
214.52        56.34948
214.98        57.78158
215.44        58.70487
215.90        58.93328
216.36        59.16041
216.81        60.71204
217.27        63.54995
217.73        67.27208
218.19        69.43163
218.65        66.63022
219.11        58.33472
219.57         44.8822
220.02        29.66736
220.48        21.71475
220.94        24.34783
221.40        35.89633
221.86        50.20709
222.32        57.64421
222.77        55.96195
223.23        48.31323
223.69        39.69595
224.15        37.21563
224.61        41.07927
225.06        47.55812
225.52        53.13212
225.98          54.932
226.44        52.97038
226.90        48.61544
227.36        43.47784
227.81        40.34209
228.27        40.35456
228.73        42.22959
229.19        44.64208
229.65        46.08438
230.10         46.3272
230.56        46.00941
231.02        45.58828
231.48        45.58583
231.93        46.03148
232.39         46.6642
232.85        47.20794
233.31        47.31965
233.77        46.91942
234.22        46.15324
234.68        45.22208
235.14        44.35188
235.60        43.70169
236.05        43.28477
236.51        43.11541
236.97        43.18022
237.43        43.52529
237.88        44.35151
238.34        45.72858
238.80        47.81976
239.26        50.29992
239.71        52.66742
240.17        54.40942
240.63        55.58705
241.08        56.35659
241.54        56.74092
242.00        56.26898
242.46        53.88288
242.91        48.89514
243.37        40.10419
243.83        28.38506
244.28        21.98166
244.74         28.8409
245.20        47.15943
245.66        64.98177
246.11        72.54911
246.57        69.39397
247.03        56.16708
247.48        36.22124
247.94        29.14087
248.40        38.66553
248.85        51.55557
249.31        60.98206
249.77        65.23545
250.22        65.62303
250.68        63.74182
251.14        60.44156
251.59        57.49745
252.05         56.2622
252.51        56.34012
252.96        56.73917
253.42         56.0293
253.88        54.07781
254.33        51.83749
254.79        51.10455
255.25        53.23218
255.70        57.69695
256.16         63.1752
256.62        67.87498
257.07        69.87437
257.53        69.27232
257.99        66.81632
258.44        63.35949
258.90        60.77197
259.35        59.02641
259.81        58.15736
260.27        57.29606
260.72        55.67719
261.18        53.56141
261.63        50.88198
262.09        48.64822
262.55        47.75581
263.00        48.11038
263.46          49.324
263.91        50.26575
264.37           49.87
264.83        48.14243
265.28        45.53387
265.74        43.16869
266.19         42.1792
266.65        42.71563
267.11         44.1563
267.56        45.67103
268.02         46.0772
268.47        45.16602
268.93        43.35549
269.38        41.16425
269.84        39.65907
270.30        39.11697
270.75        39.21624
271.21        39.52593
271.66        39.40559
272.12        38.68078
272.57        37.56873
273.03        36.37301
273.48        35.46043
273.94        34.97321
274.39        34.73972
274.85        34.55809
275.31        34.11525
275.76        33.33949
276.22         32.3714
276.67        31.40748
277.13        30.83321
277.58        30.64591
278.04        30.73528
278.49        30.78972
278.95        30.43745
279.40        29.60283
279.86        28.51878
280.31        27.39688
280.77         26.6669
281.22        26.34114
281.68        26.29593
282.13        26.35056
282.59        26.27669
283.04        26.00764
283.50        25.66346
283.95        25.27011
284.41        24.89371
284.86        24.54576
285.32        24.21722
285.77        23.96118
286.22         23.9291
286.68        24.11519
287.13        24.44526
287.59        24.76626
288.04        24.83233
288.50        24.62329
288.95        24.18932
289.41         23.6981
289.86        23.33759
290.32        23.20799
290.77        23.23977
291.22        23.37454
291.68        23.48935
292.13        23.55948
292.59         23.6431
293.04        23.80388
293.50         24.1494
293.95        24.68195
294.40         25.3388
294.86         26.0367
295.31        26.66288
295.77        27.18554
296.22        27.64193
296.68        28.05564
297.13        28.44292
297.58        28.83403
298.04        29.23128
298.49        29.67715
298.95        30.27715
299.40        31.02223
299.85        31.87098
300.31        32.73244
300.76        33.46165
301.21        34.01891
301.67        34.46695
302.12        34.81505
302.58        35.14092
303.03        35.45033
303.48        35.74163
303.94        36.07127
304.39        36.48657
304.84        36.99446
305.30         37.5667
305.75        38.10221
306.20        38.46621
306.66        38.65015
307.11        38.68236
307.57        38.64588
308.02        38.59397
308.47        38.57724
308.93         38.5722
309.38         38.5924
309.83        38.70861
310.29        38.91079
310.74        39.17941
311.19        39.39857
311.65        39.38008
312.10        39.09219
312.55        38.59714
313.00        38.05299
313.46        37.70435
313.91        37.59198
314.36        37.65902
314.82        37.77647
315.27        37.75727
315.72        37.53839
316.18         37.1928
316.63        36.80236
317.08         36.4971
317.53        36.30796
317.99        36.18303
318.44        36.06888
318.89        35.87377
319.35        35.57621
319.80        35.21257
320.25         34.8341
320.70        34.51962
321.16        34.28385
321.61        34.10248
322.06        33.92941
322.51        33.69501
322.97        33.37411
323.42        32.99799
323.87        32.59085
324.32        32.19767
324.78        31.83122
325.23         31.4887
325.68        31.15944
326.13        30.83152
326.59        30.50471
327.04        30.21241
327.49        29.95702
327.94        29.74182
328.39        29.56335
328.85        29.39074
329.30        29.26657
329.75        29.22132
330.20        29.24652
330.66        29.30578
331.11        29.33101
331.56         29.1597
332.01        28.76191
332.46        28.18276
332.92        27.53895
333.37        27.04156
333.82        26.76394
334.27        26.67222
334.72        26.68614
335.17        26.65762
335.63        26.52602
336.08        26.33428
336.53        26.14659
336.98        26.07904
337.43        26.15221
337.88        26.32512
338.34        26.45328
338.79         26.3545
339.24        25.97741
339.69        25.37949
340.14        24.77035
340.59        24.49792
341.05        24.62649
341.50        25.05655
341.95        25.53983
342.40        25.69038
342.85        25.42454
343.30        24.87498
343.75        24.23999
344.20        23.84365
344.66        23.77345
345.11        23.89728
345.56        24.11396
346.01        24.26156
346.46        24.27457
346.91        24.22118
347.36        24.07461
347.81        23.77979
348.26        23.36247
348.72        22.87002
349.17        22.40159
349.62        22.20599
350.07        22.33466
350.52        22.69997
350.97        23.17721
351.42        23.57632
351.87        23.82423
352.32        23.95651
352.77        23.95831
353.22        23.81376
353.67        23.54315
354.13        23.17122
354.58         22.7511
355.03        22.40895
355.48        22.18594
355.93        22.06892
356.38        22.03721
356.83        22.04319
357.28          22.061
357.73        22.09387
358.18        22.12455
358.63        22.12509
359.08        22.08508
359.53        22.00537
359.98        21.88321
360.43        21.72132
360.88        21.52945
361.33         21.3127
361.78        21.10703
362.23        20.97043
362.68        20.91021
363.13        20.90255
363.58        20.90354
364.03        20.84258
364.48        20.69923
364.93          20.496
365.38        20.24447
365.83        19.96932
366.28        19.69255
366.73        19.41292
367.18        19.16544
367.63        19.00328
368.08        18.92838
368.53        18.92159
368.98        18.93357
369.43        18.88158
369.88        18.74895
370.33        18.56779
370.78        18.36018
371.23        18.16997
371.68        18.01683
372.13        17.87494
372.58        17.78411
373.03        17.81038
373.48        17.94735
373.93        18.17127
374.38        18.35927
374.83        18.32301
375.28        18.03449
375.72        17.54333
376.17        17.02054
376.62        16.70529
377.07        16.66428
377.52        16.82599
377.97        17.07021
378.42        17.20691
378.87        17.18276
379.32        17.05462
379.77        16.89694
380.22        16.81836
380.67        16.84234
381.11        16.92857
381.56        17.00189
382.01        16.96204
382.46        16.78443
382.91        16.50486
383.36        16.20595
383.81        16.00573
384.26        15.93295
384.71        15.96388
385.15        16.00955
385.60        15.93607
386.05        15.72098
386.50        15.40609
386.95        15.11484
387.40        15.03927
387.85        15.20317
388.29          15.527
388.74        15.85056
389.19        15.95128
389.64        15.78825
390.09        15.43095
390.54        15.01713
390.98        14.76124
391.43        14.73552
391.88        14.86324
392.33        15.02515
392.78        15.05087
393.23        14.91227
393.67         14.6605
394.12        14.42369
394.57        14.32445
395.02        14.38472
395.47        14.56092
395.91         14.7524
396.36        14.77067
396.81        14.58116
397.26        14.24578
397.71        13.90651
398.15        13.75681
398.60        13.84525
399.05        14.09252
399.50         14.3614
399.95        14.45675
400.39        14.33703
400.84        14.05834
401.29        13.74117
401.74        13.60443
402.18        13.71203
402.63        13.98215
403.08         14.2706
403.53        14.35205
403.97        14.18035
404.42        13.84508
404.87        13.47863
405.32        13.29487
405.76        13.34537
406.21        13.55032
406.66        13.80972
407.11        13.97049
407.55        13.98788
408.00        13.91629
408.45        13.78848
408.90        13.62496
409.34        13.46902
409.79        13.37558
410.24        13.33966
410.68        13.29847
411.13         13.2532
411.58        13.25563
412.03        13.28949
412.47        13.30399
412.92        13.28665
413.37        13.24049
413.81        13.20618
414.26        13.26134
414.71        13.40815
415.15        13.62807
415.60        13.81817
416.05        13.83568
416.49        13.64972
416.94        13.31563
417.39        12.94988
417.83        12.73939
418.28        12.73816
418.73        12.88413
419.17        13.08749
419.62        13.19384
420.07        13.16665
420.51        13.05464
420.96        12.91374
421.41        12.81279
421.85        12.76978
422.30        12.76783
422.74        12.78538
423.19        12.81829
423.64        12.85297
424.08        12.89965
424.53        12.93775
424.98        12.95304
425.42        12.94337
425.87        12.91396
426.31        12.86034
426.76        12.78637
427.21        12.68862
427.65        12.56251
428.10        12.45307
428.54        12.41461
428.99        12.46037
429.44        12.62749
429.88        12.81654
430.33        12.78451
430.77        12.56717
431.22        12.43203
431.66        12.42932
432.11        12.49428
432.56         12.6142
433.00        12.83634
433.45        13.02422
433.89        12.98122
434.34        12.78627
434.78        12.57441
435.23        12.33584
435.67         12.8881
436.12        12.43034
436.57        12.30972
437.01        12.06785
437.46         11.9724
437.90        12.04001
438.35        12.15367
438.79        12.26298
439.24        12.34331
439.68         12.3734
440.13        12.25714
440.57        12.07018
441.02         12.1294
441.46        12.32402
441.91        12.27452
442.35        11.71324
442.80        11.48521
443.24        11.46973
443.69        11.41261
444.13        11.29398
444.58        11.21213
445.02        11.16978
445.47        11.17207
445.91        11.19812
446.36        11.18879
446.80        11.13185
447.24        11.05605
447.69        10.98456
448.13        10.92687
448.58        10.89515
449.02        10.88416
449.47        10.88086
449.91        10.85917
450.36        10.81934
450.80        10.76772
451.25        10.73042
451.69        10.73458
452.13        10.78615
452.58        10.86242
453.02        10.94335
453.47        10.99493
453.91        11.00963
454.36         10.9996
454.80         10.9604
455.24        10.88755
455.69        10.79471
456.13         10.6753
456.58        10.57867
457.02        10.56954
457.46          10.653
457.91        10.78237
458.35        10.90902
458.79        10.98172
459.24        10.98372
459.68        10.92945
460.13        10.88965
460.57        10.86715
461.01        10.86673
461.46        11.16357
461.90        11.29067
462.34        11.19525
462.79        11.23984
463.23        11.06519
463.68        10.89273
464.12         10.7859
464.56         10.8566
465.01        10.99834
465.45        11.14767
465.89        11.22335
466.34        11.21251
466.78        11.10902
467.22        10.97209
467.67         10.9746
468.11        11.10345
468.55         11.1262
468.99        11.05188
469.44        11.07668
469.88        11.20366
470.32        11.31953
470.77        11.38928
471.21        11.41861
471.65        11.39998
472.10        11.33333
472.54        11.25271
472.98        11.24313
473.42        11.31837
473.87        11.42189
474.31        11.51888
474.75        11.62256
475.20        11.69739
475.64        11.63361
476.08        11.49546
476.52        11.48294
476.97        11.61224
477.41        11.79632
477.85        11.96826
478.29        12.05453
478.74        12.03439
479.18        11.91186
479.62        11.76751
480.06        11.72857
480.50        11.80445
480.95        11.90121
481.39        11.97239
481.83        12.00468
482.27        11.98697
482.72        11.92597
483.16        11.86053
483.60        11.85473
484.04        11.91452
484.48        12.08608
484.93        12.38435
485.37        12.53131
485.81        12.56665
486.25        13.14738
486.69         13.1733
487.14        12.88078
487.58        13.12443
488.02        13.73731
488.46        13.29223
488.90        13.30811
489.34         13.3356
489.79        13.46712
490.23        13.65751
490.67        13.84402
491.11        13.98217
491.55        13.97404
491.99        13.85369
492.43        13.79955
492.88        13.83975
493.32        13.85365
493.76        13.87296
494.20        14.00865
494.64        14.26572
495.08        14.60089
495.52         14.9492
495.96        15.22164
496.41        15.39274
496.85        15.45922
497.29        15.46454
497.73        15.55438
498.17        15.72798
498.61        15.80946
499.05        15.81393
499.49        15.92707
499.93        16.15779
500.37        16.36507
500.82        16.53499
501.26        16.78184
501.70        17.05633
502.14        17.13488
502.58        17.04523
503.02        17.02995
503.46        17.11078
503.90        17.16179
504.34        17.17618
504.78        17.20043
505.22        17.23624
505.66        17.27857
506.10        17.33178
506.54         17.3974
506.98        17.47646
507.42        17.57072
507.86        17.67552
508.30        17.78329
508.74        17.88772
509.18        17.98172
509.62        18.07154
510.06        18.16825
510.50        18.27395
510.94        18.39242
511.38        18.49231
511.82        18.52292
512.26         18.4795
512.70        18.37535
513.14        18.28168
513.58        18.30778
514.02        18.46474
514.46        18.71924
514.90         18.9767
515.34        19.02916
515.78        18.86754
516.22        18.62599
516.66        18.42549
517.10        18.10602
517.54        17.70564
517.98        18.36452
518.42        18.31286
518.86        18.59643
519.30        18.66664
519.74        18.71287
520.18         18.7331
520.62        18.69998
521.06        18.63828
521.50        18.53653
521.93        18.41557
522.37        18.32154
522.81        18.26522
523.25        18.24011
523.69         18.2362
524.13        18.23419
524.57        18.22396
525.01        18.20648
525.45        18.17946
525.89        18.13897
526.32        18.08443
526.76        18.02071
527.20        17.94139
527.64        17.84152
528.08        17.72379
528.52        17.58842
528.96        17.46593
529.40        17.40038
529.83        17.39673
530.27        17.44818
530.71        17.49828
531.15        17.45782
531.59        17.31431
532.03         17.0971
532.46         16.8812
532.90         16.8008
533.34        16.87194
533.78        17.04484
534.22        17.23724
534.66        17.32333
535.09        17.26849
535.53        17.12062
535.97        16.92615
536.41        16.75572
536.85        16.63876
537.28        16.56553
537.72        16.53831
538.16        16.50915
538.60        16.55325
539.04        16.60274
539.47        16.66825
539.91        16.76871
540.35        16.90944
540.79        16.93818
541.22        17.06499
541.66        17.15826
542.10        17.29567
542.54        17.19964
542.97        17.34245
543.41        17.43242
543.85        17.59755
544.29        17.78468
544.72        17.95053
545.16        18.08024
545.60         18.1632
546.04        18.15293
546.47        18.12821
546.91        18.33543
547.35        18.73793
547.79        19.05526
548.22        19.23559
548.66        19.37982
549.10        19.49393
549.53        19.61364
549.97        19.77529
550.41         19.7729
550.84        19.98804
551.28        20.14917
551.72        20.36954
552.15        20.61507
552.59        20.87732
553.03        21.15537
553.46        21.40602
553.90        21.58393
554.34        21.68002
554.77        21.70685
555.21        21.71426
555.65        21.76522
556.08        21.87235
556.52        22.03471
556.96        22.21346
557.39        22.33566
557.83        22.40071
558.27        22.45736
558.70        22.52174
559.14        22.58378
559.57        22.64345
560.01        22.74369
560.45        22.85384
560.88        22.87484
561.32        22.85083
561.75        22.86026
562.19        23.00529
562.63        23.11917
563.06        23.22323
563.50         23.3614
563.93        23.51213
564.37        23.69957
564.80        23.79897
565.24        23.88454
565.68        23.92255
566.11        23.97481
566.55        24.06697
566.98        24.11457
567.42        24.12128
567.85        24.43397
568.29        24.40952
568.72        24.72488
569.16        25.11537
569.60        25.38196
570.03        25.48878
570.47        25.57181
570.90        25.54413
571.34        25.88082
571.77         25.7509
572.21        26.14298
572.64        26.32811
573.08        26.51594
573.51        26.57837
573.95        27.17083
574.38        27.34136
574.82        27.59628
