SpectraSmart Spectrum 2.9.0.0
--------- Device Information -----------
Spectrum Name :  反射率_0
Saving Time :  2024/04/20 00:47:04
Spectro-Module Model Name : SE2030-DUVN
Spectro-Module Serial Number : OS361AC55029948
Wavelength Start : 200
Wavelength End : 1025
Wavelength Unit : Wavelength(nm)
Spectrum Unit : Reflectance(%)
-----------Spectrum Setting ------------
Integration Time : 30ms
Average : 10
Boxcar : 0
Background removal :  enabled
linearity correction :  enabled
SC :  disabled
Intensity correction :  disabled
DWT denoise :  enabled
savitzky-golay :  disabled
FFT :  disabled
Running average :  disabled
Kalman :  disabled
High pass :  disabled
---------------BEGIN--------------------
Wavelength(nm)             Reflectance(%)
200.29               0
200.75        59.16908
201.21        59.04828
201.67         60.7442
202.13        65.00822
202.58        71.92538
203.04        81.74799
203.50        91.16747
203.96         92.1458
204.42        84.81449
204.88        74.69348
205.34        65.89995
205.80        59.95934
206.26        55.80569
206.72        51.82414
207.18         48.3829
207.64         48.7734
208.10        54.91261
208.55        64.94838
209.01        72.88407
209.47        74.93551
209.93        72.07323
210.39        66.17107
210.85        59.72017
211.31        55.27283
211.77        53.03137
212.23        52.14138
212.69        52.45737
213.14        53.54638
213.60        54.38396
214.06        55.51617
214.52        56.64656
214.98        57.76155
215.44        58.95045
215.90        59.92891
216.36         60.9929
216.81        62.58855
217.27        64.47789
217.73        66.63975
218.19         67.6771
218.65        65.62599
219.11        60.21091
219.57        51.48754
220.02        41.78864
220.48        37.53798
220.94        40.83967
221.40        50.59417
221.86        61.88152
222.32        67.11431
222.77        64.70137
223.23        57.18185
223.69        49.24801
224.15        47.55593
224.61        52.03867
225.06        59.07783
225.52        65.08437
225.98        66.98087
226.44        64.82203
226.90        60.03452
227.36        54.33599
227.81        50.77485
228.27        50.61024
228.73         52.4605
229.19        55.01417
229.65        56.76402
230.10        57.41152
230.56         57.6241
231.02        57.66544
231.48        57.84145
231.93        58.17973
232.39         58.5013
232.85        58.77574
233.31         59.0505
233.77        59.32407
234.22        59.67495
234.68        59.94893
235.14        59.74637
235.60        59.07066
236.05        58.07552
236.51        57.30523
236.97        57.61374
237.43        59.33944
237.88        62.77006
238.34        67.41376
238.80        71.49893
239.26        73.38426
239.71        72.93834
240.17        70.97233
240.63        69.71373
241.08        69.89093
241.54        70.94173
242.00        71.90179
242.46        70.85072
242.91        66.77773
243.37        58.80563
243.83        47.47467
244.28        39.76555
244.74        42.82689
245.20        55.58529
245.66        68.34023
246.11        72.28007
246.57        66.31957
247.03        50.88081
247.48        29.41961
247.94        22.17443
248.40        32.74069
248.85        46.96812
249.31        57.70184
249.77        63.50792
250.22        65.93983
250.68         66.7746
251.14        66.97363
251.59        67.92799
252.05        70.45625
252.51        74.16241
252.96        77.80344
253.42        79.60026
253.88        79.41215
254.33        78.16595
254.79        78.16474
255.25        81.42051
255.70        87.39442
256.16         94.4683
256.62        100.9604
257.07         105.057
257.53        106.7859
257.99        106.8045
258.44        104.8048
258.90        101.5631
259.35        97.59724
259.81        94.36652
260.27        91.95069
260.72        90.40379
261.18        89.85804
261.63         89.4282
262.09        89.53809
262.55         90.0698
263.00        90.64047
263.46        91.38096
263.91        91.32029
264.37        89.84142
264.83        87.00329
265.28        83.19639
265.74        79.63593
266.19          77.395
266.65        76.75641
267.11        77.10075
267.56        77.71325
268.02        77.62148
268.47        76.56454
268.93        74.89751
269.38        72.89078
269.84        71.20589
270.30        70.03011
270.75        69.14999
271.21        68.41504
271.66         67.5676
272.12        66.52837
272.57        65.38197
273.03        64.22364
273.48         63.0668
273.94        62.01395
274.39        61.00306
274.85        60.07196
275.31        59.18175
275.76        58.28255
276.22        57.40952
276.67        56.54908
277.13        55.85374
277.58        55.24229
278.04        54.73262
278.49        54.10706
278.95        53.19553
279.40        51.93605
279.86        50.53791
280.31        49.12531
280.77        48.07507
281.22        47.36126
281.68        46.92699
282.13        46.61337
282.59        46.26939
283.04        45.82063
283.50        45.37422
283.95          44.913
284.41        44.48935
284.86        44.08293
285.32        43.71102
285.77        43.39602
286.22        43.27149
286.68        43.34298
287.13        43.51828
287.59        43.70336
288.04        43.69581
288.50        43.49115
288.95        43.10584
289.41        42.65894
289.86        42.24031
290.32        41.94901
290.77        41.75345
291.22        41.66176
291.68        41.64728
292.13        41.70419
292.59        41.87989
293.04        42.21992
293.50        42.81863
293.95        43.66176
294.40        44.70194
294.86        45.84121
295.31        46.93705
295.77        47.95086
296.22        48.91037
296.68        49.85563
297.13         50.8405
297.58         51.8805
298.04        52.94616
298.49        54.01658
298.95        55.11869
299.40        56.22322
299.85        57.32948
300.31        58.39561
300.76        59.32771
301.21         60.1197
301.67        60.83086
302.12        61.47557
302.58        62.18589
303.03         62.9465
303.48        63.76358
303.94        64.63321
304.39          65.479
304.84        66.29827
305.30        67.09785
305.75        67.84715
306.20        68.55229
306.66        69.23067
307.11          69.835
307.57        70.37071
308.02        70.73386
308.47        70.95139
308.93        71.05275
309.38        71.10049
309.83        71.27416
310.29        71.60271
310.74        72.03476
311.19        72.42105
311.65         72.5133
312.10        72.26067
312.55        71.75401
313.00        71.21609
313.46         70.9862
313.91         71.1115
314.36        71.49692
314.82        71.91383
315.27        72.02739
315.72        71.73068
316.18        71.15419
316.63        70.45618
317.08        69.90693
317.53         69.5778
317.99        69.37959
318.44        69.21885
318.89        68.92854
319.35        68.46671
319.80        67.90307
320.25        67.32681
320.70        66.87397
321.16        66.56757
321.61         66.3669
322.06        66.17869
322.51         65.8654
322.97        65.37916
323.42         64.7774
323.87         64.1255
324.32         63.5411
324.78        63.05042
325.23        62.64835
325.68        62.27018
326.13         61.8242
326.59        61.28562
327.04        60.71704
327.49          60.178
327.94        59.77427
328.39        59.51828
328.85        59.33226
329.30        59.19439
329.75        58.97149
330.20        58.62457
330.66         58.1773
331.11         57.6748
331.56        57.10939
332.01        56.50135
332.46        55.85115
332.92        55.22152
333.37        54.76615
333.82        54.51067
334.27        54.43931
334.72        54.45673
335.17        54.38894
335.63        54.16447
336.08         53.8408
336.53        53.49465
336.98         53.2907
337.43        53.26453
337.88        53.36259
338.34        53.43705
338.79        53.30441
339.24        52.90305
339.69        52.29682
340.14        51.66249
340.59        51.29403
341.05        51.25512
341.50        51.46251
341.95        51.72697
342.40        51.75513
342.85        51.47977
343.30        51.00293
343.75        50.46517
344.20        50.09546
344.66        49.95657
345.11        49.94851
345.56        50.00754
346.01        50.03205
346.46        49.97749
346.91        49.89215
347.36        49.73967
347.81        49.45136
348.26        49.04184
348.72        48.55593
349.17        48.08903
349.62        47.87272
350.07        47.95193
350.52        48.24101
350.97        48.61407
351.42         48.8813
351.87        48.97367
352.32         48.9307
352.77        48.75756
353.22        48.46932
353.67        48.09706
354.13        47.66666
354.58        47.20462
355.03        46.80514
355.48        46.50091
355.93        46.28455
356.38        46.16061
356.83        46.12249
357.28        46.14666
357.73          46.216
358.18        46.26764
358.63        46.20426
359.08        45.99946
359.53        45.67688
359.98        45.28165
360.43        44.88454
360.88         44.5161
361.33        44.17246
361.78        43.85747
362.23        43.57709
362.68        43.33305
363.13        43.12073
363.58        42.94611
364.03        42.81258
364.48        42.70157
364.93        42.59526
365.38        42.43158
365.83        42.11911
366.28        41.64857
366.73        41.05967
367.18         40.4388
367.63         39.9185
368.08        39.54078
368.53        39.28122
368.98        39.09436
369.43        38.89964
369.88        38.67185
370.33        38.43353
370.78        38.20971
371.23        38.04297
371.68        37.94279
372.13        37.88376
372.58         37.8372
373.03        37.76504
373.48        37.65039
373.93        37.49848
374.38        37.32145
374.83         37.1355
375.28        36.94402
375.72        36.73547
376.17        36.51637
376.62        36.25718
377.07         35.9663
377.52        35.66146
377.97        35.38873
378.42        35.21553
378.87        35.14716
379.32        35.15293
379.77        35.17916
380.22        35.14327
380.67        35.02253
381.11        34.84575
381.56        34.61825
382.01        34.37901
382.46        34.14646
382.91        33.90509
383.36          33.681
383.81        33.51175
384.26        33.39917
384.71        33.34544
385.15        33.28286
385.60        33.11726
386.05        32.83387
386.50        32.46428
386.95        32.11334
387.40        31.94912
387.85        31.99623
388.29        32.17915
388.74        32.38702
389.19        32.43034
389.64        32.26686
390.09        31.94238
390.54        31.55367
390.98         31.2475
391.43         31.0934
391.88        31.03851
392.33        30.99227
392.78        30.82446
393.23        30.52546
393.67        30.13064
394.12        29.79188
394.57        29.61704
395.02        29.62384
395.47         29.7675
395.91        29.95056
396.36        29.97205
396.81        29.79877
397.26         29.4895
397.71        29.17163
398.15        29.01349
398.60        29.07443
399.05         29.2654
399.50        29.46906
399.95        29.51962
400.39        29.37967
400.84        29.09712
401.29        28.75595
401.74        28.51335
402.18        28.42922
402.63        28.45069
403.08        28.50085
403.53        28.44795
403.97        28.26225
404.42        28.00477
404.87        27.75519
405.32        27.64235
405.76        27.68975
406.21        27.84586
406.66        28.02987
407.11        28.11852
407.55        28.07939
408.00        27.95449
408.45        27.78271
408.90        27.56369
409.34        27.35329
409.79        27.28313
410.24        27.29939
410.68        27.19989
411.13        26.97879
411.58        26.74784
412.03         26.5485
412.47        26.41551
412.92        26.36215
413.37        26.36947
413.81        26.42732
414.26        26.53655
414.71        26.67566
415.15        26.85026
415.60        26.97962
416.05        26.96856
416.49         26.7982
416.94        26.49714
417.39        26.16268
417.83        25.95426
418.28        25.91635
418.73        25.99727
419.17        26.10974
419.62        26.10741
420.07        25.96066
420.51        25.72251
420.96        25.46597
421.41        25.27596
421.85        25.17349
422.30        25.14627
422.74        25.16462
423.19        25.22567
423.64        25.30603
424.08        25.41711
424.53        25.51701
424.98        25.56668
425.42        25.55717
425.87         25.5088
426.31        25.42469
426.76        25.29118
427.21         25.1197
427.65        24.96945
428.10         24.8791
428.54        24.81812
428.99        24.79973
429.44        24.96235
429.88        25.16977
430.33        25.02647
430.77        24.61314
431.22        24.42746
431.66        24.50925
432.11        24.64355
432.56        24.78489
433.00        25.01854
433.45        25.14417
433.89        24.97626
434.34        24.66616
434.78        24.28459
435.23        23.81539
435.67        24.86913
436.12        24.12587
436.57        24.08011
437.01        23.83448
437.46        23.76285
437.90        23.87816
438.35        24.02533
438.79        24.13411
439.24        24.17181
439.68        24.12226
440.13        23.80919
440.57        23.40917
441.02        23.57401
441.46        24.09237
441.91        24.22099
442.35        23.37164
442.80        23.10283
443.24        23.19514
443.69        23.22778
444.13        23.15201
444.58        23.07287
445.02        22.99768
445.47         22.9861
445.91        23.01219
446.36        22.95787
446.80        22.81177
447.24        22.64171
447.69         22.4923
448.13        22.38353
448.58        22.33442
449.02        22.33029
449.47        22.34702
449.91        22.33674
450.36        22.29303
450.80        22.22546
451.25        22.15803
451.69        22.10661
452.13        22.08314
452.58        22.07248
453.02        22.07104
453.47        22.07944
453.91        22.09466
454.36        22.11709
454.80        22.12724
455.24        22.08967
455.69        22.00869
456.13        21.87287
456.58        21.74016
457.02        21.68432
457.46        21.71269
457.91        21.75306
458.35        21.76724
458.79        21.75719
459.24        21.70765
459.68        21.62683
460.13        21.59497
460.57        21.53374
461.01        21.42912
461.46        21.86018
461.90        21.95402
462.34         21.6996
462.79        21.81495
463.23        21.57945
463.68        21.36773
464.12        21.22226
464.56        21.33481
465.01        21.52875
465.45        21.72686
465.89        21.83716
466.34        21.84294
466.78        21.71866
467.22        21.53967
467.67        21.53872
468.11        21.69303
468.55        21.66915
468.99        21.48598
469.44        21.43876
469.88        21.53681
470.32        21.61448
470.77        21.64381
471.21        21.66126
471.65         21.6615
472.10        21.63342
472.54        21.59294
472.98        21.60982
473.42        21.68965
473.87        21.75063
474.31         21.7823
474.75        21.90413
475.20        22.06689
475.64        22.03513
476.08         21.8722
476.52        21.86941
476.97        22.04214
477.41        22.25285
477.85        22.43328
478.29        22.53901
478.74        22.55229
479.18        22.44821
479.62        22.32272
480.06        22.33049
480.50        22.47223
480.95        22.60602
481.39        22.67875
481.83        22.71156
482.27        22.69583
482.72        22.62882
483.16        22.57241
483.60        22.59105
484.04        22.69198
484.48        23.00479
484.93        23.50665
485.37        23.58454
485.81        23.59377
486.25         24.2584
486.69        25.36625
487.14        24.91418
487.58        24.19738
488.02        24.93905
488.46        24.49427
488.90           24.64
489.34        24.41208
489.79        24.59677
490.23        25.06898
490.67        25.23228
491.11        25.11251
491.55        25.05107
491.99        25.10281
492.43        25.16515
492.88        25.25603
493.32        25.42089
493.76        25.65669
494.20        25.91356
494.64        26.17404
495.08        26.50487
495.52        26.84358
495.96        26.96331
496.41        26.92906
496.85        27.04712
497.29        27.31821
497.73        27.58264
498.17        27.79233
498.61        27.85342
499.05        27.81621
499.49        27.94728
499.93        28.27023
500.37        28.55038
500.82        28.76164
501.26        29.09831
501.70        29.47894
502.14         29.5212
502.58          29.293
503.02        29.23916
503.46         29.3974
503.90        29.53718
504.34        29.62217
504.78        29.69302
505.22        29.74033
505.66        29.76689
506.10         29.7866
506.54        29.81553
506.98        29.86316
507.42        29.92645
507.86         30.0162
508.30        30.14916
508.74        30.32003
509.18        30.51516
509.62        30.70713
510.06        30.85185
510.50        30.93895
510.94        30.98547
511.38        30.99537
511.82        30.97869
512.26        30.94646
512.70        30.89447
513.14        30.86213
513.58         30.9057
514.02        31.02407
514.46         31.2062
514.90        31.38569
515.34        31.38325
515.78        31.23582
516.22        31.02146
516.66        30.84699
517.10         30.5656
517.54        30.20747
517.98        30.74319
518.42        30.68091
518.86        30.92268
519.30        31.00397
519.74        31.07853
520.18        31.13007
520.62        31.11299
521.06        31.04409
521.50         30.9227
521.93        30.77817
522.37        30.66939
522.81        30.61212
523.25        30.59376
523.69        30.60461
524.13        30.62636
524.57        30.64646
525.01        30.66568
525.45        30.67032
525.89        30.63791
526.32        30.56455
526.76        30.46001
527.20        30.33313
527.64        30.20526
528.08        30.08412
528.52        29.96055
528.96        29.84983
529.40        29.77223
529.83        29.72577
530.27        29.71556
530.71        29.69338
531.15        29.58446
531.59        29.38436
532.03        29.12245
532.46        28.87235
532.90        28.77085
533.34         28.8319
533.78        29.00362
534.22        29.20885
534.66        29.32853
535.09        29.32417
535.53        29.24331
535.97        29.10904
536.41        28.95553
536.85        28.80648
537.28        28.66767
537.72        28.57714
538.16        28.50918
538.60        28.60771
539.04        28.73508
539.47        28.87691
539.91          29.021
540.35        29.16822
540.79        29.07616
541.22        29.14456
541.66        29.20403
542.10        29.40149
542.54        29.25375
542.97        29.52745
543.41        29.66569
543.85        29.87408
544.29        30.07648
544.72        30.24523
545.16        30.42523
545.60        30.60307
546.04        30.67184
546.47        30.70111
546.91        30.99467
547.35        31.47117
547.79        31.73974
548.22         31.7778
548.66        31.76426
549.10        31.76934
549.53        31.99645
549.97        32.44157
550.41        32.50857
550.84        32.78461
551.28        32.94928
551.72        33.20372
552.15        33.46534
552.59         33.7344
553.03        34.01606
553.46        34.25178
553.90        34.39304
554.34        34.43028
554.77        34.38162
555.21        34.32069
555.65         34.3498
556.08        34.48577
556.52        34.69405
556.96        34.91412
557.39        35.09115
557.83         35.1956
558.27        35.17363
558.70         35.0757
559.14        35.05316
559.57        35.11287
560.01        35.22039
560.45         35.3504
560.88        35.39296
561.32        35.39965
561.75        35.55882
562.19        35.93265
562.63        35.91477
563.06        35.61693
563.50        35.60832
563.93        35.85282
564.37        36.05276
564.80        36.03032
565.24        36.16186
565.68        36.35533
566.11        36.50001
566.55        36.61522
566.98        36.61957
567.42         36.5355
567.85        36.97514
568.29        36.94506
568.72        37.29993
569.16        37.68347
569.60         38.0313
570.03        38.24003
570.47        38.42569
570.90         38.4048
571.34        38.88858
571.77        38.67177
572.21        39.15341
572.64        39.42981
573.08        39.67702
573.51        39.59071
573.95        39.85662
574.38        40.56202
574.82        40.96864
