SpectraSmart Spectrum 2.9.0.0
--------- Device Information -----------
Spectrum Name :  反射率_0
Saving Time :  2024/04/20 00:29:11
Spectro-Module Model Name : SE2030-DUVN
Spectro-Module Serial Number : OS361AC55029948
Wavelength Start : 200
Wavelength End : 1025
Wavelength Unit : Wavelength(nm)
Spectrum Unit : Reflectance(%)
-----------Spectrum Setting ------------
Integration Time : 30ms
Average : 10
Boxcar : 0
Background removal :  enabled
linearity correction :  enabled
SC :  disabled
Intensity correction :  disabled
DWT denoise :  enabled
savitzky-golay :  disabled
FFT :  disabled
Running average :  disabled
Kalman :  disabled
High pass :  disabled
---------------BEGIN--------------------
Wavelength(nm)             Reflectance(%)
200.29               0
200.75        56.92749
201.21        54.33178
201.67        53.20006
202.13        55.65495
202.58        62.67273
203.04        74.29816
203.50        87.21186
203.96        92.22155
204.42        87.69617
204.88        78.99712
205.34        70.19734
205.80        62.63998
206.26        55.08755
206.72        45.19347
207.18        32.46209
207.64        23.16372
208.10        24.78587
208.55         35.9933
209.01        49.00045
209.47        57.36503
209.93        60.85314
210.39        61.42522
210.85         60.1847
211.31        58.29131
211.77        55.97945
212.23        52.46371
212.69        48.16022
213.14        46.15301
213.60        47.40615
214.06        50.73666
214.52        54.02057
214.98        56.08825
215.44        57.14605
215.90        57.42517
216.36        57.38551
216.81        57.89312
217.27        59.01493
217.73        60.47416
218.19        60.90666
218.65        58.39446
219.11         52.5826
219.57        43.62539
220.02        33.44855
220.48        27.71495
220.94        28.38255
221.40        34.60744
221.86        42.56842
222.32        46.22786
222.77        44.23664
223.23        38.61932
223.69        32.89809
224.15        32.03388
224.61        35.86332
225.06         41.5851
225.52        46.41159
225.98        48.17559
226.44        46.95557
226.90         43.8741
227.36        40.11462
227.81        37.70517
228.27        37.62418
228.73        38.92112
229.19         40.8702
229.65        42.66904
230.10        44.02962
230.56        45.16839
231.02        46.09036
231.48        46.77925
231.93        47.24259
232.39        47.50729
232.85        47.52982
233.31        47.29667
233.77        46.85768
234.22        46.25467
234.68        45.72547
235.14        45.55403
235.60        45.83633
236.05        46.52673
236.51        47.48138
236.97        48.49216
237.43         49.5959
237.88        51.08596
238.34        52.97224
238.80        55.32674
239.26        57.75134
239.71        59.72216
240.17        61.03755
240.63        62.26619
241.08        63.70162
241.54        65.33528
242.00        66.39326
242.46        65.27747
242.91        61.17165
243.37        52.85292
243.83        41.48053
244.28        36.18476
244.74        44.85418
245.20        64.66531
245.66        82.60236
246.11        88.08043
246.57        80.29049
247.03        59.63472
247.48        29.88806
247.94        16.86656
248.40        27.35683
248.85        43.71484
249.31        56.87352
249.77         64.8395
250.22        69.32796
250.68        72.68009
251.14        75.26703
251.59        76.66616
252.05        76.74702
252.51         75.2069
252.96        72.54628
253.42        70.52822
253.88        69.94072
254.33        70.57228
254.79        72.73734
255.25        76.21687
255.70        80.49352
256.16        85.06615
256.62        89.09562
257.07         91.6842
257.53        92.86853
257.99        92.72363
258.44        91.00224
258.90          88.481
259.35        85.40824
259.81        82.98273
260.27        80.92234
260.72        78.92418
261.18        77.23779
261.63        75.31792
262.09         74.0135
262.55        73.88261
263.00        74.63766
263.46        76.04835
263.91        76.84571
264.37        75.98126
264.83        73.47327
265.28        69.82976
265.74        66.37453
266.19        64.38755
266.65        64.12932
267.11        64.91801
267.56        65.87571
268.02        65.78477
268.47        64.38844
268.93        62.13157
269.38        59.53315
269.84        57.66853
270.30        56.82187
270.75        56.64741
271.21         56.7164
271.66        56.37342
272.12        55.44004
272.57        54.12608
273.03         52.7101
273.48        51.50472
273.94        50.67188
274.39        50.05133
274.85        49.52017
275.31        48.84435
275.76        47.94861
276.22         46.9441
276.67        45.95491
277.13        45.29809
277.58        44.93088
278.04        44.78443
278.49        44.54087
278.95        43.86438
279.40        42.67641
279.86        41.22858
280.31         39.7408
280.77        38.69229
281.22        38.09013
281.68        37.82861
282.13        37.69486
282.59        37.43627
283.04        36.97629
283.50        36.45842
283.95        35.93808
284.41        35.54952
284.86        35.29299
285.32        35.13456
285.77        35.05753
286.22        35.12553
286.68        35.31598
287.13        35.56886
287.59        35.78466
288.04        35.77061
288.50         35.5313
288.95        35.09468
289.41        34.61238
289.86        34.23476
290.32        34.06638
290.77        34.05786
291.22        34.18263
291.68        34.36018
292.13        34.56978
292.59        34.86311
293.04        35.28638
293.50        35.93087
293.95        36.78708
294.40        37.80272
294.86        38.89308
295.31        39.94039
295.77        40.91437
296.22        41.84649
296.68        42.76699
297.13        43.70718
297.58        44.68492
298.04        45.68277
298.49        46.70708
298.95        47.82343
299.40        49.00478
299.85        50.22262
300.31        51.40673
300.76        52.42559
301.21        53.26237
301.67         53.9996
302.12        54.64342
302.58        55.30107
303.03        55.97212
303.48        56.66068
303.94        57.43888
304.39        58.35637
304.84         59.4101
305.30        60.55159
305.75           61.62
306.20        62.41348
306.66        62.91331
307.11        63.15775
307.57         63.2685
308.02        63.32634
308.47        63.41239
308.93        63.50454
309.38         63.6292
309.83         63.9017
310.29        64.31848
310.74        64.84087
311.19         65.3122
311.65        65.47112
312.10        65.25826
312.55        64.75442
313.00        64.16163
313.46        63.79478
313.91        63.71049
314.36        63.83893
314.82        64.00512
315.27        63.95592
315.72        63.61518
316.18         63.0931
316.63          62.528
317.08        62.14969
317.53        62.00581
317.99         62.0062
318.44        62.03551
318.89        61.89448
319.35        61.52981
319.80        61.01341
320.25        60.44078
320.70        59.96444
321.16        59.62326
321.61        59.38052
322.06        59.16948
322.51        58.89159
322.97        58.50695
323.42        58.05926
323.87        57.58983
324.32        57.17184
324.78        56.81487
325.23        56.51911
325.68         56.2165
326.13        55.81126
326.59        55.28523
327.04        54.70239
327.49        54.14908
327.94        53.77392
328.39        53.60355
328.85        53.55788
329.30         53.5947
329.75        53.54799
330.20        53.36149
330.66        53.06197
331.11        52.69491
331.56        52.26249
332.01        51.78565
332.46         51.2557
332.92        50.73021
333.37        50.35036
333.82        50.14383
334.27        50.10624
334.72         50.1476
335.17        50.10129
335.63         49.9023
336.08        49.60004
336.53        49.29324
336.98          49.179
337.43        49.29261
337.88        49.57041
338.34        49.80879
338.79        49.73358
339.24         49.2668
339.69        48.49778
340.14        47.67663
340.59        47.22312
341.05        47.23356
341.50        47.58791
341.95        48.03066
342.40        48.16388
342.85        47.89626
343.30         47.3679
343.75        46.76164
344.20        46.37366
344.66        46.28515
345.11        46.36473
345.56        46.53055
346.01        46.65648
346.46        46.68199
346.91        46.66157
347.36        46.54113
347.81        46.22398
348.26        45.72391
348.72        45.09452
349.17         44.4638
349.62        44.12178
350.07        44.13348
350.52        44.40393
350.97        44.78055
351.42        45.02957
351.87        45.06904
352.32        44.94696
352.77        44.69306
353.22        44.36066
353.67        43.98755
354.13        43.58812
354.58        43.14895
355.03        42.70165
355.48        42.27227
355.93        41.87673
356.38          41.583
356.83        41.48171
357.28        41.56918
357.73        41.79874
358.18        42.03981
358.63        42.08195
359.08        41.86727
359.53         41.4505
359.98        40.93385
360.43          40.478
360.88        40.13075
361.33        39.85171
361.78         39.5983
362.23        39.30481
362.68        38.95717
363.13         38.5856
363.58        38.22646
364.03        37.92301
364.48        37.67548
364.93        37.45867
365.38        37.22077
365.83        36.88728
366.28        36.44751
366.73        35.93233
367.18        35.40639
367.63        34.96678
368.08        34.63929
368.53        34.40089
368.98        34.20347
369.43        33.96595
369.88         33.6691
370.33        33.34164
370.78        33.01981
371.23        32.76711
371.68        32.60187
372.13        32.49247
372.58        32.42362
373.03        32.37444
373.48        32.32296
373.93         32.2669
374.38        32.16764
374.83        31.96605
375.28        31.65322
375.72        31.23669
376.17        30.79072
376.62        30.39769
377.07        30.09585
377.52        29.87748
377.97        29.71793
378.42         29.5728
378.87        29.42572
379.32        29.28116
379.77        29.16405
380.22        29.10876
380.67        29.11129
381.11         29.1584
381.56        29.16624
382.01        29.02481
382.46        28.71661
382.91        28.27692
383.36        27.82545
383.81        27.54125
384.26        27.46188
384.71        27.54615
385.15        27.65893
385.60        27.60025
386.05        27.32751
386.50        26.90167
386.95        26.47994
387.40        26.30888
387.85        26.42805
388.29        26.73693
388.74        27.05755
389.19         27.1193
389.64        26.87234
390.09         26.3962
390.54        25.86347
390.98        25.54188
391.43        25.51503
391.88        25.67808
392.33        25.86195
392.78        25.82423
393.23        25.53531
393.67        25.08174
394.12        24.64842
394.57        24.40088
395.02        24.37426
395.47        24.50351
395.91        24.69993
396.36        24.78419
396.81        24.71473
397.26        24.54284
397.71        24.35362
398.15        24.25349
398.60         24.2917
399.05        24.40743
399.50        24.52386
399.95        24.53601
400.39        24.42099
400.84        24.20778
401.29        23.97003
401.74        23.84193
402.18        23.86702
402.63        23.99855
403.08        24.13909
403.53        24.12841
403.97         23.9361
404.42        23.62748
404.87        23.31713
405.32        23.19283
405.76        23.29086
406.21        23.54214
406.66         23.8301
407.11        23.97449
407.55        23.92858
408.00        23.75109
408.45        23.50927
408.90        23.26312
409.34        23.08203
409.79        23.05997
410.24        23.12917
410.68        23.08685
411.13        22.91954
411.58        22.73257
412.03        22.57813
412.47        22.51075
412.92        22.54423
413.37        22.64915
413.81        22.78957
414.26        22.92934
414.71        23.04189
415.15        23.14249
415.60        23.18854
416.05        23.14567
416.49        23.01134
416.94        22.80194
417.39          22.573
417.83        22.41509
418.28        22.35961
418.73        22.37964
419.17        22.43546
419.62        22.45232
420.07        22.41331
420.51        22.33985
420.96        22.26045
421.41        22.19548
421.85        22.14716
422.30        22.12216
422.74        22.11193
423.19        22.14072
423.64        22.19867
424.08        22.28932
424.53         22.3743
424.98         22.4225
425.42        22.42657
425.87        22.39562
426.31        22.33493
426.76        22.26186
427.21        22.17324
427.65        22.05889
428.10        21.95782
428.54        21.90854
428.99         21.9252
429.44        22.08951
429.88        22.28397
430.33        22.17821
430.77        21.84385
431.22        21.71673
431.66        21.82164
432.11        21.95795
432.56        22.08453
433.00        22.25437
433.45        22.30308
433.89        22.17776
434.34        21.98829
434.78        21.61235
435.23        21.06503
435.67        22.01454
436.12        21.39799
436.57         21.4255
437.01        21.23981
437.46        21.19092
437.90        21.28254
438.35         21.3658
438.79        21.41122
439.24        21.44474
439.68        21.46065
440.13        21.28406
440.57        21.02427
441.02        21.19873
441.46        21.60655
441.91        21.59266
442.35        20.69451
442.80        20.40828
443.24        20.52966
443.69        20.58727
444.13        20.52565
444.58        20.48645
445.02        20.46883
445.47        20.49373
445.91        20.53292
446.36        20.49291
446.80        20.36372
447.24        20.19659
447.69        20.04919
448.13        19.96903
448.58        19.97557
449.02        20.04748
449.47        20.13095
449.91        20.12956
450.36           20.03
450.80        19.86208
451.25        19.68729
451.69        19.58077
452.13        19.56827
452.58        19.61554
453.02        19.69308
453.47        19.75984
453.91        19.79936
454.36        19.82227
454.80        19.81921
455.24        19.77213
455.69        19.69054
456.13        19.55977
456.58        19.42656
457.02        19.35105
457.46        19.34095
457.91        19.33632
458.35        19.31805
458.79        19.30606
459.24        19.28956
459.68        19.26993
460.13        19.29955
460.57        19.27667
461.01        19.18202
461.46        19.53933
461.90        19.59032
462.34        19.36164
462.79        19.49891
463.23        19.34402
463.68        19.20402
464.12        19.07004
464.56        19.10884
465.01         19.1864
465.45         19.2592
465.89        19.28065
466.34        19.24627
466.78        19.10852
467.22        18.93934
467.67        18.98972
468.11        19.21959
468.55        19.24386
468.99        19.07541
469.44        19.04799
469.88        19.16972
470.32        19.24633
470.77        19.24804
471.21        19.22698
471.65        19.18162
472.10        19.09867
472.54        19.00909
472.98        19.00243
473.42        19.08696
473.87        19.18192
474.31        19.25384
474.75        19.36854
475.20         19.4754
475.64        19.38124
476.08        19.16272
476.52        19.10623
476.97         19.2326
477.41        19.41061
477.85        19.57553
478.29        19.67992
478.74        19.70313
479.18        19.62682
479.62        19.52516
480.06        19.51991
480.50        19.60879
480.95        19.66601
481.39        19.66463
481.83        19.65611
482.27        19.64063
482.72        19.60703
483.16         19.5786
483.60        19.58781
484.04        19.63783
484.48          19.789
484.93        20.07796
485.37        20.18137
485.81        20.32743
486.25        20.84625
486.69        21.65248
487.14        21.13008
487.58        20.70765
488.02        21.47467
488.46        20.90928
488.90        21.02654
489.34        20.91602
489.79        21.10885
490.23        21.48372
490.67        21.59883
491.11        21.47838
491.55        21.39183
491.99         21.3856
492.43        21.37224
492.88        21.37468
493.32        21.44233
493.76         21.5757
494.20        21.74877
494.64        21.95452
495.08        22.19436
495.52        22.43742
495.96        22.65196
496.41        22.83059
496.85        22.93417
497.29        22.99443
497.73        23.17609
498.17        23.45516
498.61        23.58078
499.05        23.57423
499.49        23.71038
499.93        24.00518
500.37        24.24823
500.82         24.4251
501.26        24.71421
501.70        25.04888
502.14        25.10021
502.58        24.92449
503.02        24.89664
503.46        25.04648
503.90        25.18046
504.34         25.2577
504.78         25.2958
505.22        25.28633
505.66        25.23878
506.10        25.18559
506.54        25.17338
506.98        25.21854
507.42        25.30988
507.86        25.43884
508.30        25.58962
508.74        25.74796
509.18        25.90929
509.62        26.06051
510.06        26.18155
510.50        26.26744
510.94        26.32503
511.38        26.34865
511.82        26.33319
512.26        26.28591
512.70        26.21164
513.14        26.15161
513.58        26.16441
514.02        26.25263
514.46         26.4025
514.90        26.56054
515.34        26.57444
515.78        26.46887
516.22        26.33005
516.66        26.23737
517.10        25.98698
517.54        25.59981
517.98        26.12585
518.42        25.99708
518.86        26.21298
519.30        26.28942
519.74         26.3776
520.18        26.45311
520.62        26.45714
521.06        26.39993
521.50        26.28208
521.93        26.12759
522.37        25.98561
522.81        25.87324
523.25        25.78606
523.69        25.72061
524.13        25.66832
524.57        25.62319
525.01        25.58453
525.45        25.55439
525.89        25.53358
526.32        25.51801
526.76        25.50799
527.20        25.47833
527.64        25.39584
528.08        25.25632
528.52         25.0662
528.96        24.87413
529.40         24.7536
529.83        24.71686
530.27        24.75239
530.71        24.78941
531.15        24.71648
531.59        24.51792
532.03        24.23327
532.46        23.95361
532.90        23.83986
533.34        23.91179
533.78         24.1089
534.22        24.33355
534.66        24.43658
535.09         24.3764
535.53        24.21136
535.97        23.99295
536.41        23.79982
536.85         23.6648
537.28        23.57638
537.72        23.54429
538.16        23.51192
538.60        23.58838
539.04        23.67403
539.47        23.76825
539.91        23.87645
540.35        24.00447
540.79        23.94429
541.22         24.0236
541.66        24.10308
542.10        24.29946
542.54        24.20935
542.97        24.45905
543.41        24.57523
543.85        24.72725
544.29        24.86241
544.72        24.96023
545.16        25.06008
545.60        25.15878
546.04        25.17184
546.47        25.18088
546.91        25.47331
547.35         25.9839
547.79        26.37032
548.22          26.573
548.66        26.68305
549.10        26.74589
549.53        26.94885
549.97        27.30301
550.41        27.33067
550.84         27.5396
551.28         27.6577
551.72         27.8641
552.15        28.10641
552.59        28.38523
553.03        28.69903
553.46        28.98766
553.90        29.18984
554.34        29.29161
554.77        29.31416
555.21        29.31235
555.65         29.3615
556.08        29.47731
556.52        29.63249
556.96        29.80125
557.39         29.9805
557.83        30.14829
558.27         30.2395
558.70         30.2641
559.14        30.29876
559.57        30.34377
560.01        30.39577
560.45        30.44787
560.88        30.45268
561.32         30.4723
561.75        30.58141
562.19        30.86747
562.63        31.02845
563.06        31.07751
563.50        31.11225
563.93        31.14601
564.37        31.25868
564.80        31.31666
565.24        31.44015
565.68        31.55846
566.11        31.67884
566.55        31.82304
566.98        31.90098
567.42        31.92309
567.85        32.35148
568.29        32.40607
568.72        32.72522
569.16        33.04915
569.60         33.3372
570.03        33.55231
570.47        33.76661
570.90        33.78973
571.34        34.17105
571.77        33.91132
572.21        34.23213
572.64        34.59547
573.08        35.01128
573.51         34.9757
573.95        35.17467
574.38        35.75126
574.82        36.12883
