SpectraSmart Spectrum 2.9.0.0
--------- Device Information -----------
Spectrum Name :  反射率_0
Saving Time :  2024/04/20 00:03:34
Spectro-Module Model Name : SE2030-DUVN
Spectro-Module Serial Number : OS361AC55029948
Wavelength Start : 200
Wavelength End : 1025
Wavelength Unit : Wavelength(nm)
Spectrum Unit : Reflectance(%)
-----------Spectrum Setting ------------
Integration Time : 30ms
Average : 10
Boxcar : 0
Background removal :  enabled
linearity correction :  enabled
SC :  disabled
Intensity correction :  disabled
DWT denoise :  enabled
savitzky-golay :  disabled
FFT :  disabled
Running average :  disabled
Kalman :  disabled
High pass :  disabled
---------------BEGIN--------------------
Wavelength(nm)             Reflectance(%)
200.29               0
200.75        56.83608
201.21        59.75337
201.67        65.57453
202.13        72.59621
202.58        79.50911
203.04        86.66751
203.50        91.97028
203.96        91.09534
204.42        85.05856
204.88        77.22229
205.34        70.54894
205.80        66.17749
206.26        63.19365
206.72        60.49279
207.18        57.98339
207.64        56.73148
208.10        57.95245
208.55        61.87137
209.01        65.11603
209.47        65.46923
209.93        63.34282
210.39         59.6086
210.85        56.20881
211.31        55.42184
211.77        57.58199
212.23        62.63214
212.69        69.22972
213.14        71.69621
213.60        67.70963
214.06        61.59679
214.52        56.94041
214.98          55.683
215.44        57.33429
215.90        60.84328
216.36         65.7491
216.81         70.3953
217.27        73.27732
217.73        74.84859
218.19        74.58091
218.65        71.70294
219.11        66.22227
219.57        57.88344
220.02        48.14384
220.48        41.85878
220.94         40.8429
221.40        44.74817
221.86        50.89154
222.32         54.7092
222.77        55.00201
223.23        53.13401
223.69        51.28389
224.15        52.48088
224.61        56.38066
225.06        61.02277
225.52        64.67799
225.98        66.05214
226.44        65.25019
226.90        62.99091
227.36        60.04458
227.81        57.72468
228.27        56.85962
228.73        56.91973
229.19        57.47128
229.65        57.97573
230.10        58.24911
230.56        58.51545
231.02        58.81342
231.48        59.21578
231.93        59.66331
232.39        60.09739
232.85        60.36189
233.31        60.28579
233.77        59.84941
234.22        59.13923
234.68        58.29466
235.14        57.46841
235.60          56.797
236.05        56.31499
236.51        56.11978
236.97        56.33095
237.43        57.03121
237.88        58.46751
238.34        60.51269
238.80        62.87371
239.26        64.96381
239.71        66.46922
240.17        67.18855
240.63        67.69384
241.08        68.27583
241.54        68.74181
242.00        68.75171
242.46         67.5131
242.91        64.54636
243.37        59.12045
243.83        51.71583
244.28        47.27635
244.74        50.55655
245.20        60.67143
245.66        70.41306
246.11        73.51901
246.57        69.24377
247.03        57.76125
247.48        41.59776
247.94        36.11211
248.40        43.98483
248.85        54.67851
249.31         62.6324
249.77        66.58253
250.22        67.64999
250.68        67.07919
251.14        65.75098
251.59        65.29464
252.05        66.71297
252.51         69.6738
252.96        72.60404
253.42        73.07451
253.88        70.91467
254.33        67.47115
254.79        65.53605
255.25        67.52803
255.70        72.86277
256.16        79.69925
256.62         85.9058
257.07          89.176
257.53        89.55161
257.99        87.94469
258.44        84.79935
258.90        81.64563
259.35        78.75142
259.81         76.7695
260.27        75.24002
260.72         73.7673
261.18        72.55209
261.63        71.13103
262.09        70.24479
262.55        70.29349
263.00        71.01878
263.46        72.27657
263.91         72.9666
264.37        72.21471
264.83        70.05103
265.28         66.9008
265.74        63.98667
266.19        62.46803
266.65        62.56579
267.11        63.63421
267.56         64.8318
268.02        64.99383
268.47        63.87345
268.93        61.88733
269.38        59.51706
269.84        57.77439
270.30        56.93388
270.75        56.69445
271.21         56.6632
271.66        56.23181
272.12        55.24881
272.57        53.91378
273.03        52.54313
273.48        51.50687
273.94        50.94774
274.39        50.65911
274.85        50.42885
275.31        49.89485
275.76        48.96563
276.22        47.81345
276.67        46.61073
277.13        45.74936
277.58        45.22645
278.04        44.95984
278.49        44.67621
278.95        44.10325
279.40         43.1457
279.86        42.01389
280.31        40.83553
280.77         39.9608
281.22        39.37242
281.68        39.00965
282.13        38.70795
282.59        38.29542
283.04        37.72238
283.50        37.10981
283.95        36.51649
284.41         36.0821
284.86        35.80283
285.32        35.65348
285.77        35.59211
286.22        35.63681
286.68        35.76459
287.13        35.93403
287.59        36.08124
288.04        36.06728
288.50         35.9001
288.95        35.57342
289.41        35.21127
289.86        34.92421
290.32        34.79176
290.77        34.76738
291.22        34.80481
291.68        34.79384
292.13        34.72411
292.59        34.67708
293.04        34.74186
293.50        35.07448
293.95        35.69228
294.40        36.53025
294.86        37.51289
295.31        38.53262
295.77        39.54292
296.22        40.55832
296.68        41.55405
297.13        42.47316
297.58        43.31233
298.04        44.08207
298.49        44.82734
298.95        45.67702
299.40        46.63893
299.85        47.68225
300.31          48.755
300.76        49.75203
301.21        50.65034
301.67        51.51233
302.12        52.31885
302.58        53.13364
303.03        53.93701
303.48        54.73546
303.94        55.58032
304.39         56.4943
304.84        57.48303
305.30        58.52008
305.75        59.49245
306.20        60.27129
306.66        60.85316
307.11        61.24784
307.57        61.55741
308.02        61.83455
308.47        62.13563
308.93        62.43762
309.38         62.7278
309.83        63.06074
310.29        63.43298
310.74        63.83613
311.19        64.17039
311.65        64.26543
312.10        64.09134
312.55        63.70478
313.00        63.29113
313.46        63.13807
313.91        63.27973
314.36        63.64108
314.82        64.01905
315.27        64.11266
315.72         63.8327
316.18         63.3052
316.63        62.67734
317.08        62.19737
317.53        61.93333
317.99        61.79921
318.44        61.72843
318.89         61.5994
319.35        61.36517
319.80        61.06453
320.25        60.72317
320.70        60.37842
321.16        60.03514
321.61         59.6914
322.06        59.30449
322.51        58.82032
322.97        58.23047
323.42        57.57388
323.87        56.93372
324.32        56.45101
324.78         56.1434
325.23        55.98965
325.68        55.86775
326.13        55.58244
326.59        55.07952
327.04        54.44629
327.49        53.77841
327.94        53.24557
328.39        52.89382
328.85        52.64025
329.30        52.48507
329.75        52.34074
330.20        52.16981
330.66        51.97958
331.11        51.76664
331.56        51.44673
332.01        51.01047
332.46         50.4684
332.92        49.88264
333.37        49.40856
333.82        49.08441
334.27        48.89406
334.72        48.77821
335.17        48.62614
335.63        48.38885
336.08        48.11466
336.53        47.85329
336.98        47.71135
337.43        47.70473
337.88        47.79248
338.34        47.84367
338.79        47.70178
339.24        47.31345
339.69        46.73127
340.14        46.11565
340.59        45.73735
341.05        45.65495
341.50        45.79533
341.95         45.9949
342.40        45.99527
342.85        45.73762
343.30        45.31833
343.75        44.84697
344.20        44.50238
344.66        44.33485
345.11        44.25229
345.56        44.23635
346.01        44.25873
346.46        44.28391
346.91        44.33406
347.36        44.30091
347.81        44.00706
348.26        43.44981
348.72        42.71286
349.17        41.97359
349.62        41.60217
350.07        41.68174
350.52        42.08449
350.97        42.61495
351.42        42.97691
351.87        43.07464
352.32        42.98276
352.77        42.74631
353.22        42.44227
353.67        42.11702
354.13        41.76766
354.58        41.39735
355.03        41.06544
355.48        40.79403
355.93        40.59023
356.38        40.46549
356.83        40.42223
357.28         40.4412
357.73        40.49881
358.18        40.54012
358.63        40.48161
359.08         40.2989
359.53        40.01568
359.98        39.65561
360.43        39.25666
360.88         38.8435
361.33        38.41745
361.78         38.0185
362.23        37.71048
362.68        37.50679
363.13        37.39061
363.58        37.31298
364.03          37.192
364.48         36.9964
364.93        36.73428
365.38        36.42163
365.83        36.09663
366.28        35.77602
366.73        35.45273
367.18        35.11763
367.63        34.75596
368.08        34.37346
368.53        33.99118
368.98        33.63776
369.43        33.34505
369.88        33.12083
370.33        32.95893
370.78        32.83437
371.23        32.70882
371.68        32.56673
372.13        32.40148
372.58        32.24488
373.03        32.15524
373.48        32.13216
373.93        32.14878
374.38        32.11964
374.83        31.91528
375.28        31.51981
375.72        30.97565
376.17        30.41302
376.62        30.00169
377.07        29.79645
377.52        29.74736
377.97        29.78856
378.42        29.81381
378.87        29.78103
379.32        29.71368
379.77        29.62227
380.22        29.51967
380.67        29.41063
381.11        29.29081
381.56        29.13466
382.01        28.93254
382.46        28.68995
382.91        28.41389
383.36        28.16138
383.81        28.01073
384.26         27.9725
384.71        28.03366
385.15        28.09506
385.60         28.0139
386.05        27.76477
386.50        27.39022
386.95        27.02763
387.40         26.8954
387.85         27.0259
388.29        27.32891
388.74         27.6475
389.19        27.73792
389.64        27.55303
390.09        27.16173
390.54        26.70796
390.98        26.41392
391.43        26.35771
391.88         26.4546
392.33        26.56915
392.78        26.50678
393.23        26.24599
393.67        25.85313
394.12        25.49381
394.57        25.30697
395.02        25.31981
395.47        25.47442
395.91        25.68426
396.36        25.77101
396.81        25.69647
397.26        25.51394
397.71        25.30893
398.15        25.18924
398.60        25.20855
399.05        25.30642
399.50        25.41973
399.95        25.46252
400.39         25.4132
400.84        25.29574
401.29        25.15757
401.74        25.08489
402.18        25.10688
402.63        25.18762
403.08        25.26295
403.53        25.22516
403.97        25.05574
404.42        24.80581
404.87        24.56013
405.32        24.45841
405.76        24.52715
406.21         24.7162
406.66        24.94128
407.11        25.06967
407.55        25.06817
408.00        24.98431
408.45        24.85815
408.90        24.69718
409.34        24.55411
409.79        24.54051
410.24        24.61646
410.68        24.61585
411.13        24.53328
411.58        24.46503
412.03        24.42499
412.47        24.40074
412.92        24.39292
413.37        24.39748
413.81        24.43181
414.26        24.54107
414.71         24.7167
415.15        24.94911
415.60        25.14941
416.05        25.20601
416.49        25.09176
416.94        24.84468
417.39        24.55155
417.83        24.35313
418.28        24.29641
418.73        24.33823
419.17        24.42114
419.62          24.445
420.07        24.38862
420.51        24.28856
420.96        24.18947
421.41        24.13185
421.85         24.1216
422.30        24.15546
422.74         24.2159
423.19        24.31977
423.64        24.45116
424.08        24.61459
424.53         24.7629
424.98        24.85068
425.42        24.86824
425.87        24.83107
426.31        24.75132
426.76        24.65848
427.21        24.55413
427.65        24.42345
428.10        24.32186
428.54        24.30898
428.99         24.3997
429.44         24.6819
429.88        24.98942
430.33        24.90128
430.77        24.49113
431.22        24.26399
431.66        24.29765
432.11        24.42789
432.56        24.62134
433.00        24.99407
433.45        25.30302
433.89        25.16475
434.34        24.74667
434.78        24.40912
435.23        23.99852
435.67        25.16131
436.12        24.45679
436.57        24.45402
437.01        24.23677
437.46        24.21127
437.90        24.39142
438.35        24.58829
438.79        24.72659
439.24        24.78851
439.68        24.75824
440.13        24.44545
440.57        24.03637
441.02        24.21677
441.46        24.77319
441.91        24.92319
442.35        24.05255
442.80        23.79145
443.24        23.89661
443.69        23.85485
444.13        23.65853
444.58        23.56026
445.02        23.58107
445.47        23.70869
445.91        23.88106
446.36        23.94262
446.80        23.86258
447.24        23.72042
447.69        23.57091
448.13        23.44944
448.58        23.38433
449.02        23.35659
449.47        23.35247
449.91        23.34112
450.36        23.31937
450.80        23.29481
451.25         23.2787
451.69        23.26276
452.13        23.25442
452.58        23.24659
453.02        23.24517
453.47        23.26763
453.91        23.31461
454.36        23.37837
454.80        23.43627
455.24        23.44659
455.69         23.4098
456.13        23.31614
456.58        23.21509
457.02        23.16842
457.46        23.18322
457.91        23.18567
458.35         23.1604
458.79         23.1485
459.24        23.13916
459.68        23.13229
460.13        23.17712
460.57        23.13133
461.01        22.97093
461.46        23.33643
461.90        23.34064
462.34        23.04994
462.79        23.24104
463.23         23.1227
463.68        23.04407
464.12        22.96513
464.56        23.06965
465.01        23.20055
465.45         23.3135
465.89        23.35609
466.34        23.32363
466.78          23.191
467.22        23.03094
467.67          23.037
468.11        23.19899
468.55        23.26641
468.99        23.22344
469.44        23.23936
469.88         23.3116
470.32        23.33191
470.77        23.29963
471.21        23.27527
471.65        23.26661
472.10        23.25404
472.54        23.24554
472.98        23.29956
473.42         23.4141
473.87        23.50572
474.31        23.55683
474.75        23.68744
475.20        23.84442
475.64        23.77554
476.08         23.5603
476.52        23.53067
476.97        23.70674
477.41        23.93479
477.85        24.13669
478.29        24.25533
478.74        24.26877
479.18        24.15616
479.62         24.0173
480.06        24.01278
480.50        24.14451
480.95        24.25913
481.39        24.31389
481.83        24.35764
482.27        24.38079
482.72        24.36166
483.16        24.34122
483.60         24.3725
484.04        24.46172
484.48        24.71649
484.93         25.1113
485.37        25.20045
485.81        25.12041
486.25        25.70493
486.69        26.71891
487.14        26.40376
487.58        25.90049
488.02        26.59357
488.46        26.13782
488.90        26.31901
489.34        26.28654
489.79        26.48811
490.23         26.8303
490.67        26.99328
491.11        26.99924
491.55        27.02987
491.99        27.10811
492.43        27.15964
492.88        27.19818
493.32        27.25871
493.76        27.37487
494.20        27.57942
494.64        27.87497
495.08        28.26447
495.52        28.67478
495.96        28.95717
496.41        29.11625
496.85        29.24364
497.29        29.37479
497.73        29.60165
498.17        29.89075
498.61        29.99097
499.05        29.94397
499.49        30.08405
499.93        30.43497
500.37        30.74951
500.82         30.9969
501.26        31.35026
501.70        31.73555
502.14        31.80798
502.58        31.63724
503.02        31.63919
503.46        31.85043
503.90        32.05867
504.34        32.21027
504.78        32.30926
505.22        32.34053
505.66        32.31603
506.10         32.2757
506.54        32.27776
506.98        32.34282
507.42        32.45929
507.86         32.6094
508.30        32.76265
508.74        32.90425
509.18        33.03551
509.62        33.16556
510.06        33.30808
510.50         33.4636
510.94        33.62846
511.38        33.76578
511.82         33.8192
512.26        33.78316
512.70        33.67664
513.14        33.57212
513.58          33.578
514.02        33.70904
514.46         33.9371
514.90        34.18301
515.34        34.24397
515.78        34.15522
516.22        33.99234
516.66        33.85712
517.10        33.60246
517.54        33.25733
517.98        33.74772
518.42         33.6598
518.86        33.87959
519.30        33.96773
519.74        34.06811
520.18        34.14649
520.62         34.1287
521.06        34.02475
521.50        33.84172
521.93        33.63472
522.37        33.50324
522.81        33.47153
523.25        33.51611
523.69        33.59101
524.13        33.62216
524.57        33.58702
525.01         33.5027
525.45        33.40125
525.89        33.33323
526.32        33.30867
526.76        33.31293
527.20        33.30305
527.64        33.21721
528.08         33.0466
528.52        32.81459
528.96        32.58224
529.40        32.43994
529.83        32.40244
530.27        32.44651
530.71         32.5032
531.15        32.46661
531.59        32.31675
532.03        32.09418
532.46        31.85681
532.90        31.71676
533.34        31.69041
533.78        31.73545
534.22        31.81349
534.66        31.86722
535.09        31.87017
535.53        31.85274
535.97        31.80396
536.41        31.70071
536.85        31.55091
537.28        31.37979
537.72        31.24452
538.16        31.14246
538.60        31.24004
539.04        31.37596
539.47        31.53444
539.91        31.70421
540.35        31.88534
540.79        31.81561
541.22        31.92295
541.66        32.00682
542.10        32.22377
542.54         32.0438
542.97        32.32143
543.41        32.47097
543.85        32.72089
544.29        32.98211
544.72         33.1986
545.16        33.37897
545.60        33.50679
546.04        33.48612
546.47        33.43223
546.91        33.73713
547.35        34.32951
547.79        34.75237
548.22         34.9436
548.66        35.08013
549.10        35.20063
549.53        35.45363
549.97        35.86396
550.41        35.90746
550.84        36.25187
551.28        36.47303
551.72        36.78046
552.15        37.09096
552.59        37.40115
553.03         37.7179
553.46        37.98646
553.90         38.1666
554.34        38.24941
554.77        38.25127
555.21        38.23985
555.65        38.30709
556.08        38.46793
556.52        38.69025
556.96        38.92444
557.39         39.1381
557.83        39.30325
558.27        39.34702
558.70        39.30772
559.14        39.33493
559.57        39.43584
560.01        39.56036
560.45        39.68181
560.88        39.76456
561.32        39.84538
561.75        39.92263
562.19        40.14194
562.63        40.22132
563.06        40.22475
563.50        40.31577
563.93        40.47849
564.37        40.69211
564.80        40.76307
565.24          40.918
565.68        41.07044
566.11        41.19991
566.55        41.33356
566.98        41.39009
567.42         41.3677
567.85        41.82191
568.29        41.66413
568.72        42.08448
569.16        42.65697
569.60        43.04869
570.03        43.18794
570.47        43.33214
570.90         43.2992
571.34        43.74487
571.77         43.3033
572.21        43.96075
572.64        44.06602
573.08        44.39162
573.51         44.4949
573.95        44.90059
574.38        45.52216
574.82        45.70653
