SpectraSmart Spectrum 2.9.0.0
--------- Device Information -----------
Spectrum Name :  反射率_0
Saving Time :  2024/04/20 00:10:28
Spectro-Module Model Name : SE2030-DUVN
Spectro-Module Serial Number : OS361AC55029948
Wavelength Start : 200
Wavelength End : 1025
Wavelength Unit : Wavelength(nm)
Spectrum Unit : Reflectance(%)
-----------Spectrum Setting ------------
Integration Time : 30ms
Average : 10
Boxcar : 0
Background removal :  enabled
linearity correction :  enabled
SC :  disabled
Intensity correction :  disabled
DWT denoise :  enabled
savitzky-golay :  disabled
FFT :  disabled
Running average :  disabled
Kalman :  disabled
High pass :  disabled
---------------BEGIN--------------------
Wavelength(nm)             Reflectance(%)
200.29               0
200.75        63.55758
201.21        63.24318
201.67        64.81826
202.13        68.89741
202.58        75.62677
203.04         85.2424
203.50        94.85905
203.96        97.18085
204.42        91.80695
204.88        83.30907
205.34        75.69595
205.80        70.75259
206.26        67.61163
206.72        64.94795
207.18        62.56178
207.64        61.30202
208.10        62.17244
208.55        65.46182
209.01        68.39332
209.47        69.17092
209.93        68.05524
210.39        65.77646
210.85        63.44053
211.31         62.3256
211.77        62.61478
212.23         64.1059
212.69        66.60576
213.14         68.7198
213.60        68.99461
214.06         68.5718
214.52        68.24279
214.98        68.67301
215.44        69.85071
215.90         71.3458
216.36        73.27777
216.81        75.55622
217.27        77.66429
217.73        79.79808
218.19        80.84312
218.65        79.22906
219.11        74.84721
219.57        67.73799
220.02        60.09982
220.48        57.87892
220.94        62.87973
221.40        73.87643
221.86        86.27974
222.32        93.13522
222.77        92.83011
223.23        87.64969
223.69        81.29546
224.15        79.10693
224.61        81.46347
225.06        85.76707
225.52        89.66868
225.98        91.02866
226.44         89.8222
226.90        86.93831
227.36         83.6377
227.81         81.9858
228.27         82.7827
228.73        85.00644
229.19        87.21339
229.65        87.75736
230.10        86.57189
230.56        84.59299
231.02        82.76569
231.48        82.33554
231.93        83.24722
232.39        84.92589
232.85        86.52559
233.31        86.84575
233.77        85.62418
234.22        83.38341
234.68        80.51727
235.14        77.66802
235.60        75.27708
236.05        73.24001
236.51        71.88527
236.97        71.66646
237.43        72.66763
237.88        75.24775
238.34        78.73948
238.80        81.30325
239.26        81.45423
239.71        79.25127
240.17        75.56326
240.63        72.51512
241.08        70.82125
241.54        70.06444
242.00        69.62846
242.46        68.14909
242.91        64.91181
243.37           59.29
243.83        52.26131
244.28        50.08631
244.74        57.65114
245.20        72.22237
245.66        84.72813
246.11        88.44046
246.57        82.81879
247.03         68.0415
247.48        46.09613
247.94        34.67647
248.40         39.8001
248.85        49.87609
249.31        58.51488
249.77        64.22016
250.22        67.97814
250.68        71.33202
251.14        74.36285
251.59        76.14614
252.05        76.25067
252.51        74.65556
252.96        71.66685
253.42        68.71353
253.88        66.70975
254.33        65.61025
254.79        66.42479
255.25        69.67561
255.70        74.68318
256.16        80.53868
256.62        85.69994
257.07        88.42529
257.53        88.90369
257.99        87.81595
258.44        85.50301
258.90        83.35725
259.35         81.4279
259.81        80.27412
260.27        79.49197
260.72        78.78988
261.18        78.38804
261.63        77.75735
262.09        77.46549
262.55        77.62537
263.00        77.99853
263.46        78.65885
263.91        78.72943
264.37        77.62135
264.83        75.38531
265.28        72.35364
265.74        69.65179
266.19        68.28336
266.65        68.44806
267.11        69.52946
267.56        70.76629
268.02         71.1148
268.47        70.33855
268.93        68.83211
269.38        66.92809
269.84        65.39237
270.30         64.4475
270.75        63.84927
271.21        63.46021
271.66         63.0481
272.12        62.51655
272.57        61.94132
273.03        61.31761
273.48        60.49813
273.94        59.56286
274.39        58.51567
274.85        57.50617
275.31        56.67017
275.76        55.98896
276.22         55.4207
276.67        54.89986
277.13        54.49485
277.58        54.09407
278.04        53.75299
278.49        53.21841
278.95         52.2614
279.40        50.84118
279.86        49.19647
280.31        47.56645
280.77        46.49026
281.22        45.95485
281.68        45.83326
282.13        45.84892
282.59        45.66969
283.04        45.18092
283.50        44.55036
283.95        43.83001
284.41        43.17212
284.86        42.58652
285.32        42.05446
285.77        41.58757
286.22        41.30524
286.68        41.20832
287.13         41.2253
287.59        41.25091
288.04        41.06036
288.50        40.64724
288.95        40.03667
289.41        39.36927
289.86        38.77907
290.32        38.36573
290.77        38.06924
291.22        37.87276
291.68        37.71344
292.13        37.56779
292.59        37.48675
293.04        37.49084
293.50         37.6341
293.95        37.90802
294.40        38.27977
294.86        38.70694
295.31        39.13794
295.77        39.55003
296.22        39.94274
296.68        40.31469
297.13        40.64698
297.58        40.94704
298.04        41.23134
298.49        41.50266
298.95        41.81101
299.40        42.15228
299.85        42.51771
300.31         42.9181
300.76         43.3518
301.21        43.81099
301.67        44.31812
302.12        44.78281
302.58           45.15
303.03        45.38181
303.48        45.51624
303.94        45.67146
304.39         45.9829
304.84        46.47846
305.30        47.09616
305.75        47.67111
306.20        47.98457
306.66        48.01791
307.11        47.83086
307.57         47.5764
308.02        47.39654
308.47        47.36128
308.93        47.41282
309.38        47.50663
309.83        47.63456
310.29        47.77013
310.74        47.92383
311.19        48.00876
311.65        47.88001
312.10        47.51868
312.55        46.96821
313.00        46.39648
313.46        46.06517
313.91        46.00917
314.36         46.1705
314.82        46.37423
315.27        46.35693
315.72        46.04549
316.18        45.54566
316.63        44.99913
317.08         44.6357
317.53         44.5058
317.99        44.51732
318.44        44.58032
318.89        44.53902
319.35        44.34327
319.80        44.05106
320.25        43.69556
320.70        43.32792
321.16        42.96943
321.61          42.607
322.06        42.25779
322.51        41.96032
322.97        41.71212
323.42        41.51705
323.87        41.33302
324.32         41.0916
324.78        40.76865
325.23        40.39588
325.68        39.99194
326.13        39.60246
326.59        39.24522
327.04        38.92946
327.49        38.65698
327.94        38.43553
328.39        38.26068
328.85        38.11442
329.30        38.01311
329.75         37.9196
330.20        37.81917
330.66        37.69035
331.11        37.55556
331.56        37.39322
332.01         37.1998
332.46        36.98058
332.92        36.72913
333.37        36.45525
333.82        36.17037
334.27        35.89479
334.72        35.66447
335.17        35.53798
335.63        35.51595
336.08        35.58344
336.53        35.71193
336.98        35.86891
337.43        36.02481
337.88         36.1857
338.34        36.25279
338.79        36.11744
339.24        35.75334
339.69        35.19294
340.14        34.62471
340.59        34.36758
341.05        34.48041
341.50        34.88066
341.95        35.34325
342.40        35.51152
342.85        35.30854
343.30        34.85627
343.75        34.32734
344.20        34.00697
344.66        33.96942
345.11        34.08724
345.56        34.28453
346.01           34.44
346.46        34.49756
346.91        34.51827
347.36        34.43673
347.81        34.13872
348.26        33.64306
348.72        33.01382
349.17        32.41798
349.62        32.21141
350.07        32.46158
350.52        33.03896
350.97        33.72973
351.42        34.21146
351.87        34.38522
352.32        34.33182
352.77         34.1071
353.22        33.80968
353.67        33.49285
354.13         33.1451
354.58        32.77975
355.03        32.46557
355.48        32.22554
355.93        32.07162
356.38        31.99139
356.83        31.94566
357.28        31.91508
357.73        31.89475
358.18          31.879
358.63         31.8645
359.08        31.84039
359.53        31.79548
359.98        31.70441
360.43        31.53317
360.88        31.28434
361.33        30.97972
361.78        30.66253
362.23        30.40463
362.68        30.22562
363.13        30.09868
363.58        30.00509
364.03        29.91193
364.48         29.7982
364.93        29.67177
365.38        29.49563
365.83        29.21339
366.28        28.82641
366.73        28.35696
367.18        27.88606
367.63        27.54014
368.08        27.34631
368.53        27.27184
368.98        27.24128
369.43        27.13084
369.88        26.91068
370.33        26.61974
370.78        26.31284
371.23        26.08493
371.68         25.9666
372.13        25.92276
372.58        25.92372
373.03        25.92423
373.48        25.89861
373.93        25.85302
374.38        25.78086
374.83        25.66982
375.28        25.51807
375.72        25.31964
376.17         25.0993
376.62         24.8586
377.07        24.61662
377.52        24.38682
377.97        24.20304
378.42         24.1131
378.87         24.1164
379.32        24.18389
379.77        24.27954
380.22         24.3482
380.67        24.36921
381.11        24.36126
381.56        24.29281
382.01        24.13695
382.46        23.89857
382.91        23.58218
383.36        23.26911
383.81        23.08249
384.26        23.04236
384.71        23.12544
385.15        23.21573
385.60        23.13594
386.05        22.85769
386.50        22.44329
386.95        22.04016
387.40        21.88107
387.85        22.00482
388.29        22.31309
388.74        22.65869
389.19        22.82483
389.64        22.76089
390.09        22.52653
390.54        22.21803
390.98        21.98169
391.43        21.88242
391.88        21.86684
392.33        21.85952
392.78        21.75343
393.23        21.54161
393.67        21.26077
394.12        21.02924
394.57         20.9353
395.02        20.99407
395.47        21.16673
395.91        21.37922
396.36        21.47785
396.81        21.42797
397.26        21.26765
397.71        21.07789
398.15        20.96569
398.60        20.97936
399.05        21.06773
399.50        21.16037
399.95        21.15745
400.39        21.03811
400.84        20.83178
401.29         20.6115
401.74         20.5095
402.18         20.5664
402.63         20.7329
403.08        20.90985
403.53        20.93675
403.97        20.78166
404.42        20.50758
404.87        20.22291
405.32        20.10634
405.76        20.19442
406.21        20.42242
406.66        20.68646
407.11         20.8249
407.55        20.79774
408.00        20.66287
408.45        20.47856
408.90        20.29425
409.34         20.1686
409.79         20.1783
410.24        20.27582
410.68        20.30411
411.13        20.25052
411.58        20.20017
412.03        20.16522
412.47        20.13579
412.92        20.11303
413.37        20.09196
413.81        20.08721
414.26        20.13804
414.71        20.24003
415.15        20.39059
415.60        20.51931
416.05        20.54055
416.49        20.43377
416.94        20.22856
417.39        19.99908
417.83        19.86607
418.28         19.8645
418.73        19.95156
419.17        20.06252
419.62        20.08539
420.07        20.00124
420.51        19.85401
420.96        19.69702
421.41        19.59002
421.85        19.54639
422.30        19.55307
422.74        19.60154
423.19        19.71448
423.64        19.87543
424.08        20.08914
424.53        20.28183
424.98        20.35466
425.42        20.28812
425.87        20.11367
426.31         19.8991
426.76        19.75955
427.21        19.71579
427.65        19.73113
428.10        19.79762
428.54        19.86918
428.99        19.93088
429.44        20.08446
429.88        20.24014
430.33        20.12048
430.77        19.79891
431.22        19.65966
431.66        19.73544
432.11        19.84882
432.56        19.96197
433.00         20.1779
433.45        20.32453
433.89        20.17039
434.34        19.87097
434.78        19.60884
435.23        19.34114
435.67        20.33073
436.12        19.72507
436.57        19.64819
437.01         19.3627
437.46        19.27359
437.90         19.4032
438.35        19.56975
438.79        19.69305
439.24        19.73496
439.68         19.6759
440.13        19.37679
440.57        19.00057
441.02        19.10851
441.46        19.53618
441.91        19.65719
442.35        18.98105
442.80        18.79011
443.24         18.8861
443.69        18.86445
444.13        18.70833
444.58        18.60233
445.02         18.5628
445.47        18.59056
445.91        18.64785
446.36        18.63175
446.80        18.52607
447.24        18.38708
447.69        18.26693
448.13        18.20419
448.58        18.21847
449.02         18.2908
449.47        18.37867
449.91        18.40698
450.36        18.36382
450.80        18.26755
451.25        18.16945
451.69        18.12974
452.13        18.16833
452.58        18.25848
453.02        18.36297
453.47        18.42766
453.91        18.43952
454.36        18.41374
454.80        18.37209
455.24        18.34877
455.69        18.35915
456.13        18.36813
456.58        18.37785
457.02        18.38441
457.46        18.38337
457.91        18.33896
458.35        18.25879
458.79        18.20049
459.24        18.16606
459.68        18.14349
460.13        18.17948
460.57        18.17346
461.01        18.10422
461.46        18.47192
461.90        18.55172
462.34        18.34993
462.79        18.47798
463.23         18.3172
463.68         18.1769
464.12        18.07967
464.56        18.18608
465.01        18.35162
465.45        18.51506
465.89        18.60581
466.34        18.61366
466.78        18.50581
467.22         18.3517
467.67        18.38337
468.11         18.5706
468.55        18.56684
468.99         18.3939
469.44        18.36583
469.88        18.49232
470.32        18.59571
470.77        18.63827
471.21        18.64791
471.65        18.61819
472.10        18.54392
472.54        18.45531
472.98        18.44044
473.42        18.51079
473.87        18.58737
474.31        18.64898
474.75        18.77677
475.20        18.92289
475.64        18.89268
476.08        18.74348
476.52        18.72952
476.97        18.86631
477.41        19.03362
477.85        19.17744
478.29        19.26831
478.74        19.29158
479.18        19.22171
479.62        19.13154
480.06          19.142
480.50        19.24853
480.95        19.32698
481.39        19.34058
481.83        19.32576
482.27        19.28235
482.72        19.20199
483.16        19.12504
483.60        19.12099
484.04        19.19114
484.48          19.381
484.93        19.71837
485.37        19.88339
485.81        19.98892
486.25        20.66047
486.69        20.79833
487.14        20.44536
487.58        20.15749
488.02        21.00748
488.46        20.46497
488.90        20.52604
489.34        20.38533
489.79        20.55707
490.23        20.95069
490.67        21.14228
491.11        21.12237
491.55        21.06826
491.99         21.0256
492.43        21.00197
492.88        21.02205
493.32        21.06269
493.76        21.13591
494.20        21.27691
494.64        21.48411
495.08        21.73849
495.52        21.99702
495.96        22.20981
496.41        22.36883
496.85        22.44777
497.29        22.48166
497.73        22.65717
498.17        22.95894
498.61        23.06819
499.05        23.02402
499.49        23.28166
499.93        23.78396
500.37        23.96502
500.82         23.8566
501.26         24.0123
501.70        24.39128
502.14        24.46647
502.58        24.27412
503.02        24.24418
503.46        24.40157
503.90        24.54219
504.34        24.63443
504.78        24.70788
505.22        24.75268
505.66        24.77043
506.10        24.77836
506.54        24.79855
506.98        24.84144
507.42        24.90608
507.86        24.98985
508.30        25.08639
508.74        25.19031
509.18         25.2984
509.62        25.41246
510.06         25.5344
510.50        25.66219
510.94        25.79641
511.38        25.91134
511.82        25.96696
512.26        25.95896
512.70        25.89856
513.14        25.83761
513.58        25.85484
514.02        25.95807
514.46        26.12505
514.90        26.29729
515.34        26.31555
515.78        26.20248
516.22        26.05191
516.66        25.94352
517.10        25.67141
517.54        25.25813
517.98        25.75802
518.42        25.60645
518.86        25.82476
519.30        25.92797
519.74        26.06387
520.18        26.18859
520.62        26.21139
521.06         26.1387
521.50        25.98398
521.93        25.79525
522.37        25.66085
522.81        25.60627
523.25        25.61013
523.69        25.65328
524.13        25.70377
524.57        25.74489
525.01        25.78165
525.45        25.80741
525.89        25.80992
526.32        25.78572
526.76        25.73859
527.20        25.66519
527.64        25.56823
528.08        25.45284
528.52        25.31842
528.96         25.1929
529.40        25.11587
529.83        25.09149
530.27        25.11705
530.71        25.14138
531.15        25.08423
531.59        24.93513
532.03         24.7217
532.46         24.5099
532.90        24.42274
533.34        24.47335
533.78        24.61604
534.22        24.77962
534.66        24.85512
535.09        24.81029
535.53        24.69006
535.97         24.5278
536.41        24.37287
536.85        24.24986
537.28        24.15847
537.72        24.11537
538.16        24.07343
538.60        24.14768
539.04        24.22805
539.47        24.31876
539.91        24.43421
540.35        24.58041
540.79         24.5456
541.22        24.64719
541.66         24.7122
542.10        24.85839
542.54        24.68479
542.97        24.86418
543.41         24.9667
543.85        25.17298
544.29        25.40783
544.72        25.61346
545.16        25.77515
545.60        25.87369
546.04        25.83726
546.47        25.76818
546.91        25.99024
547.35        26.44984
547.79        26.79536
548.22        26.96229
548.66        27.03503
549.10        27.05946
549.53        27.22981
549.97        27.57253
550.41        27.62872
550.84        27.91072
551.28        28.12882
551.72        28.43272
552.15        28.72009
552.59        28.97993
553.03        29.22659
553.46        29.42352
553.90        29.54659
554.34        29.59444
554.77        29.57982
555.21        29.55526
555.65        29.59104
556.08        29.70088
556.52        29.86287
556.96        30.04737
557.39        30.24264
557.83         30.4248
558.27        30.52775
558.70         30.5655
559.14        30.62383
559.57        30.70056
560.01        30.78557
560.45        30.86518
560.88        30.87243
561.32        30.86708
561.75        30.96058
562.19        31.23898
562.63        31.32888
563.06        31.27973
563.50        31.33371
563.93        31.48352
564.37        31.65543
564.80        31.70045
565.24           31.82
565.68        31.95021
566.11        32.06778
566.55        32.19124
566.98        32.26606
567.42        32.28155
567.85        32.62966
568.29         32.4739
568.72        32.80891
569.16        33.28999
569.60        33.59995
570.03        33.68619
570.47        33.76002
570.90        33.71378
571.34        34.11913
571.77        33.87951
572.21        34.43802
572.64        34.67464
573.08        34.73518
573.51        35.05116
573.95        35.50306
574.38         35.7903
574.82        36.11891
