SpectraSmart Spectrum 2.9.0.0
--------- Device Information -----------
Spectrum Name :  反射率_0
Saving Time :  2024/04/20 00:43:06
Spectro-Module Model Name : SE2030-DUVN
Spectro-Module Serial Number : OS361AC55029948
Wavelength Start : 200
Wavelength End : 1025
Wavelength Unit : Wavelength(nm)
Spectrum Unit : Reflectance(%)
-----------Spectrum Setting ------------
Integration Time : 30ms
Average : 10
Boxcar : 0
Background removal :  enabled
linearity correction :  enabled
SC :  disabled
Intensity correction :  disabled
DWT denoise :  enabled
savitzky-golay :  disabled
FFT :  disabled
Running average :  disabled
Kalman :  disabled
High pass :  disabled
---------------BEGIN--------------------
Wavelength(nm)             Reflectance(%)
200.29               0
200.75        73.96814
201.21        71.47546
201.67        69.97332
202.13        72.22542
202.58        79.67633
203.04        92.54043
203.50        106.5951
203.96        110.7131
204.42        103.7549
204.88        92.42314
205.34        82.56358
205.80        77.05891
206.26        75.00591
206.72        74.97512
207.18        76.80516
207.64        79.08989
208.10        79.99184
208.55          80.458
209.01        79.59532
209.47        77.32442
209.93        74.10825
210.39         70.2223
210.85        66.68977
211.31        64.63119
211.77        64.07117
212.23        64.80196
212.69        66.66232
213.14        68.52553
213.60        69.03146
214.06        69.01226
214.52        69.06493
214.98        69.82085
215.44        71.26362
215.90        72.95566
216.36        74.87244
216.81        76.63814
217.27        77.72794
217.73         78.5728
218.19        78.28237
218.65        75.45669
219.11         70.0297
219.57        62.04766
220.02        53.88248
220.48        51.84678
220.94         57.7884
221.40        70.22202
221.86        84.20399
222.32        92.28964
222.77        92.67673
223.23        87.81656
223.69        81.14564
224.15        77.73943
224.61         78.3783
225.06        80.87489
225.52        83.51325
225.98        84.79049
226.44        84.61369
226.90        83.62786
227.36         82.5254
227.81        82.24603
228.27        83.20789
228.73        84.75352
229.19         86.0155
229.65        86.04089
230.10        84.87106
230.56        83.22511
231.02        81.75325
231.48        81.34256
231.93        81.95022
232.39        83.17317
232.85        84.50562
233.31        85.26167
233.77        85.22305
234.22        84.66508
234.68        83.58317
235.14         81.9049
235.60        79.84813
236.05        77.56408
236.51        75.59014
236.97        74.69532
237.43        75.09289
237.88        76.97896
238.34        80.00574
238.80        83.22173
239.26        85.49616
239.71        86.68244
240.17        86.42078
240.63        85.16322
241.08        83.29476
241.54        80.60748
242.00        77.43848
242.46        74.15849
242.91        70.74976
243.37          66.661
243.83         62.4293
244.28        61.22287
244.74        65.53899
245.20        74.32792
245.66        82.24778
246.11        85.39084
246.57        83.44743
247.03        76.41283
247.48         65.3102
247.94         59.7824
248.40        62.72851
248.85        68.13094
249.31        72.47403
249.77        74.69548
250.22          75.298
250.68        75.01522
251.14         74.3126
251.59        73.99271
252.05        74.62159
252.51        76.12513
252.96        77.49317
253.42        77.25869
253.88        75.52112
254.33        73.23954
254.79        72.59483
255.25        75.39266
255.70        81.01704
256.16        87.85617
256.62        94.17275
257.07         98.1031
257.53        99.65458
257.99        99.47285
258.44        97.40377
258.90         94.3651
259.35        90.78394
259.81        87.89951
260.27        85.68645
260.72         84.0994
261.18        83.29482
261.63        82.53615
262.09        82.29765
262.55         82.5692
263.00         83.0304
263.46        83.75096
263.91        83.82599
264.37        82.67258
264.83        80.31706
265.28        77.08784
265.74        74.06931
266.19        72.18649
266.65        71.69364
267.11        72.05218
267.56        72.61468
268.02        72.48886
268.47        71.45758
268.93        69.85695
269.38        67.99556
269.84        66.58923
270.30        65.82032
270.75        65.45491
271.21         65.2613
271.66        64.86969
272.12        64.17344
272.57        63.27536
273.03        62.31732
273.48        61.39688
273.94        60.62327
274.39        59.89543
274.85         59.2032
275.31        58.44586
275.76        57.57025
276.22        56.65203
276.67        55.71454
277.13        54.95401
277.58        54.31535
278.04        53.81345
278.49         53.2371
278.95         52.4237
279.40        51.29896
279.86        50.04631
280.31        48.78168
280.77        47.86941
281.22        47.27118
281.68        46.93432
282.13        46.64885
282.59        46.19038
283.04        45.49216
283.50        44.69706
283.95        43.89545
284.41        43.29404
284.86        42.89154
285.32        42.64565
285.77        42.47312
286.22        42.34407
286.68        42.22777
287.13        42.09266
287.59        41.91561
288.04        41.59262
288.50        41.14907
288.95        40.58166
289.41        39.98052
289.86         39.3989
290.32        38.92496
290.77        38.53294
291.22        38.27268
291.68        38.17611
292.13        38.22945
292.59        38.44175
293.04        38.75645
293.50        39.11221
293.95        39.47568
294.40        39.85771
294.86        40.27538
295.31        40.76899
295.77        41.34799
296.22        41.98818
296.68        42.66886
297.13        43.33797
297.58        43.98399
298.04        44.62765
298.49        45.26769
298.95        45.95015
299.40        46.66244
299.85        47.38642
300.31        48.11754
300.76        48.83126
301.21        49.52349
301.67        50.23472
302.12        50.89802
302.58        51.50434
303.03        52.02217
303.48        52.47944
303.94        52.98774
304.39         53.6615
304.84        54.52152
305.30        55.51388
305.75        56.44835
306.20        57.07626
306.66        57.37444
307.11        57.39496
307.57        57.33543
308.02         57.3959
308.47        57.65623
308.93          58.043
309.38        58.43969
309.83        58.74001
310.29        58.90546
310.74        58.97643
311.19        58.95395
311.65        58.82774
312.10        58.60217
312.55        58.27908
313.00        57.94002
313.46        57.71142
313.91        57.59812
314.36        57.58957
314.82        57.58275
315.27        57.43753
315.72        57.11135
316.18        56.66662
316.63        56.19218
317.08        55.84678
317.53        55.65871
317.99        55.56415
318.44        55.48393
318.89        55.27356
319.35        54.89842
319.80        54.41756
320.25        53.89059
320.70        53.41434
321.16        53.01473
321.61        52.66389
322.06        52.34912
322.51        52.05836
322.97        51.76591
323.42         51.4864
323.87        51.17186
324.32        50.74983
324.78        50.20196
325.23        49.57137
325.68        48.90309
326.13        48.29111
326.59        47.77253
327.04        47.35676
327.49        47.03548
327.94        46.79536
328.39        46.61773
328.85        46.47779
329.30        46.38924
329.75        46.29711
330.20        46.17767
330.66        46.00631
331.11        45.79673
331.56        45.51316
332.01        45.15506
332.46        44.73419
332.92        44.27617
333.37        43.85504
333.82        43.49739
334.27        43.21432
334.72        43.00643
335.17        42.86587
335.63        42.77158
336.08        42.73051
336.53        42.74277
336.98        42.82937
337.43        42.97294
337.88        43.15598
338.34        43.25128
338.79        43.10996
339.24         42.6917
339.69        42.04484
340.14        41.36827
340.59        40.99804
341.05        41.00775
341.50        41.31433
341.95        41.70249
342.40        41.83138
342.85        41.62099
343.30        41.18099
343.75        40.67476
344.20        40.36935
344.66        40.33263
345.11        40.44964
345.56        40.61835
346.01        40.67979
346.46        40.57947
346.91        40.38451
347.36        40.10854
347.81        39.75872
348.26        39.36575
348.72        38.95547
349.17        38.57375
349.62        38.37094
350.07        38.37888
350.52        38.55011
350.97        38.80931
351.42        39.03967
351.87        39.18925
352.32        39.26679
352.77        39.25523
353.22        39.13613
353.67        38.91758
354.13        38.62645
354.58        38.27148
355.03        37.91473
355.48        37.58912
355.93         37.3017
356.38        37.08268
356.83        36.96909
357.28        36.95347
357.73        37.00813
358.18        37.08112
358.63        37.08671
359.08        36.99254
359.53        36.81934
359.98        36.56451
360.43        36.22735
360.88        35.82636
361.33        35.37138
361.78         34.9281
362.23        34.60692
362.68        34.42886
363.13        34.35569
363.58         34.3196
364.03        34.20911
364.48         33.9851
364.93        33.67414
365.38        33.28614
365.83        32.84766
366.28        32.38726
366.73         31.9087
367.18        31.45538
367.63        31.09215
368.08        30.83339
368.53        30.66935
368.98         30.5622
369.43        30.44315
369.88        30.29113
370.33        30.12101
370.78        29.94609
371.23        29.79571
371.68        29.67725
372.13        29.56867
372.58        29.46988
373.03        29.38733
373.48        29.31359
373.93         29.2458
374.38        29.15112
374.83        28.97507
375.28        28.71189
375.72        28.37383
376.17        28.02794
376.62        27.74324
377.07        27.54588
377.52        27.41407
377.97        27.33115
378.42        27.26871
378.87          27.208
379.32         27.1531
379.77         27.0852
380.22         26.9718
380.67        26.81149
381.11        26.62186
381.56        26.41194
382.01        26.22409
382.46        26.07222
382.91        25.93542
383.36        25.83595
383.81        25.80297
384.26         25.8298
384.71        25.91614
385.15        25.96674
385.60        25.84488
386.05        25.53494
386.50        25.08096
386.95        24.64047
387.40        24.46428
387.85        24.59233
388.29         24.9291
388.74        25.29815
389.19        25.42966
389.64        25.27052
390.09        24.89841
390.54        24.46366
390.98        24.19927
391.43        24.18379
391.88        24.32534
392.33         24.4865
392.78        24.47239
393.23        24.25804
393.67        23.90889
394.12        23.58452
394.57        23.42055
395.02         23.4459
395.47        23.60888
395.91        23.82139
396.36        23.90522
396.81         23.8223
397.26        23.62192
397.71        23.40735
398.15        23.31329
398.60        23.39015
399.05        23.56998
399.50         23.7508
399.95        23.78946
400.39        23.65807
400.84        23.39901
401.29        23.11145
401.74        22.97515
402.18        23.04567
402.63        23.25798
403.08        23.49208
403.53        23.55546
403.97        23.40652
404.42        23.11946
404.87        22.81106
405.32         22.6723
405.76        22.74502
406.21        22.96172
406.66        23.21498
407.11        23.33923
407.55        23.29279
408.00        23.13318
408.45        22.92729
408.90        22.73195
409.34        22.60975
409.79        22.64912
410.24        22.77607
410.68        22.78182
411.13        22.65194
411.58        22.49339
412.03        22.36055
412.47        22.31251
412.92        22.36551
413.37        22.48874
413.81        22.65191
414.26        22.82798
414.71        22.99019
415.15        23.14937
415.60         23.2507
416.05        23.23893
416.49        23.10541
416.94        22.87248
417.39        22.60353
417.83        22.40304
418.28        22.30846
418.73        22.29038
419.17        22.31337
419.62        22.30721
420.07        22.25729
420.51        22.18958
420.96        22.12381
421.41        22.06549
421.85        22.01406
422.30        21.97584
422.74         21.9613
423.19        22.02461
423.64        22.15783
424.08        22.35579
424.53        22.54245
424.98        22.61684
425.42        22.55564
425.87        22.39862
426.31        22.20212
426.76        22.04236
427.21        21.94317
427.65        21.91483
428.10        21.94972
428.54        21.96185
428.99        21.94416
429.44        22.04087
429.88        22.15967
430.33        21.99475
430.77        21.62765
431.22         21.4761
431.66        21.58026
432.11        21.75273
432.56        21.94851
433.00        22.28197
433.45        22.54873
433.89        22.40413
434.34        21.99818
434.78         21.6538
435.23        21.38038
435.67        22.15866
436.12         21.6693
436.57          21.582
437.01        21.30064
437.46        21.20431
437.90        21.31316
438.35        21.43937
438.79        21.50934
439.24        21.52345
439.68        21.46798
440.13        21.17426
440.57        20.81453
441.02        20.99804
441.46        21.53782
441.91        21.74272
442.35        21.04595
442.80         20.8382
443.24        20.90292
443.69        20.80299
444.13        20.54797
444.58        20.38649
445.02        20.34799
445.47        20.41658
445.91        20.53844
446.36        20.57863
446.80        20.50739
447.24        20.39296
447.69        20.27744
448.13        20.18043
448.58        20.12393
449.02        20.09482
449.47        20.07926
449.91         20.0489
450.36        20.00415
450.80        19.95247
451.25        19.91818
451.69        19.91655
452.13        19.95486
452.58        20.01537
453.02        20.08238
453.47        20.13756
453.91        20.17296
454.36        20.19076
454.80        20.18181
455.24        20.13027
455.69        20.04704
456.13        19.92165
456.58        19.79986
457.02        19.73707
457.46         19.7408
457.91        19.75116
458.35        19.75215
458.79        19.77068
459.24        19.79485
459.68        19.82088
460.13        19.89694
460.57        19.90967
461.01        19.83585
461.46        20.22133
461.90        20.28165
462.34        20.04445
462.79        20.18138
463.23         20.0132
463.68        19.86626
464.12        19.74591
464.56        19.82415
465.01        19.95223
465.45        20.07578
465.89        20.13516
466.34        20.12226
466.78         19.9923
467.22        19.81326
467.67        19.83573
468.11        20.01961
468.55        19.97017
468.99        19.72868
469.44        19.68156
469.88        19.84546
470.32        20.00856
470.77        20.11419
471.21        20.17464
471.65        20.17543
472.10        20.11147
472.54        20.02726
472.98        20.03674
473.42        20.15441
473.87        20.28771
474.31        20.39257
474.75        20.52881
475.20        20.64072
475.64         20.5269
476.08        20.27965
476.52        20.21738
476.97        20.36424
477.41        20.57744
477.85        20.77174
478.29        20.86946
478.74        20.84585
479.18        20.69445
479.62        20.51878
480.06        20.48321
480.50        20.59343
480.95        20.70566
481.39         20.7733
481.83        20.82362
482.27        20.84779
482.72         20.8367
483.16        20.82085
483.60        20.85412
484.04        20.94427
484.48        21.11999
484.93        21.41158
485.37         21.5321
485.81        21.68941
486.25         22.0999
486.69        22.80984
487.14        22.25115
487.58         21.7655
488.02        22.70838
488.46        21.97886
488.90        22.18053
489.34        22.20413
489.79        22.43367
490.23        22.75639
490.67        22.87414
491.11        22.82872
491.55        22.82552
491.99          22.894
492.43        22.92788
492.88        22.94287
493.32         23.0056
493.76        23.13064
494.20        23.30798
494.64        23.53723
495.08        23.81343
495.52        24.10339
495.96        24.37268
496.41        24.60856
496.85        24.76697
497.29        24.86727
497.73        25.06354
498.17        25.32559
498.61        25.38992
499.05        25.29715
499.49        25.37276
499.93        25.64431
500.37        25.88081
500.82        26.06265
501.26        26.37029
501.70        26.72826
502.14        26.78979
502.58        26.61065
503.02        26.58308
503.46        26.73816
503.90         26.8699
504.34        26.94123
504.78         26.9839
505.22        26.99048
505.66        26.96445
506.10        26.93528
506.54        26.94381
506.98        27.00497
507.42        27.11326
507.86        27.25434
508.30        27.40248
508.74        27.54513
509.18        27.68058
509.62        27.81831
510.06        27.97458
510.50         28.1482
510.94          28.332
511.38        28.48593
511.82        28.54817
512.26        28.51092
512.70        28.39596
513.14        28.27069
513.58        28.23667
514.02        28.31084
514.46        28.46763
514.90        28.64606
515.34        28.67877
515.78        28.59101
516.22        28.46868
516.66        28.38925
517.10        28.14993
517.54        27.77058
517.98        28.26821
518.42        28.12834
518.86        28.33591
519.30        28.42342
519.74        28.53577
520.18         28.6362
520.62        28.64557
521.06        28.57209
521.50        28.42582
521.93        28.25008
522.37        28.12484
522.81        28.07181
523.25        28.07125
523.69        28.10153
524.13        28.12721
524.57        28.13216
525.01        28.12287
525.45        28.09973
525.89        28.06172
526.32         28.0094
526.76        27.94604
527.20         27.8632
527.64        27.75475
528.08        27.62316
528.52        27.46883
528.96        27.32662
529.40         27.2467
529.83        27.23356
530.27         27.2811
530.71         27.3233
531.15        27.25754
531.59        27.07018
532.03         26.7964
532.46        26.52264
532.90        26.40499
533.34        26.46287
533.78        26.63985
534.22        26.84411
534.66        26.93454
535.09        26.87117
535.53        26.71012
535.97        26.49986
536.41        26.31345
536.85        26.18204
537.28        26.09793
537.72        26.06988
538.16        26.03239
538.60         26.1071
539.04        26.18286
539.47        26.26874
539.91        26.38689
540.35        26.54616
540.79        26.51313
541.22         26.6363
541.66        26.73845
542.10        26.94592
542.54        26.82119
542.97        27.07496
543.41        27.20882
543.85        27.41493
544.29        27.62138
544.72        27.79315
545.16        27.95744
545.60        28.10199
546.04        28.13511
546.47         28.1413
546.91        28.43066
547.35        28.93345
547.79        29.27826
548.22        29.41551
548.66         29.4695
549.10        29.49682
549.53        29.69749
549.97        30.08734
550.41        30.14551
550.84        30.42655
551.28        30.62517
551.72        30.91263
552.15        31.18815
552.59        31.44602
553.03        31.69885
553.46        31.91077
553.90        32.06261
554.34        32.14878
554.77        32.17966
555.21        32.20156
555.65        32.26493
556.08         32.3786
556.52        32.56093
556.96        32.72169
557.39         32.8993
557.83        33.05518
558.27         33.1173
558.70        33.12027
559.14        33.18966
559.57        33.32612
560.01        33.50552
560.45         33.6784
560.88        33.72719
561.32        33.70992
561.75        33.73735
562.19        33.93553
562.63        34.02349
563.06        34.03625
563.50        34.05191
563.93        34.09206
564.37        34.29172
564.80        34.47821
565.24        34.69263
565.68        34.84714
566.11        35.01017
566.55         35.2006
566.98        35.26758
567.42        35.22206
567.85        35.65241
568.29        35.60067
568.72        35.91537
569.16        36.27051
569.60        36.56327
570.03        36.75152
570.47        36.94426
570.90        36.97827
571.34        37.33528
571.77        37.33185
572.21        37.58965
572.64        37.80852
573.08         38.0906
573.51         37.9869
573.95         38.6604
574.38        39.16915
574.82        39.39891
