SpectraSmart Spectrum 2.9.0.0
--------- Device Information -----------
Spectrum Name :  反射率_0
Saving Time :  2024/04/20 00:35:50
Spectro-Module Model Name : SE2030-DUVN
Spectro-Module Serial Number : OS361AC55029948
Wavelength Start : 200
Wavelength End : 1025
Wavelength Unit : Wavelength(nm)
Spectrum Unit : Reflectance(%)
-----------Spectrum Setting ------------
Integration Time : 30ms
Average : 10
Boxcar : 0
Background removal :  enabled
linearity correction :  enabled
SC :  disabled
Intensity correction :  disabled
DWT denoise :  enabled
savitzky-golay :  disabled
FFT :  disabled
Running average :  disabled
Kalman :  disabled
High pass :  disabled
---------------BEGIN--------------------
Wavelength(nm)             Reflectance(%)
200.29               0
200.75         49.4884
201.21         50.6829
201.67        54.02508
202.13        58.71681
202.58        64.05046
203.04        70.24374
203.50        75.53931
203.96        75.92332
204.42         71.6694
204.88        65.59798
205.34        60.05304
205.80        55.77535
206.26         51.9934
206.72        47.66466
207.18        42.61575
207.64         39.3272
208.10        40.64631
208.55        45.92403
209.01        51.64869
209.47         55.6494
209.93         57.7633
210.39        58.59845
210.85        58.21112
211.31        56.56339
211.77        53.57778
212.23        48.78924
212.69        42.78059
213.14        39.60342
213.60        40.90311
214.06        44.88137
214.52        48.87247
214.98        51.46294
215.44        52.89665
215.90        53.51615
216.36        53.84309
216.81        54.77229
217.27        56.28403
217.73        57.97981
218.19        58.41498
218.65        55.57171
219.11        49.10687
219.57        39.30028
220.02        28.08436
220.48        21.22618
220.94        20.89995
221.40        26.33564
221.86        34.24746
222.32        39.31118
222.77        40.06121
223.23        38.03362
223.69        35.60031
224.15        36.08937
224.61        39.36198
225.06        43.53021
225.52        46.74477
225.98         47.6889
226.44        46.45856
226.90        43.80329
227.36        40.68681
227.81        38.72781
228.27        38.73441
228.73        39.97589
229.19        41.63869
229.65        42.78575
230.10        43.23088
230.56        43.26139
231.02        43.22062
231.48        43.53085
231.93        44.16096
232.39        44.92177
232.85        45.37408
233.31        44.88474
233.77        43.38594
234.22        41.13932
234.68        38.70146
235.14        36.95271
235.60        36.22396
236.05        36.31738
236.51         36.9275
236.97        37.53515
237.43        38.01188
237.88        38.66697
238.34        39.49494
238.80        40.56794
239.26        41.70524
239.71        42.47239
240.17        42.93361
240.63        43.86876
241.08        45.49778
241.54         47.7247
242.00        49.50623
242.46        48.75834
242.91        44.40746
243.37        35.33642
243.83         22.3632
244.28        14.49714
244.74        20.64271
245.20        38.78737
245.66        56.72208
246.11        64.22698
246.57        60.67799
247.03         47.0868
247.48        26.53606
247.94        18.33647
248.40        26.83257
248.85        38.99425
249.31        48.20708
249.77        53.10106
250.22        54.90015
250.68        55.26047
251.14        54.56857
251.59        53.09477
252.05        51.45359
252.51        49.51963
252.96        47.49131
253.42        46.26258
253.88        46.02752
254.33        46.44726
254.79        48.11269
255.25        51.25788
255.70        55.36957
256.16        59.85733
256.62        63.05555
257.07        63.10318
257.53        60.36087
257.99        55.69117
258.44        50.81433
258.90        48.52494
259.35        48.35825
259.81         49.4304
260.27         50.0915
260.72        48.96428
261.18        46.44037
261.63        42.84251
262.09        39.61305
262.55        38.27365
263.00        38.80192
263.46        40.50261
263.91        41.94444
264.37        41.65802
264.83        39.66943
265.28        36.63531
265.74        33.87463
266.19        32.81952
266.65        33.61648
267.11        35.49381
267.56        37.49568
268.02        38.26371
268.47        37.55233
268.93        35.84551
269.38        33.64481
269.84        31.98424
270.30        31.16989
270.75        30.90521
271.21        30.89504
271.66        30.70974
272.12        30.20313
272.57         29.5406
273.03        28.87959
273.48        28.35321
273.94        28.03537
274.39        27.82677
274.85        27.62034
275.31        27.26094
275.76        26.70926
276.22        26.03641
276.67        25.37159
277.13        24.99102
277.58        24.88179
278.04        24.97783
278.49        25.02942
278.95        24.72953
279.40        24.02538
279.86        23.11108
280.31        22.18318
280.77         21.6353
281.22        21.47713
281.68        21.59338
282.13        21.79987
282.59        21.84984
283.04        21.67815
283.50        21.39528
283.95        21.05637
284.41        20.76425
284.86        20.53553
285.32         20.3444
285.77        20.19862
286.22        20.17493
286.68        20.25928
287.13        20.41351
287.59         20.5435
288.04        20.49557
288.50        20.26322
288.95        19.87215
289.41         19.4425
289.86        19.09007
290.32        18.89817
290.77        18.82929
291.22        18.85877
291.68        18.91208
292.13        18.97698
292.59        19.08378
293.04        19.28131
293.50        19.65239
293.95        20.18865
294.40        20.83245
294.86        21.48627
295.31         22.0169
295.77        22.38979
296.22        22.64403
296.68        22.83385
297.13         23.0269
297.58        23.26966
298.04        23.55969
298.49        23.90573
298.95         24.3522
299.40        24.88554
299.85        25.48801
300.31        26.12125
300.76        26.72598
301.21        27.27024
301.67         27.7762
302.12        28.20008
302.58        28.52895
303.03         28.7558
303.48        28.90998
303.94        29.07647
304.39        29.35337
304.84        29.76279
305.30        30.25605
305.75        30.74587
306.20        31.11225
306.66        31.34013
307.11        31.46002
307.57         31.5072
308.02        31.47089
308.47        31.39041
308.93        31.25924
309.38        31.15306
309.83        31.23252
310.29        31.50213
310.74        31.91505
311.19        32.29406
311.65        32.35462
312.10         32.0487
312.55        31.47584
313.00        30.84545
313.46        30.48117
313.91        30.44542
314.36         30.6505
314.82        30.94502
315.27         31.1019
315.72        31.03795
316.18        30.83418
316.63        30.56031
317.08        30.32493
317.53        30.15997
317.99        30.01638
318.44        29.87144
318.89        29.68907
319.35        29.46067
319.80        29.20951
320.25        28.95286
320.70        28.71008
321.16        28.48508
321.61        28.27564
322.06        28.06846
322.51        27.84644
322.97         27.5997
323.42        27.33666
323.87        27.06735
324.32        26.81358
324.78        26.57636
325.23        26.35709
325.68        26.12896
326.13        25.85192
326.59        25.52251
327.04        25.17664
327.49        24.85403
327.94        24.61848
328.39        24.48547
328.85        24.42114
329.30         24.4254
329.75        24.45831
330.20        24.49151
330.66        24.50471
331.11        24.48635
331.56        24.37007
332.01         24.1431
332.46        23.82017
332.92        23.43767
333.37        23.06419
333.82           22.74
334.27        22.47643
334.72         22.2824
335.17        22.16411
335.63        22.11172
336.08        22.11887
336.53        22.19459
336.98        22.35892
337.43        22.59173
337.88        22.87692
338.34         23.0748
338.79        23.00842
339.24        22.63751
339.69        22.01762
340.14        21.37084
340.59        21.07406
341.05        21.20031
341.50        21.64148
341.95        22.16231
342.40        22.39079
342.85        22.23893
343.30        21.83925
343.75        21.33299
344.20         20.9521
344.66        20.76994
345.11        20.67826
345.56         20.6719
346.01        20.74406
346.46        20.85979
346.91        21.04122
347.36        21.14905
347.81        20.95459
348.26        20.44769
348.72        19.72935
349.17        19.00442
349.62        18.69938
350.07        18.90703
350.52        19.47337
350.97        20.17545
351.42        20.67803
351.87        20.87729
352.32        20.86792
352.77        20.69413
353.22        20.43051
353.67        20.12842
354.13        19.77756
354.58        19.42587
355.03        19.19185
355.48        19.10365
355.93        19.15288
356.38        19.27798
356.83        19.36547
357.28        19.37592
357.73        19.32019
358.18        19.23695
358.63         19.1966
359.08        19.21019
359.53        19.25258
359.98         19.2499
360.43        19.09376
360.88        18.77783
361.33        18.35024
361.78        17.92847
362.23        17.70045
362.68        17.70213
363.13        17.86044
363.58        18.06229
364.03        18.13295
364.48        18.02209
364.93        17.78589
365.38        17.46261
365.83         17.1214
366.28        16.80497
366.73        16.49717
367.18        16.23974
367.63        16.09871
368.08         16.0751
368.53        16.14951
368.98         16.2542
369.43        16.27532
369.88        16.18755
370.33        16.02651
370.78         15.8285
371.23        15.66287
371.68        15.55664
372.13        15.47927
372.58        15.44864
373.03        15.49615
373.48        15.60813
373.93        15.76834
374.38        15.89332
374.83        15.85366
375.28        15.62958
375.72        15.25446
376.17        14.84099
376.62        14.53346
377.07        14.38351
377.52        14.35516
377.97        14.40416
378.42        14.45732
378.87        14.48406
379.32        14.49895
379.77        14.51263
380.22        14.53818
380.67        14.57582
381.11         14.6187
381.56        14.62463
382.01        14.54646
382.46        14.37865
382.91        14.13492
383.36        13.89149
383.81        13.76068
384.26        13.76204
384.71        13.87142
385.15        13.98363
385.60        13.93625
386.05         13.7032
386.50        13.33654
386.95        12.97389
387.40        12.83186
387.85        12.94647
388.29        13.23707
388.74        13.54596
389.19        13.65678
389.64        13.52697
390.09        13.22395
390.54        12.87309
390.98        12.66862
391.43        12.67264
391.88        12.80933
392.33        12.96757
392.78         12.9897
393.23        12.85298
393.67        12.61217
394.12        12.38125
394.57        12.26911
395.02        12.29678
395.47        12.42118
395.91        12.57227
396.36        12.61622
396.81         12.5221
397.26        12.33006
397.71        12.11793
398.15        11.98726
398.60        11.97695
399.05        12.04795
399.50        12.12983
399.95        12.12267
400.39        12.00488
400.84        11.80276
401.29        11.60103
401.74         11.5518
402.18        11.69435
402.63        11.97122
403.08        12.24886
403.53        12.31866
403.97        12.14208
404.42        11.79457
404.87        11.42394
405.32        11.27238
405.76        11.39227
406.21        11.69758
406.66        12.04932
407.11        12.23165
407.55         12.1889
408.00        11.99228
408.45        11.72554
408.90        11.50619
409.34        11.40016
409.79         11.4214
410.24        11.51541
410.68         11.5541
411.13        11.51898
411.58        11.47788
412.03        11.44622
412.47         11.4285
412.92        11.42875
413.37        11.43246
413.81        11.45047
414.26        11.51577
414.71         11.6229
415.15        11.77027
415.60        11.89129
416.05         11.8998
416.49        11.77754
416.94        11.55945
417.39        11.32253
417.83        11.19234
418.28        11.20533
418.73         11.3168
419.17        11.46381
419.62        11.53391
420.07        11.50279
420.51        11.40584
420.96        11.28302
421.41         11.1806
421.85        11.11283
422.30        11.07353
422.74        11.05441
423.19         11.0664
423.64        11.09998
424.08        11.15875
424.53        11.21682
424.98        11.24814
425.42         11.2468
425.87        11.22415
426.31        11.17741
426.76        11.11372
427.21        11.03138
427.65        10.92087
428.10        10.83344
428.54        10.83514
428.99        10.93576
429.44          11.161
429.88        11.39424
430.33        11.37618
430.77        11.13802
431.22        10.93485
431.66        10.84626
432.11        10.87326
432.56        11.02132
433.00         11.3194
433.45        11.61649
433.89        11.67165
434.34        11.52867
434.78        11.32538
435.23        11.08173
435.67        11.57197
436.12        11.18771
436.57        11.12267
437.01        10.94243
437.46        10.85476
437.90        10.86744
438.35        10.89117
438.79        10.90161
439.24        10.90693
439.68        10.89857
440.13        10.78423
440.57        10.62574
441.02        10.69314
441.46        10.88433
441.91        10.86649
442.35        10.39487
442.80        10.21115
443.24        10.20742
443.69        10.15846
444.13         10.0498
444.58        9.977545
445.02        9.945377
445.47        9.955196
445.91        9.985146
446.36        9.977455
446.80        9.919893
447.24        9.841039
447.69        9.763334
448.13        9.696246
448.58        9.652719
449.02        9.628677
449.47        9.614859
449.91         9.59191
450.36        9.560272
450.80        9.522911
451.25        9.502043
451.69        9.519396
452.13        9.579066
452.58        9.661581
453.02        9.744514
453.47        9.789373
453.91        9.789796
454.36         9.75855
454.80        9.703848
455.24        9.642639
455.69        9.590144
456.13        9.532302
456.58        9.496065
457.02        9.514334
457.46        9.587301
457.91        9.681683
458.35        9.767192
458.79         9.81651
459.24        9.820199
459.68        9.784393
460.13        9.767347
460.57        9.762762
461.01        9.771449
461.46         10.0418
461.90        10.15661
462.34        10.06977
462.79        10.10915
463.23        9.953391
463.68        9.797442
464.12        9.690528
464.56        9.735628
465.01        9.840471
465.45        9.964624
465.89        10.05754
466.34        10.10813
466.78        10.10085
467.22        10.06569
467.67        10.12344
468.11        10.25122
468.55        10.24382
468.99        10.12759
469.44         10.1125
469.88         10.2106
470.32        10.31127
470.77        10.37427
471.21         10.3913
471.65        10.35293
472.10        10.26759
472.54        10.17377
472.98        10.16034
473.42        10.24107
473.87        10.35627
474.31        10.46931
474.75        10.58466
475.20        10.66741
475.64        10.62192
476.08        10.49965
476.52        10.47288
476.97        10.55715
477.41        10.67527
477.85        10.78835
478.29        10.86609
478.74        10.89436
479.18        10.86327
479.62        10.81307
480.06        10.80998
480.50        10.85363
480.95         10.8765
481.39        10.86323
481.83        10.84232
482.27        10.81575
482.72        10.77788
483.16        10.75292
483.60        10.78229
484.04        10.86762
484.48        11.04332
484.93        11.31709
485.37        11.44439
485.81        11.47177
486.25        11.85744
486.69        12.09633
487.14        11.68998
487.58        11.71245
488.02        12.47257
488.46         12.0827
488.90        12.19993
489.34        12.15549
489.79        12.21146
490.23        12.34233
490.67        12.46294
491.11        12.55311
491.55        12.53731
491.99        12.44088
492.43         12.4011
492.88        12.43903
493.32        12.45697
493.76        12.48177
494.20        12.60564
494.64        12.83293
495.08        13.12556
495.52        13.42983
495.96        13.67505
496.41        13.83949
496.85        13.91566
497.29        13.93829
497.73         14.0324
498.17        14.19487
498.61         14.2699
499.05        14.26842
499.49        14.35323
499.93        14.53478
500.37         14.6906
500.82        14.81944
501.26        15.04125
501.70        15.31476
502.14        15.43189
502.58        15.40793
503.02         15.4481
503.46        15.56494
503.90        15.64439
504.34        15.67402
504.78        15.68739
505.22        15.68694
505.66        15.67388
506.10        15.66139
506.54        15.66623
506.98        15.69686
507.42        15.75336
507.86        15.83884
508.30        15.95547
508.74        16.09609
509.18         16.2508
509.62        16.40508
510.06        16.53703
510.50        16.64028
510.94        16.72333
511.38        16.77763
511.82        16.79221
512.26        16.77113
512.70        16.71632
513.14        16.67013
513.58        16.69649
514.02        16.79762
514.46        16.95519
514.90        17.10839
515.34        17.10464
515.78        16.94269
516.22        16.74767
516.66        16.60685
517.10        16.30119
517.54        15.85571
517.98        16.45468
518.42        16.31925
518.86         16.5684
519.30        16.65284
519.74        16.75075
520.18        16.83441
520.62        16.83649
521.06         16.7724
521.50         16.6434
521.93        16.49217
522.37        16.39927
522.81         16.3829
523.25        16.42296
523.69        16.48858
524.13        16.52998
524.57        16.52922
525.01        16.49703
525.45        16.44589
525.89        16.39496
526.32         16.3501
526.76        16.30859
527.20        16.25339
527.64        16.16297
528.08        16.03647
528.52        15.88136
528.96        15.73747
529.40        15.66211
529.83        15.66363
530.27        15.72965
530.71        15.79785
531.15        15.77007
531.59        15.63042
532.03        15.41052
532.46        15.18802
532.90        15.10018
533.34        15.16521
533.78        15.33386
534.22        15.52256
534.66        15.60333
535.09        15.54292
535.53        15.39087
535.97        15.20018
536.41        15.05163
536.85        14.97476
537.28        14.95309
537.72        14.97892
538.16        14.99327
538.60        15.05899
539.04        15.11875
539.47        15.18356
539.91        15.27339
540.35        15.39514
540.79        15.40839
541.22        15.51041
541.66        15.59082
542.10        15.72222
542.54        15.65186
542.97        15.79937
543.41        15.88247
543.85        16.01569
544.29        16.15714
544.72        16.28256
545.16        16.40074
545.60        16.50549
546.04         16.5471
546.47        16.58197
546.91        16.80513
547.35        17.17476
547.79        17.46012
548.22        17.62381
548.66        17.72898
549.10        17.80679
549.53        17.98192
549.97        18.25558
550.41        18.29302
550.84        18.43114
551.28        18.49408
551.72        18.61643
552.15        18.78813
552.59        19.01339
553.03        19.28307
553.46        19.54089
553.90        19.71878
554.34        19.80306
554.77        19.81577
555.21        19.80723
555.65        19.84717
556.08        19.95086
556.52        20.09458
556.96         20.2513
557.39        20.40568
557.83        20.53912
558.27        20.61086
558.70        20.63448
559.14        20.67011
559.57        20.71852
560.01        20.77435
560.45        20.82549
560.88        20.81989
561.32        20.79978
561.75        20.84822
562.19        21.03222
562.63        21.10017
563.06        21.09276
563.50        21.19601
563.93        21.38465
564.37        21.55116
564.80        21.58653
565.24        21.65318
565.68        21.72203
566.11        21.79179
566.55         21.8829
566.98        21.95509
567.42         21.9978
567.85        22.27145
568.29        22.20182
568.72        22.46901
569.16        22.83845
569.60        23.10168
570.03        23.22957
570.47        23.33681
570.90        23.32202
571.34        23.66052
571.77        23.60838
572.21        23.79093
572.64        23.93266
573.08        24.14097
573.51        24.28977
573.95        24.64807
574.38        24.82056
574.82         25.0406
