SpectraSmart Spectrum 2.9.0.0
--------- Device Information -----------
Spectrum Name :  反射率_0
Saving Time :  2024/04/20 00:11:24
Spectro-Module Model Name : SE2030-DUVN
Spectro-Module Serial Number : OS361AC55029948
Wavelength Start : 200
Wavelength End : 1025
Wavelength Unit : Wavelength(nm)
Spectrum Unit : Reflectance(%)
-----------Spectrum Setting ------------
Integration Time : 30ms
Average : 10
Boxcar : 0
Background removal :  enabled
linearity correction :  enabled
SC :  disabled
Intensity correction :  disabled
DWT denoise :  enabled
savitzky-golay :  disabled
FFT :  disabled
Running average :  disabled
Kalman :  disabled
High pass :  disabled
---------------BEGIN--------------------
Wavelength(nm)             Reflectance(%)
200.29               0
200.75        53.29637
201.21        52.97775
201.67        55.16409
202.13        60.40162
202.58        68.64696
203.04        80.26945
203.50         91.5999
203.96        93.67982
204.42        86.35995
204.88        75.52399
205.34        65.95827
205.80        59.66944
206.26        55.55645
206.72        51.89587
207.18        48.98702
207.64        49.53558
208.10        55.03872
208.55        64.17905
209.01        71.23575
209.47        72.47751
209.93        68.96818
210.39        62.60185
210.85        56.15825
211.31        52.64901
211.77        52.43158
212.23        54.81671
212.69        59.42643
213.14        63.44905
213.60        64.27686
214.06        63.67319
214.52        62.78415
214.98        62.43285
215.44        62.59631
215.90        62.58104
216.36        62.69213
216.81        63.65313
217.27         65.3178
217.73         67.6299
218.19        68.81107
218.65        66.24088
219.11        59.51136
219.57        48.88032
220.02        36.85386
220.48        30.46074
220.94        32.20715
221.40        40.79275
221.86        51.69334
222.32        57.80807
222.77        57.34241
223.23        52.55173
223.69        46.73126
224.15        44.65529
224.61        46.54086
225.06        49.91995
225.52        52.61238
225.98         52.8517
226.44        50.59684
226.90        46.79889
227.36        42.30703
227.81        38.65778
228.27        36.92095
228.73        36.51624
229.19        37.18421
229.65        38.60416
230.10        40.39936
230.56        42.42435
231.02        44.33931
231.48        45.73417
231.93        46.53934
232.39        46.91113
232.85        46.87013
233.31        46.48918
233.77        45.87568
234.22        45.05454
234.68        44.31388
235.14        44.04548
235.60        44.37218
236.05        45.21392
236.51        46.42308
236.97        47.78831
237.43        49.34821
237.88        51.45587
238.34        53.98999
238.80        56.54478
239.26        58.49792
239.71        59.49986
240.17        59.78522
240.63        60.59943
241.08        62.35935
241.54        64.73729
242.00        66.98948
242.46        67.62061
242.91        65.94554
243.37        61.47964
243.83        54.69268
244.28        50.38734
244.74        53.16037
245.20        62.03407
245.66        70.58883
246.11        73.22665
246.57        69.24513
247.03        59.01233
247.48        44.75269
247.94        40.01504
248.40        47.00234
248.85        56.27295
249.31        63.18316
249.77        66.79918
250.22        68.08128
250.68        68.22473
251.14        67.57173
251.59        66.51929
252.05        65.66379
252.51        64.99765
252.96        64.65531
253.42        65.15862
253.88        66.51968
254.33        68.35184
254.79         71.1485
255.25        75.12054
255.70         79.7653
256.16        84.45415
256.62        88.00255
257.07         89.1092
257.53        88.07337
257.99         85.4585
258.44        81.81618
258.90         78.8218
259.35        76.46752
259.81        75.10767
260.27        74.00631
260.72        72.51991
261.18        70.90205
261.63        68.86253
262.09        67.22316
262.55        66.53324
263.00        66.64191
263.46        67.37241
263.91        67.73101
264.37        66.92889
264.83        64.96066
265.28        62.18687
265.74        59.65919
266.19        58.32943
266.65        58.38031
267.11         59.2415
267.56        60.19664
268.02        60.24215
268.47        59.17285
268.93        57.36566
269.38        55.20813
269.84        53.55432
270.30        52.64512
270.75        52.22991
271.21        52.05707
271.66        51.73145
272.12        51.11812
272.57        50.32982
273.03        49.49014
273.48        48.67443
273.94        47.97607
274.39        47.31975
274.85        46.66537
275.31        45.90137
275.76        44.99527
276.22        44.02035
276.67        43.08969
277.13        42.50022
277.58         42.2073
278.04        42.15408
278.49        42.03107
278.95        41.49862
279.40        40.47525
279.86        39.19786
280.31        37.87423
280.77        36.96543
281.22        36.47532
281.68        36.29625
282.13        36.22119
282.59        36.00502
283.04        35.57222
283.50        35.05995
283.95        34.52155
284.41         34.0839
284.86        33.75265
285.32        33.50652
285.77        33.33555
286.22        33.30864
286.68        33.41253
287.13        33.59304
287.59        33.76655
288.04        33.76746
288.50        33.59394
288.95        33.25504
289.41        32.87217
289.86        32.55081
290.32         32.3795
290.77        32.32366
291.22        32.35799
291.68        32.40521
292.13        32.45714
292.59        32.56872
293.04        32.81825
293.50        33.34434
293.95        34.14417
294.40        35.14653
294.86        36.22999
295.31        37.21881
295.77        38.06099
296.22        38.79651
296.68        39.46774
297.13        40.13046
297.58        40.81506
298.04        41.50257
298.49        42.19874
298.95        42.96357
299.40        43.78039
299.85        44.63763
300.31        45.48684
300.76        46.23027
301.21        46.85245
301.67        47.41377
302.12        47.90641
302.58        48.40501
303.03        48.89802
303.48        49.38834
303.94        49.93024
304.39        50.55594
304.84         51.2649
305.30        52.02061
305.75         52.7022
306.20         53.1617
306.66        53.39534
307.11        53.43733
307.57        53.38505
308.02        53.29255
308.47        53.22503
308.93        53.16169
309.38         53.1414
309.83        53.28699
310.29        53.59324
310.74         54.0214
311.19        54.39524
311.65        54.42709
312.10        54.06411
312.55        53.40256
313.00        52.67841
313.46        52.25803
313.91        52.20742
314.36        52.43312
314.82        52.73605
315.27        52.81738
315.72        52.58117
316.18        52.14376
316.63        51.63444
317.08        51.26485
317.53        51.08706
317.99         51.0176
318.44        50.97808
318.89        50.83479
319.35        50.55017
319.80        50.17846
320.25        49.77615
320.70        49.42899
321.16        49.15633
321.61        48.93439
322.06          48.723
322.51        48.46684
322.97         48.1409
323.42        47.77485
323.87        47.38665
324.32        47.01171
324.78        46.65444
325.23        46.32234
325.68        45.98888
326.13        45.62173
326.59        45.21709
327.04        44.81696
327.49        44.45355
327.94        44.18431
328.39        44.01653
328.85        43.90178
329.30        43.85115
329.75        43.81001
330.20        43.75213
330.66        43.66829
331.11        43.54727
331.56        43.30824
332.01        42.94407
332.46        42.47058
332.92        41.96738
333.37        41.60166
333.82        41.41742
334.27        41.39585
334.72        41.45037
335.17        41.42254
335.63        41.25309
336.08        40.99588
336.53        40.73916
336.98        40.65276
337.43        40.76737
337.88         41.0217
338.34        41.24882
338.79        41.23117
339.24         40.9016
339.69        40.33608
340.14          39.721
340.59          39.368
341.05        39.35042
341.50        39.58151
341.95        39.89325
342.40        40.02386
342.85        39.90681
343.30        39.63486
343.75        39.30672
344.20        39.07987
344.66        39.00014
345.11        38.98822
345.56        39.02118
346.01        39.06526
346.46        39.09354
346.91        39.13037
347.36        39.11351
347.81        38.93754
348.26        38.60443
348.72          38.171
349.17        37.73634
349.62        37.53915
350.07         37.6298
350.52        37.92409
350.97        38.29391
351.42        38.54694
351.87        38.61945
352.32        38.55666
352.77        38.38499
353.22        38.15066
353.67        37.88538
354.13        37.59777
354.58        37.28617
355.03        36.99564
355.48        36.74664
355.93        36.54715
356.38        36.41535
356.83         36.3686
357.28        36.39376
357.73        36.46517
358.18        36.53241
358.63        36.51725
359.08        36.39376
359.53        36.18324
359.98        35.89902
360.43        35.56238
360.88        35.19639
361.33        34.80943
361.78        34.44593
362.23        34.17909
362.68        34.02159
363.13        33.94308
363.58        33.90281
364.03        33.83377
364.48        33.70215
364.93        33.51542
365.38        33.24763
365.83        32.86588
366.28        32.38451
366.73        31.83164
367.18        31.27772
367.63        30.83015
368.08         30.5197
368.53        30.32323
368.98        30.20918
369.43        30.11742
369.88        30.02304
370.33        29.94146
370.78        29.85326
371.23        29.73094
371.68        29.56796
372.13        29.35176
372.58        29.12737
373.03        28.98127
373.48        28.92455
373.93        28.93032
374.38        28.91321
374.83          28.738
375.28        28.38246
375.72        27.88708
376.17        27.36892
376.62        26.97593
377.07        26.75853
377.52         26.6746
377.97        26.66731
378.42        26.64653
378.87        26.57786
379.32         26.4812
379.77         26.3763
380.22         26.2887
380.67        26.22308
381.11        26.17271
381.56        26.09075
382.01        25.92945
382.46         25.6842
382.91         25.3688
383.36        25.06782
383.81        24.90403
384.26        24.89595
384.71        25.01679
385.15        25.13604
385.60        25.06006
386.05        24.75693
386.50        24.28983
386.95        23.83158
387.40        23.65593
387.85        23.80588
388.29        24.16919
388.74        24.56018
389.19        24.70108
389.64        24.53653
390.09         24.1524
390.54        23.69338
390.98        23.38289
391.43        23.30393
391.88        23.37081
392.33        23.47312
392.78        23.45405
393.23         23.2889
393.67         23.0264
394.12        22.78942
394.57         22.6663
395.02        22.67607
395.47        22.77849
395.91         22.9101
396.36        22.93953
396.81        22.84343
397.26        22.65844
397.71        22.46311
398.15        22.35566
398.60          22.381
399.05        22.48854
399.50        22.60124
399.95        22.60952
400.39        22.49136
400.84        22.27709
401.29        22.04531
401.74        21.94064
402.18        22.00542
402.63        22.18269
403.08        22.36978
403.53        22.40047
403.97        22.24097
404.42        21.96084
404.87        21.66032
405.32        21.50422
405.76        21.53223
406.21        21.68715
406.66         21.8925
407.11        22.02917
407.55        22.06367
408.00        22.03915
408.45        21.98126
408.90        21.87604
409.34        21.76153
409.79        21.73826
410.24        21.77607
410.68        21.73788
411.13        21.62354
411.58        21.51821
412.03        21.43462
412.47         21.3641
412.92        21.30984
413.37        21.26843
413.81        21.26278
414.26        21.34241
414.71        21.49926
415.15        21.72394
415.60        21.91713
416.05        21.94758
416.49        21.78546
416.94        21.47461
417.39        21.12326
417.83         20.9075
418.28         20.8789
418.73        20.98054
419.17        21.12676
419.62        21.17225
420.07        21.08603
420.51        20.91947
420.96        20.73607
421.41        20.60988
421.85         20.5567
422.30        20.55874
422.74        20.59252
423.19        20.66016
423.64        20.74362
424.08         20.8569
424.53        20.95078
424.98        20.97198
425.42         20.9131
425.87        20.78893
426.31         20.6405
426.76        20.54163
427.21        20.49844
427.65        20.48413
428.10         20.4954
428.54         20.4962
428.99        20.48288
429.44         20.5617
429.88        20.65111
430.33        20.48309
430.77        20.13573
431.22        19.99726
431.66        20.09391
432.11        20.23294
432.56        20.36826
433.00         20.6035
433.45        20.76278
433.89        20.59834
434.34        20.26571
434.78        19.98881
435.23        19.71227
435.67         20.6236
436.12        19.86395
436.57        19.77784
437.01        19.59762
437.46        19.53312
437.90         19.5951
438.35        19.71131
438.79        19.82041
439.24        19.86298
439.68        19.82256
440.13        19.56109
440.57        19.22396
441.02        19.35203
441.46        19.77283
441.91        19.85865
442.35        19.13252
442.80        18.91259
443.24        19.00231
443.69        18.98858
444.13        18.84372
444.58        18.73672
445.02        18.68011
445.47         18.6791
445.91        18.70931
446.36        18.68843
446.80        18.60269
447.24        18.49998
447.69        18.41137
448.13        18.34404
448.58        18.31147
449.02        18.30435
449.47         18.3033
449.91        18.27004
450.36        18.20342
450.80         18.1139
451.25        18.03103
451.69        17.98131
452.13          17.977
452.58        17.99983
453.02        18.03841
453.47        18.07752
453.91        18.10979
454.36        18.13774
454.80        18.14629
455.24        18.10962
455.69        18.03396
456.13        17.91024
456.58        17.78743
457.02        17.72835
457.46        17.74061
457.91        17.76463
458.35        17.77534
458.79        17.77949
459.24        17.76558
459.68        17.73887
460.13        17.75485
460.57         17.7302
461.01        17.65059
461.46        17.99425
461.90        18.06065
462.34        17.86765
462.79        18.01024
463.23        17.88419
463.68         17.7725
464.12        17.66509
464.56        17.71485
465.01        17.79311
465.45        17.86546
465.89        17.89768
466.34        17.88587
466.78        17.78526
467.22        17.64576
467.67        17.67369
468.11        17.82779
468.55        17.75961
468.99        17.51603
469.44        17.45586
469.88        17.59669
470.32        17.74606
470.77        17.83977
471.21        17.86775
471.65        17.81425
472.10        17.68459
472.54        17.53744
472.98        17.50498
473.42        17.60717
473.87        17.75126
474.31        17.88184
474.75        18.02469
475.20        18.12347
475.64        18.00982
476.08        17.77274
476.52        17.70071
476.97        17.81907
477.41        18.00531
477.85        18.18518
478.29        18.26917
478.74        18.27064
479.18        18.15177
479.62        18.01719
480.06        18.01492
480.50        18.14793
480.95        18.28627
481.39        18.37103
481.83        18.40095
482.27        18.36557
482.72        18.26736
483.16        18.16022
483.60        18.13132
484.04        18.20287
484.48        18.39648
484.93        18.70447
485.37        18.85155
485.81        19.03605
486.25        19.34779
486.69        19.97615
487.14        19.59139
487.58        19.21431
488.02        19.92572
488.46        19.36225
488.90        19.46466
489.34        19.42474
489.79        19.56816
490.23        19.82455
490.67        20.03313
491.11        20.15873
491.55        20.12135
491.99        19.97146
492.43          19.908
492.88        19.96556
493.32        20.02108
493.76        20.09176
494.20        20.25258
494.64        20.50078
495.08        20.83431
495.52        21.18745
495.96        21.40771
496.41        21.50588
496.85        21.60897
497.29        21.74113
497.73         21.9228
498.17        22.12947
498.61        22.20422
499.05        22.18089
499.49         22.2995
499.93        22.57753
500.37        22.82443
500.82        23.01179
501.26        23.28302
501.70         23.5707
502.14        23.57156
502.58        23.35628
503.02        23.30478
503.46        23.45075
503.90        23.60337
504.34        23.71009
504.78        23.76451
505.22        23.75059
505.66         23.6859
506.10        23.61577
506.54        23.57881
506.98        23.59019
507.42        23.69178
507.86        23.88328
508.30        23.88134
508.74        24.11734
509.18        24.23104
509.62        24.35437
510.06        24.47441
510.50        24.59159
510.94        24.70278
511.38        24.77764
511.82        24.78343
512.26        24.71948
512.70          24.599
513.14        24.48687
513.58        24.48034
514.02        24.58972
514.46        24.78718
514.90        24.99656
515.34        25.03063
515.78        24.90122
516.22        24.71484
516.66        24.56546
517.10        24.26712
517.54        23.84906
517.98        24.37744
518.42        24.24889
518.86        24.48896
519.30        24.59908
519.74        24.73451
520.18        24.85369
520.62        24.86928
521.06        24.78811
521.50         24.6186
521.93        24.40903
522.37        24.24953
522.81        24.16589
523.25        24.13947
523.69        24.14466
524.13        24.13834
524.57        24.10472
525.01        24.05429
525.45        23.99963
525.89        23.95796
526.32         23.9323
526.76        23.91886
527.20        23.89184
527.64        23.81742
528.08        23.69104
528.52        23.52042
528.96        23.35466
529.40        23.26722
529.83        23.26789
530.27        23.34054
530.71        23.40916
531.15        23.35513
531.59        23.16021
532.03        22.86646
532.46        22.56556
532.90        22.41912
533.34        22.45143
533.78        22.60605
534.22        22.79396
534.66        22.87839
535.09         22.8201
535.53         22.6722
535.97        22.48212
536.41        22.32079
536.85        22.21702
537.28        22.16097
537.72        22.15357
538.16        22.12959
538.60        22.19028
539.04         22.2432
539.47        22.30512
539.91        22.40857
540.35        22.56221
540.79        22.56151
541.22        22.68923
541.66        22.77321
542.10        22.91734
542.54        22.75792
542.97        22.91177
543.41        22.97731
543.85        23.12393
544.29        23.28557
544.72        23.42705
545.16        23.56111
545.60        23.67498
546.04        23.69632
546.47        23.69693
546.91        23.93937
547.35        24.36398
547.79        24.65276
548.22        24.76834
548.66        24.82179
549.10        24.86107
549.53        25.05513
549.97        25.40201
550.41        25.43467
550.84        25.61835
551.28        25.70478
551.72        25.87186
552.15        26.08925
552.59        26.36088
553.03        26.67928
553.46        26.97176
553.90        27.15672
554.34        27.21779
554.77        27.18198
555.21        27.12377
555.65        27.14954
556.08        27.28074
556.52        27.48104
556.96        27.69714
557.39        27.88136
557.83        28.00399
558.27        28.01791
558.70        27.96344
559.14        27.95966
559.57        28.01672
560.01        28.11531
560.45        28.21881
560.88        28.23646
561.32        28.21774
561.75        28.25128
562.19        28.44425
562.63        28.55691
563.06        28.61269
563.50        28.68857
563.93        28.77998
564.37        28.93453
564.80        29.01619
565.24        29.13947
565.68        29.24596
566.11        29.34591
566.55        29.45875
566.98        29.52882
567.42        29.54563
567.85        29.86517
568.29        29.72217
568.72        30.03089
569.16        30.48273
569.60        30.79103
570.03        30.90595
570.47        31.02918
570.90         31.0352
571.34        31.41871
571.77        31.20388
572.21        31.70823
572.64        31.89394
573.08        32.17742
573.51        32.23974
573.95        32.49086
574.38        32.92907
574.82        33.19702
