SpectraSmart Spectrum 2.9.0.0
--------- Device Information -----------
Spectrum Name :  反射率_0
Saving Time :  2024/04/20 00:10:14
Spectro-Module Model Name : SE2030-DUVN
Spectro-Module Serial Number : OS361AC55029948
Wavelength Start : 200
Wavelength End : 1025
Wavelength Unit : Wavelength(nm)
Spectrum Unit : Reflectance(%)
-----------Spectrum Setting ------------
Integration Time : 30ms
Average : 10
Boxcar : 0
Background removal :  enabled
linearity correction :  enabled
SC :  disabled
Intensity correction :  disabled
DWT denoise :  enabled
savitzky-golay :  disabled
FFT :  disabled
Running average :  disabled
Kalman :  disabled
High pass :  disabled
---------------BEGIN--------------------
Wavelength(nm)             Reflectance(%)
200.29               0
200.75        62.92543
201.21        63.26808
201.67         65.5889
202.13        70.69437
202.58        78.70442
203.04        89.74299
203.50        100.2996
203.96        101.9265
204.42        94.60144
204.88        84.04055
205.34        74.74727
205.80          68.471
206.26        64.08736
206.72        59.91751
207.18        56.09761
207.64        55.36526
208.10          59.794
208.55        68.33587
209.01        75.63699
209.47        78.14803
209.93        76.56771
210.39        72.33748
210.85        67.77306
211.31        65.49715
211.77        65.80382
212.23        68.12579
212.69        71.58429
213.14        72.82623
213.60           70.31
214.06         67.0065
214.52        64.43212
214.98        63.17021
215.44        62.91759
215.90        62.92108
216.36        63.62908
216.81        65.94899
217.27        69.53567
217.73        73.99461
218.19        77.14511
218.65        76.03258
219.11        70.27244
219.57        60.23795
220.02        48.46208
220.48        42.04134
220.94         43.6338
221.40        51.95946
221.86         63.0116
222.32         70.4249
222.77        72.39067
223.23        70.84654
223.69        68.14054
224.15        67.61464
224.61        69.53625
225.06         72.2252
225.52        74.41693
225.98        75.11665
226.44        74.37467
226.90        72.77906
227.36        71.01187
227.81        70.08862
228.27        70.55702
228.73        71.80533
229.19         73.1947
229.65        74.01534
230.10        74.12653
230.56        73.91234
231.02         73.6086
231.48        73.56942
231.93        73.76673
232.39        74.09019
232.85        74.27587
233.31        73.99655
233.77        73.20094
234.22        72.04312
234.68        70.72916
235.14        69.53659
235.60        68.64052
236.05        68.02521
236.51         67.7189
236.97        67.72511
237.43        68.05209
237.88        68.94482
238.34        70.17174
238.80        71.53236
239.26        72.60536
239.71        73.16274
240.17        73.09232
240.63        72.96085
241.08        73.00556
241.54        73.09571
242.00        72.73807
242.46        70.80807
242.91        66.64503
243.37        59.20799
243.83        49.03445
244.28        42.63502
244.74        46.45273
245.20        59.43235
245.66        72.39235
246.11        77.31226
246.57        73.48895
247.03        61.53835
247.48        44.18456
247.94        38.03002
248.40        46.16689
248.85        57.08513
249.31        65.33022
249.77        69.79055
250.22        71.58852
250.68        72.19239
251.14        71.80543
251.59        70.41553
252.05        68.39282
252.51        65.66745
252.96        62.92341
253.42        61.76422
253.88        62.59295
254.33        64.93694
254.79        68.44613
255.25        72.34508
255.70        76.20456
256.16        79.78416
256.62        82.69547
257.07        84.56536
257.53        85.47543
257.99        85.34347
258.44         83.7867
258.90        81.37698
259.35        78.35421
259.81        75.90325
260.27        73.83855
260.72        71.92571
261.18        70.37167
261.63        68.65733
262.09        67.51299
262.55        67.36991
263.00         67.9894
263.46        69.21527
263.91         69.9717
264.37         69.3868
264.83        67.47232
265.28        64.62688
265.74        62.00511
266.19        60.68792
266.65        60.88366
267.11        61.98114
267.56        63.19175
268.02         63.4211
268.47          62.445
268.93        60.66433
269.38        58.53137
269.84        57.00454
270.30        56.33188
270.75         56.2113
271.21         56.2827
271.66        55.99173
272.12        55.19181
272.57        54.06834
273.03        52.86302
273.48        51.82926
273.94        51.11209
274.39        50.56932
274.85        50.11082
275.31         49.5478
275.76        48.80664
276.22        47.97575
276.67        47.13659
277.13        46.54723
277.58        46.16146
278.04        45.94877
278.49         45.6309
278.95        44.92844
279.40        43.77727
279.86        42.40975
280.31         41.0374
280.77        40.13445
281.22        39.68887
281.68         39.5818
282.13        39.57026
282.59        39.36234
283.04        38.86807
283.50        38.24433
283.95        37.55065
284.41        36.93368
284.86        36.40637
285.32        35.94404
285.77        35.56282
286.22        35.37557
286.68        35.37563
287.13        35.49935
287.59        35.61666
288.04        35.48356
288.50         35.0906
288.95        34.47208
289.41        33.80771
289.86        33.29806
290.32        33.04729
290.77        32.97507
291.22        33.00145
291.68        32.96955
292.13        32.84336
292.59        32.70034
293.04        32.62472
293.50        32.76623
293.95        33.13618
294.40         33.6647
294.86         34.2571
295.31        34.77921
295.77        35.19328
296.22        35.54244
296.68        35.85692
297.13         36.1646
297.58        36.49546
298.04        36.84376
298.49        37.23785
298.95        37.76874
299.40         38.4183
299.85        39.14725
300.31        39.87708
300.76        40.47429
301.21        40.90936
301.67        41.25541
302.12        41.50478
302.58        41.71956
303.03        41.90598
303.48        42.07785
303.94        42.33343
304.39        42.77726
304.84        43.42012
305.30        44.20268
305.75        44.96543
306.20        45.49191
306.66        45.75001
307.11        45.78452
307.57        45.70493
308.02        45.59754
308.47        45.53168
308.93        45.47865
309.38        45.45187
309.83        45.53041
310.29         45.7076
310.74        45.96424
311.19        46.18818
311.65        46.19043
312.10        45.93483
312.55        45.48411
313.00        44.98346
313.46        44.65889
313.91        44.54688
314.36        44.59299
314.82        44.68775
315.27        44.67946
315.72        44.51069
316.18        44.24718
316.63        43.93767
317.08        43.66743
317.53        43.45898
317.99        43.27085
318.44        43.08919
318.89        42.88503
319.35         42.6502
319.80        42.40484
320.25         42.1497
320.70        41.88243
321.16        41.60227
321.61         41.3152
322.06        41.03332
322.51        40.78305
322.97        40.56038
323.42          40.362
323.87         40.1612
324.32         39.9223
324.78         39.6276
325.23        39.30063
325.68        38.94016
326.13        38.55463
326.59        38.15647
327.04        37.77419
327.49        37.43018
327.94        37.16383
328.39        36.98172
328.85        36.85318
329.30        36.80101
329.75        36.79854
330.20        36.82518
330.66        36.85839
331.11        36.87305
331.56        36.77361
332.01        36.54267
332.46        36.19767
332.92        35.80473
333.37        35.50121
333.82        35.33012
334.27        35.27927
334.72        35.29107
335.17        35.25944
335.63         35.1415
336.08        34.97319
336.53        34.82252
336.98        34.81854
337.43         34.9782
337.88        35.25497
338.34        35.48503
338.79         35.4539
339.24        35.10118
339.69        34.49915
340.14        33.85573
340.59        33.51952
341.05        33.56809
341.50        33.90513
341.95        34.32785
342.40        34.51832
342.85        34.40057
343.30        34.08638
343.75        33.70469
344.20        33.46529
344.66        33.42318
345.11        33.47002
345.56        33.56706
346.01        33.65702
346.46        33.69977
346.91        33.73299
347.36        33.66835
347.81        33.35646
348.26        32.80691
348.72        32.10204
349.17        31.41458
349.62        31.10851
350.07        31.26218
350.52        31.74639
350.97        32.36643
351.42        32.82796
351.87        33.03312
352.32        33.05313
352.77        32.91698
353.22         32.6778
353.67        32.37835
354.13        32.02185
354.58        31.63925
355.03        31.32855
355.48        31.12038
355.93        31.01072
356.38        30.98455
356.83        31.00257
357.28        31.03509
357.73        31.06978
358.18        31.07741
358.63        31.01582
359.08        30.87176
359.53        30.65914
359.98        30.37397
360.43        30.01164
360.88        29.59294
361.33        29.13716
361.78        28.71946
362.23        28.46016
362.68        28.37726
363.13        28.42036
363.58        28.50774
364.03        28.51017
364.48        28.38228
364.93        28.15535
365.38        27.83322
365.83        27.43375
366.28        26.98764
366.73        26.50172
367.18        26.04271
367.63        25.71325
368.08        25.53194
368.53        25.47427
368.98        25.47702
369.43        25.43077
369.88        25.30641
370.33        25.13703
370.78        24.94593
371.23        24.77891
371.68        24.65431
372.13        24.54427
372.58        24.46872
373.03        24.46702
373.48         24.5295
373.93         24.6364
374.38         24.7106
374.83        24.63195
375.28        24.38104
375.72        23.98978
376.17        23.55715
376.62        23.20612
377.07        22.98326
377.52        22.85588
377.97        22.79903
378.42        22.76902
378.87        22.74264
379.32        22.73192
379.77        22.72031
380.22        22.67756
380.67        22.59975
381.11        22.49504
381.56        22.36759
382.01        22.25143
382.46        22.15475
382.91        22.05899
383.36        21.97754
383.81        21.92754
384.26        21.90587
384.71        21.91934
385.15        21.90234
385.60        21.75957
386.05        21.48454
386.50        21.11025
386.95        20.76155
387.40        20.63624
387.85         20.7614
388.29        21.05758
388.74        21.37619
389.19        21.49578
389.64        21.37136
390.09        21.06668
390.54        20.69932
390.98        20.45128
391.43        20.39303
391.88        20.45816
392.33        20.54989
392.78        20.53039
393.23        20.38048
393.67         20.1402
394.12         19.9336
394.57        19.86165
395.02        19.94339
395.47        20.14012
395.91        20.36419
396.36        20.44079
396.81        20.33583
397.26        20.09891
397.71          19.848
398.15        19.74235
398.60        19.83242
399.05        20.04642
399.50        20.26995
399.95        20.34087
400.39         20.2258
400.84        19.97199
401.29        19.68402
401.74        19.55117
402.18        19.63169
402.63        19.85788
403.08        20.10432
403.53        20.17106
403.97        20.01801
404.42        19.72534
404.87        19.41883
405.32        19.30253
405.76        19.42023
406.21        19.69492
406.66         20.0161
407.11        20.21488
407.55        20.24498
408.00        20.16409
408.45        20.02048
408.90        19.84698
409.34        19.69919
409.79         19.6595
410.24        19.69387
410.68        19.66696
411.13        19.57542
411.58         19.5035
412.03        19.46706
412.47        19.46118
412.92        19.48542
413.37        19.52867
413.81        19.60186
414.26        19.73951
414.71        19.93098
415.15        20.17003
415.60        20.36718
416.05        20.40788
416.49        20.26684
416.94        19.98296
417.39        19.65944
417.83        19.46376
418.28        19.44535
418.73        19.55318
419.17        19.70175
419.62        19.74393
420.07        19.65164
420.51        19.47818
420.96        19.29648
421.41        19.19571
421.85        19.19363
422.30        19.26584
422.74        19.37649
423.19        19.50941
423.64        19.64184
424.08        19.78908
424.53        19.91142
424.98        19.96982
425.42        19.95943
425.87        19.89235
426.31        19.79187
426.76        19.70651
427.21        19.64036
427.65        19.57347
428.10        19.53549
428.54        19.54575
428.99        19.60707
429.44        19.79939
429.88        19.99737
430.33        19.87337
430.77        19.49416
431.22        19.26172
431.66           19.24
432.11        19.30528
432.56        19.43568
433.00        19.71873
433.45        19.96088
433.89        19.87994
434.34        19.60586
434.78        19.33548
435.23         19.0525
435.67        20.01548
436.12        19.45813
436.57        19.43495
437.01        19.20321
437.46        19.12156
437.90        19.20546
438.35        19.28876
438.79        19.33212
439.24        19.36022
439.68        19.36356
440.13        19.18082
440.57        18.92442
441.02        19.08156
441.46        19.47316
441.91        19.50163
442.35        18.72287
442.80        18.45689
443.24        18.51742
443.69        18.49343
444.13          18.362
444.58        18.29456
445.02         18.2989
445.47        18.37474
445.91          18.481
446.36        18.50825
446.80         18.4349
447.24        18.31605
447.69        18.19094
448.13        18.08139
448.58        18.00957
449.02        17.96637
449.47        17.94145
449.91        17.90986
450.36        17.87258
450.80        17.83649
451.25        17.82201
451.69        17.83999
452.13        17.89573
452.58         17.9718
453.02        18.05551
453.47        18.13183
453.91        18.19427
454.36        18.24451
454.80         18.2694
455.24        18.24723
455.69        18.18565
456.13        18.07527
456.58        17.96587
457.02        17.92066
457.46        17.94738
457.91        17.98642
458.35        18.01049
458.79        18.02389
459.24        18.01392
459.68        17.98532
460.13        17.99751
460.57        17.97095
461.01        17.89271
461.46        18.24921
461.90        18.32283
462.34         18.1202
462.79        18.24358
463.23        18.08208
463.68        17.94143
464.12        17.84234
464.56        17.94259
465.01        18.10081
465.45        18.24968
465.89        18.31084
466.34        18.27493
466.78        18.10935
467.22        17.89915
467.67        17.90833
468.11        18.10892
468.55        18.13253
468.99        17.98658
469.44        17.97693
469.88        18.10815
470.32        18.19988
470.77        18.22597
471.21        18.23806
471.65        18.23387
472.10        18.19872
472.54         18.1533
472.98        18.17093
473.42        18.25822
473.87        18.34194
474.31        18.40281
474.75        18.52345
475.20        18.65784
475.64        18.61144
476.08        18.44561
476.52        18.41791
476.97        18.54472
477.41        18.70898
477.85        18.84806
478.29        18.91625
478.74        18.89862
479.18        18.77772
479.62        18.64541
480.06        18.64921
480.50        18.78934
480.95        18.93487
481.39        19.02525
481.83        19.05859
482.27        19.02317
482.72         18.9196
483.16        18.80906
483.60        18.77707
484.04        18.81818
484.48           19.04
484.93        19.46631
485.37        19.53573
485.81        19.37275
486.25        20.27573
486.69         20.4427
487.14         19.9401
487.58        19.84606
488.02        20.47824
488.46         20.2543
488.90        20.29793
489.34        20.05106
489.79        20.11586
490.23        20.45036
490.67        20.73759
491.11        20.89915
491.55        20.84979
491.99        20.64892
492.43        20.57863
492.88        20.67566
493.32        20.74252
493.76         20.7882
494.20        20.91895
494.64        21.13314
495.08        21.42336
495.52        21.73314
495.96        21.91508
496.41        21.99029
496.85        22.11079
497.29        22.28706
497.73        22.49301
498.17        22.69634
498.61        22.75739
499.05         22.7179
499.49        22.82804
499.93        23.10905
500.37        23.36283
500.82        23.55873
501.26        23.84195
501.70        24.14226
502.14        24.15008
502.58        23.93522
503.02        23.88241
503.46        24.02637
503.90        24.17386
504.34        24.27537
504.78        24.33195
505.22        24.33022
505.66        24.28339
506.10         24.2308
506.54        24.22939
506.98        24.29842
507.42        24.42465
507.86        24.58815
508.30        24.75614
508.74        24.91077
509.18        25.05003
509.62        25.18167
510.06        25.31834
510.50        25.46079
510.94        25.60825
511.38        25.72006
511.82        25.73399
512.26        25.64598
512.70        25.47688
513.14        25.31617
513.58        25.29979
514.02        25.44542
514.46        25.71418
514.90        25.99944
515.34        26.06331
515.78        25.90985
516.22        25.65814
516.66        25.43479
517.10        25.10851
517.54        24.72105
517.98         25.3078
518.42         25.2577
518.86        25.54232
519.30        25.65721
519.74        25.76903
520.18        25.85155
520.62        25.84048
521.06        25.75146
521.50        25.58838
521.93        25.39332
522.37        25.24701
522.81        25.17347
523.25        25.15744
523.69        25.18413
524.13         25.2262
524.57        25.26738
525.01        25.30889
525.45        25.34181
525.89        25.35082
526.32        25.33107
526.76        25.28848
527.20          25.216
527.64        25.11038
528.08        24.97769
528.52        24.81945
528.96        24.67492
529.40        24.60171
529.83        24.60515
530.27        24.67393
530.71        24.74231
531.15        24.70653
531.59         24.5502
532.03        24.31012
532.46        24.05897
532.90        23.93027
533.34        23.94427
533.78        24.05422
534.22        24.19745
534.66        24.27789
535.09         24.2633
535.53        24.19281
535.97        24.08644
536.41        23.97169
536.85        23.86574
537.28        23.77242
537.72        23.71298
538.16        23.65003
538.60        23.70208
539.04        23.76123
539.47        23.83326
539.91        23.93482
540.35        24.07215
540.79         24.0362
541.22        24.14229
541.66        24.22653
542.10        24.40324
542.54        24.27721
542.97        24.49159
543.41        24.59609
543.85        24.76501
544.29        24.93232
544.72         25.0708
545.16        25.21128
545.60        25.34317
546.04        25.38278
546.47        25.39661
546.91        25.64933
547.35        26.07569
547.79        26.34607
548.22        26.43205
548.66        26.46801
549.10        26.50908
549.53        26.72865
549.97        27.12664
550.41        27.20725
550.84        27.46309
551.28        27.62701
551.72        27.87202
552.15          28.126
552.59        28.38664
553.03        28.67692
553.46        28.95106
553.90        29.06807
554.34        29.18605
554.77        29.18791
555.21         29.1795
555.65        29.23321
556.08        29.36359
556.52        29.54281
556.96        29.73009
557.39        29.90238
557.83        30.03548
558.27        30.07144
558.70        30.04083
559.14        30.05281
559.57         30.1125
560.01        30.20389
560.45        30.30199
560.88        30.32538
561.32        30.32788
561.75        30.41337
562.19        30.67409
562.63        30.77884
563.06        30.76652
563.50        30.81738
563.93        30.93057
564.37        31.09046
564.80        31.15322
565.24         31.2855
565.68        31.42194
566.11        31.54695
566.55        31.67813
566.98        31.76346
567.42        31.79188
567.85        32.13639
568.29        31.99275
568.72        32.32011
569.16         32.7901
569.60        33.10455
570.03        33.22519
570.47        33.32334
570.90        33.25778
571.34        33.68208
571.77        33.52698
572.21        33.73544
572.64        33.96651
573.08         34.0957
573.51        34.27507
573.95        34.90792
574.38        35.05462
574.82        35.23598
