SpectraSmart Spectrum 2.9.0.0
--------- Device Information -----------
Spectrum Name :  反射率_0
Saving Time :  2024/04/20 00:58:09
Spectro-Module Model Name : SE2030-DUVN
Spectro-Module Serial Number : OS361AC55029948
Wavelength Start : 200
Wavelength End : 1025
Wavelength Unit : Wavelength(nm)
Spectrum Unit : Reflectance(%)
-----------Spectrum Setting ------------
Integration Time : 30ms
Average : 10
Boxcar : 0
Background removal :  enabled
linearity correction :  enabled
SC :  disabled
Intensity correction :  disabled
DWT denoise :  enabled
savitzky-golay :  disabled
FFT :  disabled
Running average :  disabled
Kalman :  disabled
High pass :  disabled
---------------BEGIN--------------------
Wavelength(nm)             Reflectance(%)
200.29               0
200.75        55.40023
201.21        56.82224
201.67        60.77325
202.13        66.50393
202.58        73.27976
203.04          81.581
203.50         88.7594
203.96        88.77702
204.42        82.17822
204.88        73.14782
205.34        65.42194
205.80        60.55329
206.26        57.58691
206.72        55.38842
207.18        53.61548
207.64         52.2527
208.10        51.82035
208.55         53.0817
209.01        54.44283
209.47        55.11432
209.93        55.05898
210.39        54.44192
210.85        53.62904
211.31        53.09957
211.77        52.90201
212.23        52.96661
212.69        53.21703
213.14        53.49357
213.60        53.38792
214.06         53.5159
214.52        53.99382
214.98        55.07623
215.44        56.75368
215.90        58.70906
216.36        61.12132
216.81        63.89227
217.27        66.35828
217.73        68.53944
218.19        69.07014
218.65        66.01149
219.11         59.1318
219.57        48.51154
220.02        36.49181
220.48        29.78479
220.94        30.80011
221.40        38.42311
221.86        48.35313
222.32        53.76511
222.77        52.86534
223.23        47.71655
223.69        41.57059
224.15        39.11977
224.61        40.66267
225.06        43.98243
225.52        46.58275
225.98        46.38729
226.44        43.38723
226.90        38.50758
227.36         33.3714
227.81        30.84994
228.27        31.91702
228.73        35.15555
229.19        38.76863
229.65        40.69932
230.10        40.75834
230.56        39.79991
231.02        38.66008
231.48        38.32643
231.93        38.89239
232.39        39.93336
232.85        40.97367
233.31        41.35768
233.77        40.92541
234.22        39.91305
234.68        38.69101
235.14        37.76219
235.60        37.34697
236.05        37.35829
236.51          37.597
236.97        37.73166
237.43        37.70973
237.88        37.73195
238.34        38.06928
238.80        39.52746
239.26        42.25986
239.71        45.69901
240.17        48.95203
240.63         51.4555
241.08        53.20747
241.54        54.34501
242.00        54.62464
242.46        53.48315
242.91        50.51873
243.37        44.75637
243.83        37.08525
244.28        33.95292
244.74        40.96675
245.20        56.42227
245.66        70.29866
246.11        74.51665
246.57        68.48348
247.03        52.01426
247.48        29.37058
247.94        23.22448
248.40        36.37909
248.85        52.94609
249.31        64.65504
249.77        69.31411
250.22        68.66035
250.68        64.58917
251.14        58.43108
251.59         53.4583
252.05        51.98754
252.51        53.41719
252.96        56.22845
253.42        57.74979
253.88        57.23509
254.33        55.84695
254.79        55.65611
255.25        58.37494
255.70        63.49483
256.16         69.5039
256.62        74.43333
257.07        76.19192
257.53         74.9698
257.99        71.69595
258.44        67.40901
258.90        64.25455
259.35        62.19947
259.81        61.16023
260.27        60.17857
260.72        58.40223
261.18        56.09026
261.63        53.21193
262.09        50.73058
262.55        49.48351
263.00        49.41217
263.46        50.16134
263.91        50.74257
264.37        50.25996
264.83        48.68718
265.28        46.39193
265.74        44.30419
266.19        43.28929
266.65        43.49195
267.11        44.40436
267.56         45.3952
268.02        45.55224
268.47        44.70854
268.93        43.19285
269.38        41.36978
269.84        40.04411
270.30        39.42212
270.75        39.27321
271.21        39.30591
271.66        39.08118
272.12        38.47163
272.57        37.62521
273.03        36.74528
273.48        36.04779
273.94         35.6353
274.39        35.38431
274.85        35.17196
275.31        34.79534
275.76        34.19464
276.22        33.45875
276.67        32.70359
277.13        32.20444
277.58        31.94256
278.04        31.86219
278.49        31.71777
278.95         31.2316
279.40        30.34962
279.86         29.2741
280.31        28.19011
280.77        27.49213
281.22        27.18126
281.68        27.15247
282.13        27.22318
282.59        27.16083
283.04        26.90051
283.50        26.56102
283.95        26.18341
284.41        25.86128
284.86        25.60544
285.32        25.39492
285.77        25.25491
286.22        25.29638
286.68        25.50307
287.13        25.80873
287.59        26.08226
288.04        26.10714
288.50        25.87144
288.95        25.41834
289.41        24.90011
289.86        24.47846
290.32        24.25628
290.77        24.18246
291.22         24.2264
291.68         24.3037
292.13        24.39473
292.59        24.53926
293.04        24.78372
293.50        25.21031
293.95        25.80812
294.40        26.52063
294.86        27.25134
295.31        27.86729
295.77        28.33786
296.22         28.7056
296.68        29.02356
297.13        29.36003
297.58        29.75294
298.04        30.18244
298.49        30.66173
298.95        31.24914
299.40        31.92185
299.85        32.65963
300.31         33.3722
300.76        33.91489
301.21        34.26218
301.67        34.48267
302.12        34.62731
302.58        34.83511
303.03        35.11683
303.48        35.44926
303.94        35.83774
304.39        36.24862
304.84        36.67257
305.30        37.11033
305.75        37.49887
306.20         37.7626
306.66        37.91033
307.11        37.94946
307.57           37.95
308.02        37.94838
308.47        37.98295
308.93        38.03086
309.38        38.09534
309.83        38.23025
310.29        38.42117
310.74        38.65127
311.19        38.80999
311.65        38.71993
312.10        38.35855
312.55        37.79327
313.00        37.18893
313.46         36.7986
313.91         36.6653
314.36        36.72862
314.82         36.8655
315.27        36.89465
315.72        36.74961
316.18        36.50072
316.63        36.20063
317.08        35.93688
317.53        35.73423
317.99         35.5484
318.44        35.37112
318.89        35.18667
319.35        34.98789
319.80        34.78853
320.25        34.57649
320.70        34.32879
321.16        34.03725
321.61        33.70727
322.06         33.3602
322.51        33.03747
322.97        32.74342
323.42        32.47745
323.87        32.20256
324.32        31.86195
324.78        31.44339
325.23        30.97952
325.68        30.51311
326.13        30.12135
326.59        29.82753
327.04        29.62736
327.49        29.48822
327.94        29.35882
328.39        29.21577
328.85         29.0525
329.30        28.90256
329.75        28.78043
330.20        28.68714
330.66        28.59088
331.11        28.48309
331.56        28.29955
332.01        28.02625
332.46        27.67981
332.92         27.2989
333.37        26.95552
333.82        26.67925
334.27        26.47095
334.72         26.3049
335.17        26.13363
335.63        25.93643
336.08        25.73001
336.53        25.56304
336.98        25.52445
337.43        25.62272
337.88        25.83098
338.34        26.00445
338.79        25.95402
339.24        25.62521
339.69        25.07009
340.14        24.49338
340.59        24.23998
341.05        24.37454
341.50        24.80025
341.95        25.27612
342.40        25.42727
342.85        25.17327
343.30        24.64339
343.75        24.03333
344.20        23.66289
344.66        23.61407
345.11        23.75159
345.56        23.96924
346.01        24.09676
346.46        24.06984
346.91        23.96607
347.36        23.75808
347.81        23.38958
348.26         22.8901
348.72        22.30555
349.17        21.76469
349.62        21.56386
350.07        21.75872
350.52        22.24617
350.97        22.84237
351.42        23.26836
351.87         23.4368
352.32        23.40993
352.77        23.23871
353.22        23.01465
353.67        22.78112
354.13        22.52667
354.58        22.24377
355.03        21.96193
355.48        21.70121
355.93        21.48628
356.38        21.33807
356.83         21.2733
357.28        21.28357
357.73        21.34232
358.18        21.42305
358.63        21.48466
359.08        21.50333
359.53        21.48697
359.98        21.39935
360.43        21.18996
360.88        20.86729
361.33        20.45463
361.78        20.05105
362.23        19.81911
362.68        19.78927
363.13        19.90583
363.58        20.06311
364.03        20.09341
364.48        19.95046
364.93        19.68378
365.38        19.34284
365.83        19.01764
366.28        18.74837
366.73        18.50842
367.18        18.30767
367.63        18.16129
368.08        18.06528
368.53         18.0252
368.98        18.00335
369.43        17.93166
369.88         17.7995
370.33        17.62572
370.78        17.45255
371.23         17.3579
371.68        17.36047
372.13        17.42599
372.58         17.5247
373.03        17.60867
373.48        17.64958
373.93        17.65498
374.38        17.60363
374.83          17.463
375.28        17.23718
375.72        16.93426
376.17         16.6244
376.62        16.37992
377.07         16.2317
377.52        16.16608
377.97        16.16724
378.42        16.20572
378.87        16.25735
379.32        16.31282
379.77        16.35896
380.22        16.37626
380.67        16.35827
381.11        16.31625
381.56        16.21693
382.01        16.02815
382.46        15.75814
382.91         15.4203
383.36        15.11256
383.81        14.97834
384.26        15.03708
384.71        15.25231
385.15        15.48035
385.60        15.49986
386.05        15.26931
386.50        14.85459
386.95        14.42226
387.40        14.23714
387.85        14.34894
388.29        14.66336
388.74        15.00243
389.19        15.11796
389.64         14.9624
390.09         14.6143
390.54        14.22285
390.98         14.0185
391.43        14.06686
391.88        14.27246
392.33        14.49242
392.78        14.52536
393.23         14.3431
393.67        14.01993
394.12        13.69529
394.57        13.50562
395.02        13.48178
395.47        13.57609
395.91        13.71665
396.36        13.76559
396.81        13.68944
397.26        13.52548
397.71        13.35558
398.15        13.28632
398.60        13.35101
399.05        13.50095
399.50        13.64026
399.95        13.63427
400.39        13.45805
400.84        13.14919
401.29        12.82156
401.74        12.68266
402.18        12.79088
402.63        13.07436
403.08        13.37936
403.53        13.46212
403.97        13.27437
404.42        12.90705
404.87        12.51075
405.32          12.331
405.76        12.42449
406.21        12.70063
406.66        13.03533
407.11        13.23838
407.55        13.25641
408.00        13.15399
408.45        12.98466
408.90        12.80843
409.34         12.6771
409.79         12.6263
410.24        12.63404
410.68        12.61596
411.13        12.56716
411.58        12.54858
412.03        12.54986
412.47        12.53053
412.92        12.48481
413.37        12.41266
413.81        12.36303
414.26        12.42582
414.71        12.60468
415.15        12.87979
415.60        13.13244
416.05        13.19135
416.49         13.0175
416.94        12.67029
417.39        12.28527
417.83        12.08256
418.28        12.12064
418.73        12.32392
419.17        12.57691
419.62        12.68553
420.07        12.60784
420.51          12.412
420.96        12.17722
421.41        12.00796
421.85        11.93463
422.30        11.92893
422.74        11.96574
423.19        12.03486
423.64        12.11761
424.08         12.2259
424.53        12.32694
424.98        12.38159
425.42        12.38031
425.87        12.33265
426.31         12.2489
426.76        12.15942
427.21        12.06714
427.65        11.95847
428.10        11.87105
428.54        11.84583
428.99        11.89184
429.44         12.0529
429.88        12.22786
430.33        12.17412
430.77        11.92846
431.22        11.74728
431.66        11.69936
432.11        11.75938
432.56         11.9238
433.00        12.23306
433.45        12.52242
433.89        12.53255
434.34         12.3194
434.78        12.03302
435.23        11.71684
435.67        12.21822
436.12        11.84154
436.57        11.84172
437.01        11.72904
437.46        11.67297
437.90        11.67062
438.35        11.63998
438.79        11.59043
439.24        11.58779
439.68        11.63441
440.13        11.60983
440.57        11.54365
441.02        11.67701
441.46        11.88705
441.91        11.82816
442.35        11.26084
442.80        11.02428
443.24        11.00771
443.69        10.95513
444.13        10.84513
444.58         10.7714
445.02        10.73509
445.47        10.74601
445.91        10.77707
446.36        10.75797
446.80        10.67682
447.24        10.56564
447.69        10.46347
448.13        10.40573
448.58        10.40717
449.02        10.45185
449.47        10.50713
449.91        10.51569
450.36        10.46929
450.80        10.38513
451.25        10.30095
451.69        10.26203
452.13        10.28295
452.58        10.33849
453.02        10.40942
453.47        10.46308
453.91        10.48996
454.36        10.49887
454.80        10.48587
455.24         10.4453
455.69        10.38669
456.13        10.30371
456.58        10.22715
457.02        10.19649
457.46        10.21727
457.91        10.25296
458.35        10.29094
458.79        10.33205
459.24         10.3675
459.68        10.39477
460.13        10.44332
460.57        10.45413
461.01          10.419
461.46        10.62094
461.90        10.64935
462.34        10.51195
462.79        10.56332
463.23        10.44989
463.68         10.3544
464.12        10.29222
464.56        10.35803
465.01        10.46661
465.45        10.57952
465.89        10.64886
466.34        10.66733
466.78        10.61613
467.22        10.53602
467.67        10.56965
468.11        10.69693
468.55        10.70146
468.99        10.60049
469.44        10.59543
469.88        10.69383
470.32        10.78395
470.77        10.83149
471.21        10.84018
471.65        10.80314
472.10        10.72464
472.54        10.63758
472.98        10.62304
473.42        10.69367
473.87        10.79249
474.31        10.88951
474.75        11.00194
475.20        11.09477
475.64        11.06175
476.08        10.95071
476.52        10.93253
476.97        11.02159
477.41        11.14361
477.85        11.25423
478.29        11.31527
478.74        11.31507
479.18        11.24614
479.62         11.1704
480.06        11.18777
480.50         11.2985
480.95        11.41681
481.39        11.49796
481.83        11.52797
482.27        11.50103
482.72        11.42895
483.16        11.34791
483.60        11.32399
484.04        11.36137
484.48        11.48258
484.93        11.74835
485.37         11.8938
485.81        11.91389
486.25        12.52011
486.69        12.90462
487.14        12.09825
487.58        12.19658
488.02        13.02107
488.46        12.52761
488.90         12.6539
489.34        12.59754
489.79        12.75934
490.23        13.05965
490.67         13.2536
491.11        13.32094
491.55        13.30132
491.99        13.22841
492.43        13.18038
492.88        13.18299
493.32        13.17183
493.76        13.18257
494.20        13.30746
494.64        13.55291
495.08        13.88167
495.52        14.22999
495.96        14.51004
496.41        14.69552
496.85        14.78101
497.29         14.8071
497.73        14.91402
498.17        15.09997
498.61         15.1944
499.05        15.20854
499.49        15.31606
499.93        15.52688
500.37        15.71143
500.82         15.8607
501.26         16.0907
501.70         16.3568
502.14        16.44081
502.58        16.37628
503.02        16.40737
503.46        16.55232
503.90        16.68308
504.34        16.76799
504.78        16.81221
505.22        16.81061
505.66         16.7734
506.10        16.73111
506.54        16.72867
506.98        16.78169
507.42        16.88015
507.86        17.01383
508.30        17.16406
508.74         17.3165
509.18        17.46725
509.62         17.6082
510.06         17.7271
510.50        17.82147
510.94        17.89776
511.38        17.94365
511.82        17.94304
512.26        17.89949
512.70        17.81696
513.14        17.74695
513.58        17.76656
514.02        17.87962
514.46        18.06451
514.90        18.24535
515.34        18.24354
515.78        18.05757
516.22        17.81848
516.66        17.63344
517.10        17.31823
517.54        16.90485
517.98        17.54946
518.42        17.48219
518.86         17.7859
519.30        17.90946
519.74        18.03405
520.18        18.12757
520.62         18.1169
521.06        18.01861
521.50        17.83503
521.93         17.6241
522.37        17.49228
522.81         17.4642
523.25        17.51475
523.69        17.59698
524.13        17.63362
524.57        17.60143
525.01        17.52075
525.45        17.41947
525.89        17.34155
526.32        17.29806
526.76        17.27551
527.20        17.24562
527.64        17.16946
528.08        17.04071
528.52        16.87456
528.96         16.7117
529.40        16.60998
529.83        16.58125
530.27        16.61342
530.71        16.65593
531.15        16.63006
531.59        16.52175
532.03        16.35518
532.46        16.19054
532.90        16.13748
533.34         16.2065
533.78         16.3558
534.22        16.51217
534.66        16.56474
535.09        16.48562
535.53        16.31933
535.97        16.11613
536.41        15.95255
536.85        15.85719
537.28        15.81786
537.72        15.82767
538.16        15.82497
538.60        15.87743
539.04        15.92405
539.47        15.97918
539.91        16.06869
540.35        16.20015
540.79         16.2242
541.22        16.34453
541.66        16.43852
542.10         16.5814
542.54        16.50933
542.97        16.66731
543.41        16.76129
543.85        16.91322
544.29        17.07602
544.72        17.22442
545.16        17.36973
545.60        17.50279
546.04          17.567
546.47        17.61595
546.91        17.84661
547.35        18.21376
547.79        18.48049
548.22        18.61036
548.66        18.67369
549.10        18.70845
549.53        18.84698
549.97        19.10615
550.41         19.1618
550.84        19.36931
551.28        19.53372
551.72        19.76959
552.15        20.02222
552.59         20.2837
553.03        20.55538
553.46        20.79628
553.90        20.96533
554.34        21.05671
554.77        21.08473
555.21        21.09464
555.65        21.14801
556.08        21.25793
556.52        21.40542
556.96        21.56685
557.39        21.73216
557.83        21.88301
558.27        21.97234
558.70        22.01203
559.14        22.06382
559.57        22.12849
560.01        22.20172
560.45        22.26955
560.88         22.2821
561.32        22.28605
561.75        22.34682
562.19        22.54174
562.63        22.66345
563.06         22.7288
563.50        22.81474
563.93        22.92012
564.37         23.0722
564.80        23.16453
565.24        23.29863
565.68        23.41511
566.11        23.50745
566.55         23.5939
566.98        23.61022
567.42        23.58243
567.85        23.90839
568.29        23.94714
568.72        24.27633
569.16         24.6452
569.60        24.91889
570.03        25.05933
570.47        25.18526
570.90        25.20001
571.34        25.44057
571.77        25.30347
572.21        25.56687
572.64        25.97451
573.08        26.03384
573.51        26.18282
573.95        26.77601
574.38        26.90722
574.82        27.06324
