SpectraSmart Spectrum 2.9.0.0
--------- Device Information -----------
Spectrum Name :  反射率_0
Saving Time :  2024/04/20 00:31:46
Spectro-Module Model Name : SE2030-DUVN
Spectro-Module Serial Number : OS361AC55029948
Wavelength Start : 200
Wavelength End : 1025
Wavelength Unit : Wavelength(nm)
Spectrum Unit : Reflectance(%)
-----------Spectrum Setting ------------
Integration Time : 30ms
Average : 10
Boxcar : 0
Background removal :  enabled
linearity correction :  enabled
SC :  disabled
Intensity correction :  disabled
DWT denoise :  enabled
savitzky-golay :  disabled
FFT :  disabled
Running average :  disabled
Kalman :  disabled
High pass :  disabled
---------------BEGIN--------------------
Wavelength(nm)             Reflectance(%)
200.29               0
200.75        61.56585
201.21        60.93262
201.67        61.67616
202.13        64.44963
202.58        69.46337
203.04        76.83881
203.50        84.37065
203.96        86.29738
204.42         82.1627
204.88        75.56603
205.34        69.40949
205.80        64.74869
206.26        60.77818
206.72        56.21321
207.18        50.74113
207.64          46.783
208.10        47.31915
208.55         51.9768
209.01        57.25588
209.47        60.71485
209.93        62.19804
210.39        62.51247
210.85        61.74268
211.31        59.84867
211.77        56.76384
212.23        51.94765
212.69        46.31491
213.14        44.49102
213.60        47.66003
214.06        53.29054
214.52         58.2995
214.98        61.22479
215.44        62.50268
215.90        62.58899
216.36        62.17698
216.81        62.61771
217.27        64.14471
217.73        66.28187
218.19        67.41702
218.65        65.34977
219.11        59.64275
219.57        50.49636
220.02        39.90751
220.48        33.64775
220.94        33.82404
221.40        39.72697
221.86        47.38844
222.32           50.52
222.77        47.78135
223.23        41.21206
223.69        35.00088
224.15        34.98531
224.61        40.63545
225.06        48.44746
225.52          54.721
225.98        56.34036
226.44        53.45312
226.90         47.5812
227.36        40.64249
227.81        36.15467
228.27        35.60989
228.73        37.50899
229.19        40.53544
229.65        43.16196
230.10        44.92309
230.56        46.28675
231.02        47.28172
231.48        47.89286
231.93        48.16499
232.39        48.09239
232.85        47.75049
233.31        47.34443
233.77        46.96723
234.22        46.62144
234.68        46.39893
235.14        46.31855
235.60        46.39637
236.05        46.63878
236.51        47.06995
236.97        47.72393
237.43        48.69114
237.88        50.24775
238.34        52.18153
238.80        53.97821
239.26        55.04737
239.71        55.13327
240.17         54.7827
240.63        55.53442
241.08        57.80522
241.54        61.27674
242.00        64.58165
242.46        65.12532
242.91        61.68642
243.37        53.18563
243.83        40.47798
244.28        32.57465
244.74         38.2304
245.20        55.60226
245.66        72.52147
246.11         78.5335
246.57        72.75845
247.03          55.803
247.48        31.94047
247.94        24.42477
248.40        36.99745
248.85        53.35181
249.31        65.26823
249.77        70.77009
250.22        71.56714
250.68        69.59637
251.14        65.97808
251.59        63.05573
252.05        62.41962
252.51        63.51629
252.96        64.96193
253.42        64.65635
253.88        62.32846
254.33        59.22453
254.79        57.65264
255.25        59.41863
255.70        63.98826
256.16        69.88036
256.62        74.99691
257.07        77.07108
257.53        76.26482
257.99        73.50307
258.44        69.87801
258.90        67.55576
259.35        66.34406
259.81        66.08339
260.27        65.74205
260.72        64.45686
261.18        62.56758
261.63        60.04117
262.09        57.91685
262.55        57.07151
263.00        57.40185
263.46         58.5419
263.91        59.38808
264.37        58.97832
264.83        57.29001
265.28         54.7343
265.74         52.3716
266.19        51.19461
266.65         51.3825
267.11        52.37484
267.56         53.4353
268.02        53.52174
268.47        52.44245
268.93        50.57829
269.38         48.4012
269.84        46.90149
270.30        46.32581
270.75        46.36515
271.21        46.61256
271.66        46.45168
272.12        45.71667
272.57        44.61477
273.03        43.40817
273.48        42.39814
273.94        41.73416
274.39        41.26521
274.85        40.88816
275.31        40.41557
275.76        39.77713
276.22        39.06125
276.67        38.34127
277.13        37.83875
277.58        37.51492
278.04        37.33271
278.49        37.06134
278.95        36.46613
279.40        35.49224
279.86        34.33374
280.31        33.15788
280.77        32.35011
281.22        31.90417
281.68        31.73296
282.13        31.65185
282.59         31.4359
283.04        31.02119
283.50        30.52871
283.95        30.01381
284.41        29.59817
284.86        29.29086
285.32         29.0707
285.77        28.92574
286.22        28.91497
286.68        29.01955
287.13        29.18703
287.59        29.34135
288.04        29.33811
288.50        29.17472
288.95        28.86266
289.41        28.49423
289.86        28.13436
290.32         27.8664
290.77         27.6701
291.22        27.57103
291.68        27.56811
292.13        27.66189
292.59        27.87294
293.04        28.21129
293.50        28.70518
293.95        29.33303
294.40        30.06212
294.86        30.83155
295.31        31.56221
295.77        32.22943
296.22        32.84416
296.68        33.42428
297.13         33.9831
297.58        34.53967
298.04        35.09863
298.49         35.6683
298.95         36.3035
299.40        36.99462
299.85        37.72599
300.31        38.47092
300.76        39.17651
301.21        39.82284
301.67        40.44244
302.12        40.99032
302.58        41.47426
303.03        41.87353
303.48        42.20981
303.94        42.55961
304.39        42.99459
304.84        43.53463
305.30        44.14643
305.75        44.71933
306.20         45.1121
306.66        45.31966
307.11        45.37258
307.57        45.37634
308.02        45.40638
308.47        45.51361
308.93        45.66048
309.38        45.82688
309.83        46.04023
310.29         46.2842
310.74        46.55667
311.19        46.76011
311.65        46.73457
312.10        46.45823
312.55        45.98361
313.00         45.4851
313.46        45.23278
313.91        45.26451
314.36        45.51678
314.82         45.8129
315.27        45.88704
315.72         45.6599
316.18        45.23339
316.63         44.7424
317.08        44.40653
317.53        44.27859
317.99        44.27752
318.44        44.31929
318.89        44.25723
319.35        44.04948
319.80        43.75309
320.25        43.42242
320.70        43.14054
321.16        42.92909
321.61         42.7626
322.06        42.61328
322.51        42.44597
322.97        42.23915
323.42         42.0144
323.87        41.77134
324.32        41.51459
324.78        41.24022
325.23        40.95834
325.68        40.65913
326.13        40.33759
326.59        39.99864
327.04        39.67687
327.49        39.38757
327.94        39.15921
328.39        38.99481
328.85        38.85801
329.30        38.78482
329.75        38.77157
330.20        38.80218
330.66        38.85021
331.11        38.86621
331.56        38.71161
332.01        38.36515
332.46        37.86382
332.92        37.31602
333.37        36.93076
333.82        36.77445
334.27        36.81984
334.72        36.97824
335.17        37.08709
335.63        37.07726
336.08        36.99022
336.53        36.90618
336.98        36.97934
337.43        37.23015
337.88        37.60087
338.34        37.89731
338.79        37.86098
339.24        37.43003
339.69            36.7
340.14        35.93368
340.59        35.56875
341.05        35.70209
341.50         36.2015
341.95         36.8144
342.40        37.14849
342.85        37.10038
343.30        36.79943
343.75        36.37802
344.20        36.05175
344.66        35.89252
345.11         35.8049
345.56        35.77374
346.01        35.77971
346.46        35.79794
346.91        35.85688
347.36        35.88124
347.81        35.73862
348.26        35.42455
348.72        35.00201
349.17        34.57611
349.62        34.39902
350.07        34.52378
350.52        34.85792
350.97        35.27132
351.42        35.57055
351.87        35.69049
352.32        35.67821
352.77        35.55186
353.22        35.34442
353.67         35.0848
354.13        34.78201
354.58        34.45046
355.03        34.16011
355.48        33.93428
355.93        33.77317
356.38        33.67099
356.83        33.60619
357.28        33.56108
357.73        33.52779
358.18        33.48544
358.63        33.40409
359.08         33.2725
359.53        33.09565
359.98        32.87138
360.43        32.59812
360.88        32.28572
361.33        31.94371
361.78         31.6083
362.23         31.3393
362.68        31.14947
363.13        31.01709
363.58        30.90893
364.03        30.76914
364.48        30.57509
364.93        30.33914
365.38        30.05538
365.83        29.72167
366.28        29.35122
366.73        28.95014
367.18        28.56096
367.63        28.24837
368.08        28.02503
368.53        27.87783
368.98        27.76195
369.43         27.6001
369.88        27.37485
370.33        27.11056
370.78        26.84122
371.23         26.6288
371.68        26.49216
372.13        26.40306
372.58        26.35012
373.03        26.31798
373.48        26.28716
373.93        26.25509
374.38        26.18753
374.83        26.02917
375.28        25.77576
375.72        25.44248
376.17        25.09234
376.62        24.78942
377.07        24.56413
377.52        24.39865
377.97        24.30202
378.42        24.28344
378.87        24.32518
379.32        24.41364
379.77        24.48785
380.22        24.45509
380.67        24.29708
381.11        24.04061
381.56        23.72735
382.01        23.45569
382.46        23.25808
382.91         23.1067
383.36        22.98547
383.81        22.86258
384.26        22.72765
384.71        22.60679
385.15        22.47657
385.60        22.30458
386.05        22.09023
386.50        21.83728
386.95        21.61758
387.40        21.54682
387.85         21.6364
388.29        21.84109
388.74        22.05074
389.19        22.09671
389.64        21.94808
390.09        21.64545
390.54        21.30684
390.98        21.11613
391.43        21.13096
391.88        21.27885
392.33        21.42571
392.78        21.37845
393.23        21.11893
393.67        20.71564
394.12        20.33453
394.57        20.13092
395.02        20.13564
395.47        20.29196
395.91        20.50678
396.36        20.59455
396.81        20.51176
397.26        20.31128
397.71        20.09033
398.15        19.97653
398.60        20.01805
399.05        20.15184
399.50        20.28963
399.95        20.30859
400.39        20.18322
400.84        19.95051
401.29        19.69558
401.74        19.57282
402.18         19.6299
402.63        19.80961
403.08        20.00556
403.53        20.04618
403.97        19.89611
404.42        19.62397
404.87        19.33623
405.32        19.20766
405.76        19.27609
406.21        19.47658
406.66         19.7165
407.11        19.85262
407.55        19.84735
408.00        19.75338
408.45        19.61139
408.90        19.44179
409.34         19.2946
409.79        19.25172
410.24        19.28686
410.68        19.27859
411.13        19.22182
411.58        19.19144
412.03        19.18382
412.47        19.16355
412.92        19.12519
413.37        19.07133
413.81        19.03489
414.26         19.0826
414.71        19.21456
415.15        19.41785
415.60         19.6001
416.05        19.63913
416.49        19.50586
416.94        19.24355
417.39        18.94934
417.83        18.77966
418.28        18.78124
418.73        18.90248
419.17        19.06508
419.62        19.13592
420.07        19.08722
420.51        18.96402
420.96        18.82815
421.41        18.75254
421.85        18.75101
422.30        18.80602
422.74        18.88657
423.19        18.98189
423.64         19.0738
424.08         19.1779
424.53        19.26191
424.98        19.29991
425.42        19.28989
425.87        19.23902
426.31        19.16439
426.76        19.10382
427.21        19.05733
427.65        19.00936
428.10        18.98147
428.54        18.98047
428.99        19.01195
429.44        19.16043
429.88        19.32493
430.33        19.21843
430.77        18.90662
431.22        18.76441
431.66        18.83797
432.11         18.9803
432.56        19.15858
433.00        19.46389
433.45        19.70297
433.89        19.59826
434.34        19.28555
434.78        18.96107
435.23         18.6187
435.67        19.51744
436.12        18.92832
436.57        18.87966
437.01        18.64626
437.46        18.58784
437.90        18.71763
438.35        18.87074
438.79        18.98216
439.24        19.03395
439.68        19.00981
440.13        18.76312
440.57        18.43829
441.02        18.56308
441.46        18.97318
441.91        19.06749
442.35        18.37724
442.80        18.15197
443.24        18.20339
443.69        18.14422
444.13        17.96535
444.58        17.85559
445.02        17.83185
445.47        17.88737
445.91        17.98653
446.36        18.03047
446.80        17.99626
447.24        17.93456
447.69        17.86953
448.13        17.79962
448.58        17.74048
449.02        17.68694
449.47        17.63824
449.91        17.58718
450.36        17.53924
450.80         17.4957
451.25         17.4699
451.69        17.46194
452.13        17.47614
452.58        17.50242
453.02        17.53525
453.47         17.5681
453.91        17.59804
454.36        17.62498
454.80        17.63661
455.24        17.61258
455.69        17.55921
456.13        17.46618
456.58        17.37785
457.02        17.35002
457.46        17.38809
457.91         17.4341
458.35        17.46207
458.79        17.47732
459.24         17.4684
459.68        17.43972
460.13         17.4489
460.57        17.41892
461.01         17.3372
461.46        17.67352
461.90        17.73522
462.34        17.53186
462.79        17.64673
463.23        17.49005
463.68        17.35023
464.12        17.23503
464.56        17.29754
465.01         17.4063
465.45        17.51369
465.89        17.56721
466.34        17.55946
466.78          17.451
467.22        17.30297
467.67        17.33726
468.11        17.51815
468.55        17.49806
468.99        17.30492
469.44        17.26603
469.88        17.39364
470.32        17.50454
470.77        17.55721
471.21        17.57622
471.65         17.5525
472.10        17.48053
472.54        17.39328
472.98        17.38125
473.42        17.45704
473.87        17.54581
474.31         17.6174
474.75        17.73315
475.20          17.846
475.64        17.77534
476.08        17.59584
476.52        17.57709
476.97         17.7368
477.41        17.95287
477.85        18.14369
478.29        18.23045
478.74        18.19073
479.18        18.02124
479.62        17.82809
480.06        17.77875
480.50        17.88198
480.95        18.00592
481.39        18.09079
481.83        18.12994
482.27         18.1091
482.72         18.0302
483.16        17.94099
483.60        17.91488
484.04        17.95313
484.48        18.11409
484.93        18.43085
485.37        18.47607
485.81        18.38889
486.25        18.96276
486.69        19.56466
487.14         18.8569
487.58        18.49233
488.02        19.48762
488.46         18.9559
488.90        19.21604
489.34        19.16036
489.79         19.3039
490.23        19.56249
490.67        19.62502
491.11        19.53665
491.55        19.49535
491.99        19.52215
492.43        19.51614
492.88        19.48823
493.32        19.48933
493.76        19.54873
494.20        19.67901
494.64        19.88015
495.08        20.16673
495.52        20.47416
495.96        20.65208
496.41        20.71315
496.85        20.78445
497.29        20.89231
497.73        21.05581
498.17        21.25081
498.61        21.32879
499.05        21.31211
499.49         21.4131
499.93        21.64574
500.37        21.83286
500.82        21.96274
501.26        22.19624
501.70        22.47323
502.14         22.4965
502.58        22.31911
503.02        22.28096
503.46        22.40934
503.90        22.53137
504.34        22.60439
504.78        22.63474
505.22        22.61301
505.66        22.54808
506.10        22.48206
506.54        22.47805
506.98         22.5532
507.42        22.69075
507.86        22.85896
508.30        23.00517
508.74        23.10909
509.18        23.17863
509.62        23.23206
510.06        23.29885
510.50        23.38723
510.94        23.49187
511.38         23.5803
511.82        23.60226
512.26        23.55209
512.70        23.44643
513.14        23.35004
513.58        23.35957
514.02        23.48455
514.46        23.69532
514.90        23.91177
515.34        23.94357
515.78        23.79996
516.22        23.59316
516.66        23.42625
517.10        23.12421
517.54        22.71911
517.98        23.28904
518.42        23.19527
518.86        23.45879
519.30        23.56964
519.74        23.69118
520.18        23.79285
520.62        23.80407
521.06         23.7375
521.50          23.598
521.93        23.42539
522.37        23.29633
522.81        23.23242
523.25        23.21693
523.69        23.23519
524.13        23.26115
524.57        23.28028
525.01        23.29614
525.45        23.29996
525.89         23.2765
526.32        23.22229
526.76        23.14292
527.20        23.04006
527.64        22.92335
528.08        22.79988
528.52        22.66825
528.96        22.55033
529.40        22.47594
529.83        22.44797
530.27        22.46579
530.71        22.48739
531.15        22.44656
531.59        22.33455
532.03        22.17276
532.46          22.015
532.90         21.9649
533.34        22.03049
533.78        22.17051
534.22        22.32354
534.66        22.39591
535.09        22.36024
535.53         22.2578
535.97        22.11301
536.41        21.96168
536.85        21.82548
537.28        21.70598
537.72        21.63424
538.16        21.59237
538.60        21.68697
539.04        21.81252
539.47         21.9457
539.91        22.05806
540.35        22.14766
540.79        22.03563
541.22         22.0416
541.66        22.06318
542.10         22.2168
542.54        22.12765
542.97        22.36071
543.41        22.47226
543.85        22.61242
544.29        22.73439
544.72        22.82616
545.16         22.9337
545.60        23.05473
546.04        23.10651
546.47        23.14505
546.91        23.41409
547.35        23.85081
547.79        24.12725
548.22        24.21901
548.66        24.30303
549.10        24.40384
549.53        24.56853
549.97        24.81054
550.41        24.80247
550.84        25.00823
551.28        25.11452
551.72        25.28534
552.15        25.50646
552.59        25.77744
553.03        26.08698
553.46        26.36505
553.90        26.53297
554.34        26.57626
554.77        26.52267
555.21        26.44732
555.65        26.45756
556.08        26.57591
556.52        26.76648
556.96        26.97789
557.39        27.16385
557.83        27.29398
558.27        27.32112
558.70        27.27948
559.14        27.27746
559.57        27.32332
560.01        27.40004
560.45        27.47677
560.88        27.47304
561.32         27.4397
561.75        27.46154
562.19         27.6399
562.63        27.73697
563.06        27.77502
563.50        27.83119
563.93        27.90524
564.37        28.04931
564.80        28.13294
565.24        28.26504
565.68        28.38386
566.11         28.4927
566.55        28.60813
566.98        28.67443
567.42        28.68684
567.85        29.00381
568.29        28.88173
568.72         29.1972
569.16        29.64232
569.60        29.93941
570.03        30.04091
570.47        30.12535
570.90        30.09308
571.34         30.4688
571.77        30.26492
572.21        30.72835
572.64         30.9686
573.08        31.00761
573.51        31.09587
573.95         31.7355
574.38        31.80154
574.82        32.09796
