SpectraSmart Spectrum 2.9.0.0
--------- Device Information -----------
Spectrum Name :  反射率_0
Saving Time :  2024/04/20 00:46:30
Spectro-Module Model Name : SE2030-DUVN
Spectro-Module Serial Number : OS361AC55029948
Wavelength Start : 200
Wavelength End : 1025
Wavelength Unit : Wavelength(nm)
Spectrum Unit : Reflectance(%)
-----------Spectrum Setting ------------
Integration Time : 30ms
Average : 10
Boxcar : 0
Background removal :  enabled
linearity correction :  enabled
SC :  disabled
Intensity correction :  disabled
DWT denoise :  enabled
savitzky-golay :  disabled
FFT :  disabled
Running average :  disabled
Kalman :  disabled
High pass :  disabled
---------------BEGIN--------------------
Wavelength(nm)             Reflectance(%)
200.29               0
200.75        54.33933
201.21        53.90014
201.67         55.3302
202.13        59.44053
202.58        66.54339
203.04        76.76891
203.50        87.45177
203.96        91.54548
204.42        88.03434
204.88        80.99086
205.34        74.30726
205.80        69.88043
206.26        67.05875
206.72        64.69878
207.18        62.64656
207.64         61.6881
208.10        62.65091
208.55        65.62634
209.01        68.33289
209.47        69.50056
209.93        69.24469
210.39        68.09093
210.85        66.41019
211.31        64.54426
211.77        62.43354
212.23        59.63605
212.69        56.68886
213.14        56.15557
213.60        58.30671
214.06        61.87661
214.52        64.96275
214.98        66.68816
215.44        67.31839
215.90        66.97286
216.36        66.33985
216.81        66.86007
217.27        68.75134
217.73         71.5817
218.19        73.46037
218.65        71.77248
219.11        66.10169
219.57        56.80669
220.02        46.26569
220.48        41.02346
220.94        43.35884
221.40        52.02192
221.86        62.68899
222.32        68.64423
222.77        68.26082
223.23        63.78261
223.69        58.50602
224.15        57.12453
224.61        59.81934
225.06        64.11855
225.52        67.92066
225.98         69.5417
226.44        69.01167
226.90        67.21012
227.36        64.93915
227.81        63.45732
228.27        63.45479
228.73        64.22232
229.19        65.26625
229.65        66.05711
230.10        66.40856
230.56        66.60825
231.02         66.6459
231.48        66.53056
231.93        66.24529
232.39        65.81465
232.85        65.24193
233.31        64.61404
233.77         63.9638
234.22        63.29147
234.68        62.62651
235.14        61.91467
235.60        61.21915
236.05        60.65439
236.51        60.28667
236.97        60.17901
237.43        60.36793
237.88        60.96117
238.34        61.93764
238.80        63.59373
239.26        65.69762
239.71        67.91084
240.17         69.3511
240.63        69.44854
241.08        68.27431
241.54        65.97768
242.00        62.89661
242.46        59.35899
242.91        55.28978
243.37        49.85358
243.83        43.70923
244.28        41.54427
244.74        47.36737
245.20        59.72594
245.66        71.10061
246.11        75.84835
246.57        73.66272
247.03        64.63978
247.48        50.33091
247.94        43.46198
248.40        47.67308
248.85        54.97673
249.31        60.60203
249.77        63.14351
250.22        63.29557
250.68        62.05216
251.14        60.09535
251.59        58.78745
252.05        59.14839
252.51        60.96667
252.96        63.04114
253.42        63.52911
253.88        62.23918
254.33        60.12367
254.79        59.44118
255.25        62.14147
255.70        67.67603
256.16        74.44992
256.62        80.44851
257.07        83.49883
257.53        83.67136
257.99        81.80009
258.44        78.52486
258.90        75.56709
259.35        73.07143
259.81        71.46797
260.27        70.08138
260.72        68.30969
261.18        66.40333
261.63        64.08439
262.09        62.28476
262.55        61.72152
263.00        62.21295
263.46        63.46267
263.91         64.2792
264.37        63.62348
264.83        61.50635
265.28        58.39707
265.74         55.5285
266.19        54.11258
266.65        54.35304
267.11        55.59758
267.56        56.96424
268.02        57.21819
268.47        56.12622
268.93        54.13015
269.38        51.79383
269.84        50.26228
270.30        49.81896
270.75         50.0905
271.21        50.57917
271.66          50.539
272.12        49.78054
272.57        48.55774
273.03        47.20287
273.48        46.11752
273.94        45.47941
274.39        45.09501
274.85        44.81732
275.31        44.39291
275.76         43.7305
276.22        42.93939
276.67        42.11614
277.13        41.52381
277.58        41.12881
278.04        40.89168
278.49        40.54793
278.95        39.82402
279.40        38.66942
279.86        37.31485
280.31        35.97587
280.77        35.11434
281.22        34.72197
281.68        34.66985
282.13        34.73035
282.59        34.62282
283.04        34.25637
283.50        33.77378
283.95        33.20545
284.41        32.64527
284.86         32.1101
285.32        31.59619
285.77        31.16357
286.22        30.98798
286.68         31.0691
287.13          31.314
287.59        31.56962
288.04        31.56949
288.50        31.29034
288.95         30.7859
289.41        30.20179
289.86        29.68696
290.32        29.34911
290.77         29.1316
291.22        29.04031
291.68         29.0481
292.13        29.13783
292.59        29.33776
293.04        29.63678
293.50        30.03061
293.95        30.49536
294.40        31.00924
294.86        31.54551
295.31        32.07896
295.77        32.60417
296.22        33.12893
296.68        33.65073
297.13        34.14591
297.58         34.6249
298.04        35.09937
298.49        35.61031
298.95         36.2634
299.40        37.04721
299.85        37.91764
300.31        38.78527
300.76        39.50328
301.21        40.04364
301.67        40.48745
302.12        40.85125
302.58        41.23198
303.03        41.63576
303.48        42.05412
303.94        42.55607
304.39        43.20155
304.84        43.98874
305.30        44.87602
305.75        45.70556
306.20         46.2647
306.66        46.53379
307.11        46.56088
307.57        46.49122
308.02        46.46423
308.47        46.55413
308.93        46.71259
309.38        46.90856
309.83        47.15211
310.29        47.41982
310.74        47.71267
311.19        47.94279
311.65          47.961
312.10        47.74374
312.55         47.3401
313.00        46.89333
313.46         46.6273
313.91        46.57673
314.36        46.69413
314.82        46.85896
315.27        46.89875
315.72        46.75103
316.18        46.48333
316.63        46.16522
317.08        45.91767
317.53        45.76791
317.99        45.66338
318.44        45.55627
318.89        45.36158
319.35        45.05897
319.80        44.68554
320.25         44.2824
320.70        43.91326
321.16        43.59179
321.61        43.30265
322.06        43.02172
322.51        42.71518
322.97        42.36505
323.42        41.99576
323.87        41.60611
324.32        41.19917
324.78        40.77549
325.23        40.35017
325.68        39.93119
326.13        39.54173
326.59        39.19076
327.04        38.89997
327.49        38.66046
327.94        38.46186
328.39        38.29115
328.85        38.11646
329.30        37.97614
329.75        37.87729
330.20        37.81159
330.66        37.75238
331.11        37.65574
331.56         37.3915
332.01        36.94242
332.46        36.34786
332.92        35.72005
333.37        35.27021
333.82         35.0618
334.27        35.05966
334.72        35.16729
335.17        35.20927
335.63        35.11303
336.08        34.92864
336.53        34.72765
336.98        34.64824
337.43        34.71952
337.88        34.89593
338.34        35.03046
338.79        34.93971
339.24        34.56891
339.69        33.97607
340.14        33.36974
340.59        33.09437
341.05        33.21458
341.50         33.6336
341.95         34.0973
342.40        34.21105
342.85        33.89395
343.30        33.28336
343.75        32.59877
344.20        32.19869
344.66        32.17539
345.11        32.38274
345.56        32.69268
346.01        32.89926
346.46        32.92526
346.91        32.85367
347.36        32.66962
347.81        32.33775
348.26        31.89031
348.72        31.36216
349.17        30.86367
349.62        30.66084
350.07        30.80272
350.52        31.19683
350.97        31.68591
351.42        32.02844
351.87        32.14661
352.32        32.09728
352.77         31.9088
353.22        31.63483
353.67        31.31602
354.13        30.95967
354.58        30.59091
355.03        30.29288
355.48        30.09342
355.93        29.99294
356.38        29.97702
356.83        30.01014
357.28        30.06379
357.73        30.12012
358.18        30.16135
358.63          30.163
359.08        30.11216
359.53        30.01877
359.98        29.84494
360.43        29.53708
360.88        29.10701
361.33        28.58094
361.78          28.085
362.23        27.82269
362.68        27.82583
363.13        28.02145
363.58        28.25112
364.03        28.26589
364.48        28.00321
364.93        27.53669
365.38        26.96789
365.83        26.47778
366.28        26.13605
366.73        25.89149
367.18        25.71935
367.63        25.57881
368.08        25.44735
368.53        25.34713
368.98        25.25654
369.43        25.12947
369.88        24.96064
370.33        24.76041
370.78         24.5549
371.23        24.39865
371.68        24.30886
372.13        24.26309
372.58        24.26173
373.03        24.30497
373.48        24.37241
373.93        24.44983
374.38         24.4826
374.83        24.38854
375.28        24.15611
375.72        23.80716
376.17        23.41795
376.62        23.07332
377.07        22.81587
377.52        22.63282
377.97        22.52693
378.42        22.49592
378.87        22.52293
379.32        22.59665
379.77        22.68483
380.22        22.73717
380.67         22.7364
381.11        22.69299
381.56         22.5889
382.01        22.42264
382.46        22.20282
382.91        21.92966
383.36        21.65752
383.81        21.46552
384.26        21.36887
384.71         21.3611
385.15        21.36176
385.60        21.24767
386.05        21.00036
386.50        20.65961
386.95         20.3442
387.40        20.24146
387.85        20.37698
388.29        20.67147
388.74        20.98384
389.19          21.108
389.64        21.00154
390.09        20.72202
390.54        20.38304
390.98        20.15982
391.43        20.11766
391.88        20.19104
392.33        20.27789
392.78        20.23259
393.23        20.03841
393.67        19.74218
394.12        19.47585
394.57        19.35125
395.02        19.38932
395.47        19.54758
395.91        19.74027
396.36        19.79665
396.81        19.68301
397.26        19.44976
397.71        19.20489
398.15        19.09222
398.60        19.16002
399.05        19.34124
399.50        19.53433
399.95        19.59692
400.39        19.49717
400.84        19.27337
401.29        19.01612
401.74        18.89044
402.18        18.94675
402.63        19.12655
403.08        19.31185
403.53        19.31352
403.97        19.09748
404.42        18.74201
404.87        18.38072
405.32         18.2299
405.76        18.33516
406.21         18.6168
406.66        18.95233
407.11        19.15249
407.55          19.166
408.00        19.05519
408.45        18.87732
408.90        18.68637
409.34        18.54068
409.79        18.50572
410.24        18.54292
410.68        18.51634
411.13        18.41798
411.58        18.33156
412.03        18.26242
412.47        18.19029
412.92        18.11715
413.37        18.04055
413.81        17.99586
414.26        18.05296
414.71        18.20932
415.15        18.45032
415.60        18.66945
416.05        18.71993
416.49        18.56673
416.94        18.25873
417.39        17.90959
417.83          17.704
418.28        17.69584
418.73         17.8253
419.17        18.00041
419.62        18.06611
420.07        17.98866
420.51        17.81954
420.96        17.63056
421.41        17.51061
421.85        17.47822
422.30        17.51121
422.74        17.56771
423.19        17.61872
423.64        17.64301
424.08        17.66013
424.53        17.65688
424.98        17.64015
425.42        17.61729
425.87        17.58744
426.31        17.54199
426.76         17.4784
427.21        17.38749
427.65        17.26406
428.10        17.15512
428.54        17.11341
428.99        17.15377
429.44        17.33505
429.88        17.53446
430.33        17.44514
430.77        17.12087
431.22        16.91993
431.66         16.9067
432.11        16.98535
432.56        17.13759
433.00        17.43353
433.45        17.68604
433.89        17.62006
434.34        17.34385
434.78        17.03941
435.23        16.70839
435.67        17.48581
436.12        16.92902
436.57        16.85695
437.01        16.61316
437.46        16.50841
437.90         16.5565
438.35        16.61655
438.79        16.65964
439.24        16.71333
439.68        16.76589
440.13        16.66807
440.57        16.50141
441.02        16.66922
441.46        17.00999
441.91        17.00829
442.35        16.28499
442.80        16.00263
443.24        16.00048
443.69        15.92061
444.13        15.75243
444.58        15.65818
445.02        15.64729
445.47        15.71923
445.91        15.82385
446.36        15.84251
446.80        15.75076
447.24        15.60014
447.69        15.44464
448.13        15.33387
448.58         15.2917
449.02        15.30046
449.47        15.32244
449.91        15.29036
450.36        15.19809
450.80        15.06847
451.25        14.95571
451.69         14.9253
452.13         14.9926
452.58        15.12028
453.02        15.26638
453.47        15.36842
453.91        15.40766
454.36        15.40151
454.80        15.35333
455.24        15.27004
455.69        15.17099
456.13        15.04295
456.58        14.92979
457.02        14.88753
457.46        14.92115
457.91        14.97939
458.35        15.03554
458.79        15.08321
459.24        15.10857
459.68        15.11593
460.13         15.1516
460.57        15.14237
461.01        15.07752
461.46        15.36505
461.90        15.41249
462.34        15.24221
462.79        15.36464
463.23        15.26338
463.68        15.17955
464.12        15.09996
464.56        15.15573
465.01         15.2399
465.45        15.32226
465.89        15.37203
466.34        15.38613
466.78        15.32387
467.22         15.2354
467.67        15.31108
468.11         15.5164
468.55        15.54515
468.99        15.41383
469.44        15.40249
469.88        15.52131
470.32        15.60852
470.77        15.63864
471.21        15.65363
471.65        15.64985
472.10        15.61841
472.54        15.57558
472.98        15.58231
473.42        15.64465
473.87        15.70035
474.31        15.73708
474.75         15.8298
475.20        15.94137
475.64        15.90682
476.08        15.77522
476.52        15.76202
476.97        15.87984
477.41        16.02747
477.85        16.15938
478.29        16.24933
478.74        16.28424
479.18        16.24363
479.62          16.185
480.06        16.20427
480.50        16.29839
480.95        16.36604
481.39        16.38412
481.83        16.39367
482.27         16.3948
482.72        16.37777
483.16         16.3651
483.60         16.3903
484.04        16.44971
484.48        16.61067
484.93        16.90167
485.37        16.99611
485.81        16.96673
486.25        17.56036
486.69        18.16927
487.14        17.65717
487.58         17.3203
488.02         18.1223
488.46        17.74655
488.90        17.92161
489.34        17.79065
489.79        17.88407
490.23          18.149
490.67        18.35895
491.11        18.47514
491.55        18.41421
491.99        18.23979
492.43        18.19564
492.88        18.31914
493.32        18.45694
493.76        18.59635
494.20        18.78924
494.64        19.02628
495.08        19.28309
495.52        19.53327
495.96        19.75348
496.41        19.93694
496.85        20.05188
497.29        20.12107
497.73        20.27932
498.17        20.50608
498.61        20.58695
499.05        20.55347
499.49        20.66503
499.93        20.93997
500.37        21.18912
500.82         21.3859
501.26        21.66559
501.70        21.96412
502.14         21.9993
502.58        21.82972
503.02        21.79816
503.46        21.93583
503.90        22.06998
504.34        22.15999
504.78        22.21434
505.22        22.22259
505.66        22.19281
506.10        22.16008
506.54         22.1751
506.98        22.25332
507.42        22.38355
507.86        22.54056
508.30        22.68244
508.74        22.79363
509.18        22.87927
509.62        22.96037
510.06        23.07056
510.50        23.21598
510.94        23.38786
511.38        23.54198
511.82        23.60915
512.26        23.57726
512.70        23.46546
513.14        23.34658
513.58        23.33164
514.02        23.43595
514.46        23.62917
514.90        23.82692
515.34         23.8311
515.78        23.65125
516.22        23.40508
516.66         23.2081
517.10        22.90295
517.54        22.52323
517.98        23.14048
518.42        23.09545
518.86        23.38477
519.30        23.49115
519.74         23.5877
520.18         23.6516
520.62         23.6252
521.06        23.52753
521.50        23.35888
521.93        23.16742
522.37        23.04363
522.81        23.00818
523.25          23.039
523.69        23.10141
524.13        23.13738
524.57        23.12645
525.01        23.08313
525.45        23.01708
525.89        22.94282
526.32        22.86792
526.76        22.79214
527.20         22.7104
527.64        22.62097
528.08        22.52485
528.52        22.42023
528.96        22.33181
529.40        22.29404
529.83        22.30708
530.27        22.36543
530.71        22.41017
531.15        22.35042
531.59        22.17593
532.03        21.91966
532.46        21.66221
532.90        21.54832
533.34        21.59759
533.78        21.75901
534.22        21.95282
534.66        22.05523
535.09        22.02992
535.53        21.92587
535.97        21.77852
536.41        21.64105
536.85        21.53842
537.28        21.46447
537.72        21.43683
538.16        21.41867
538.60        21.51225
539.04        21.62027
539.47        21.73543
539.91        21.85283
540.35        21.97587
540.79        21.91961
541.22        21.98645
541.66         22.0515
542.10        22.22432
542.54         22.1355
542.97        22.36331
543.41        22.48385
543.85        22.65214
544.29        22.81634
544.72        22.94719
545.16        23.06535
545.60         23.1634
546.04         23.1658
546.47        23.15558
546.91        23.41048
547.35        23.87466
547.79        24.23245
548.22        24.41984
548.66         24.5055
549.10        24.53065
549.53        24.67206
549.97        24.95797
550.41        24.98117
550.84        25.21012
551.28        25.38459
551.72        25.64244
552.15        25.89415
552.59        26.13051
553.03        26.36455
553.46        26.56199
553.90        26.69779
554.34        26.76816
554.77        26.78186
555.21         26.7831
555.65        26.83066
556.08         26.9348
556.52        27.07727
556.96         27.2306
557.39        27.38341
557.83         27.5151
558.27        27.57185
558.70        27.56579
559.14        27.59217
559.57        27.64688
560.01        27.73115
560.45        27.82427
560.88        27.82364
561.32        27.77495
561.75        27.90361
562.19        28.05314
562.63        28.17221
563.06        28.20721
563.50        28.24884
563.93        28.30058
564.37        28.42533
564.80        28.49701
565.24        28.62152
565.68        28.73982
566.11        28.85908
566.55        28.99459
566.98        29.09035
567.42        29.13264
567.85        29.46285
568.29        29.32245
568.72        29.63009
569.16        30.08825
569.60        30.35896
570.03        30.40362
570.47        30.54829
570.90        30.67773
571.34        30.87161
571.77         30.7929
572.21        31.16755
572.64        31.31318
573.08        31.45403
573.51        31.40582
573.95        32.01432
574.38        32.47258
574.82        32.76196
