SpectraSmart Spectrum 2.9.0.0
--------- Device Information -----------
Spectrum Name :  反射率_0
Saving Time :  2024/04/20 00:50:24
Spectro-Module Model Name : SE2030-DUVN
Spectro-Module Serial Number : OS361AC55029948
Wavelength Start : 200
Wavelength End : 1025
Wavelength Unit : Wavelength(nm)
Spectrum Unit : Reflectance(%)
-----------Spectrum Setting ------------
Integration Time : 30ms
Average : 10
Boxcar : 0
Background removal :  enabled
linearity correction :  enabled
SC :  disabled
Intensity correction :  disabled
DWT denoise :  enabled
savitzky-golay :  disabled
FFT :  disabled
Running average :  disabled
Kalman :  disabled
High pass :  disabled
---------------BEGIN--------------------
Wavelength(nm)             Reflectance(%)
200.29               0
200.75        61.02634
201.21        63.29083
201.67        68.04276
202.13        75.16952
202.58        84.27679
203.04         95.4762
203.50        105.4584
203.96        106.7422
204.42        99.69884
204.88        89.53442
205.34        80.88255
205.80        75.87862
206.26        73.61544
206.72        72.91172
207.18        73.98975
207.64        76.78403
208.10        80.26514
208.55        84.43555
209.01        86.47998
209.47        85.07486
209.93        81.08269
210.39         75.2788
210.85        70.07301
211.31        68.24158
211.77        70.09557
212.23        75.51865
212.69        83.03819
213.14        86.15248
213.60        82.09082
214.06        75.61894
214.52        70.64606
214.98        69.34779
215.44        71.22935
215.90        75.11932
216.36        80.66096
216.81        86.29103
217.27        90.42276
217.73        93.61367
218.19        95.05016
218.65        93.65469
219.11        89.61738
219.57        82.83127
220.02        75.57419
220.48        74.02812
220.94        80.02811
221.40        92.13691
221.86         106.052
222.32        115.1604
222.77        117.7592
223.23        116.1755
223.69         112.581
224.15        110.2312
224.61        110.0801
225.06        110.8307
225.52         112.459
225.98        115.0048
226.44         118.398
226.90        122.7204
227.36        127.3446
227.81        130.5276
228.27        131.8738
228.73        131.7396
229.19        130.6372
229.65        129.2681
230.10        127.8559
230.56        126.6495
231.02        125.7561
231.48        125.5278
231.93        125.8059
232.39        126.5042
232.85        127.3022
233.31        127.7916
233.77        127.8243
234.22        127.5846
234.68        126.8191
235.14        125.1023
235.60        122.5477
236.05        119.3594
236.51        116.3772
236.97        114.8202
237.43        114.9381
237.88         116.913
238.34        119.6382
238.80        120.9055
239.26         119.156
239.71         114.983
240.17        109.3578
240.63        104.3147
241.08        100.4767
241.54        97.26735
242.00        94.42673
242.46        91.17133
242.91        86.93587
243.37        81.00021
243.83         73.3381
244.28         67.2157
244.74         66.4794
245.20        71.38028
245.66        77.19412
246.11         79.1093
246.57        76.12128
247.03        68.30984
247.48        57.16608
247.94        53.08549
248.40        57.96169
248.85        64.78169
249.31        69.69146
249.77        71.62397
250.22        71.27358
250.68        69.46691
251.14        67.03527
251.59        65.83206
252.05        67.14653
252.51        70.84471
252.96        75.52242
253.42        78.68421
253.88        79.77682
254.33        79.67767
254.79        80.79158
255.25        85.36948
255.70        92.90273
256.16        101.7106
256.62        109.8971
257.07         115.411
257.53        118.4184
257.99        119.7591
258.44        119.1869
258.90        117.5272
259.35        114.9895
259.81        112.9573
260.27        111.6089
260.72        111.1802
261.18        111.9385
261.63        112.9043
262.09        114.2499
262.55        115.3413
263.00        115.7843
263.46        116.0554
263.91         115.571
264.37         114.346
264.83        112.3816
265.28        109.7846
265.74          107.45
266.19        105.8677
266.65        105.3391
267.11        105.4603
267.56        105.7854
268.02        105.7845
268.47        105.2399
268.93        104.3414
269.38        103.2199
269.84        102.2905
270.30        101.6276
270.75        101.1029
271.21        100.5121
271.66        99.48351
272.12        97.99701
272.57        96.15655
273.03        94.34481
273.48        92.99982
273.94        92.29913
274.39        91.98777
274.85        91.79678
275.31         91.1749
275.76        89.96124
276.22        88.39114
276.67        86.65807
277.13        85.29781
277.58        84.29416
278.04         83.5962
278.49        82.82116
278.95        81.65424
279.40        79.96751
279.86         78.0875
280.31        76.21674
280.77         74.9164
281.22        74.13202
281.68        73.75513
282.13        73.45954
282.59        72.92526
283.04        72.01539
283.50        70.92567
283.95        69.73335
284.41        68.68618
284.86        67.77554
285.32        66.98577
285.77        66.23554
286.22        65.53642
286.68        64.90208
287.13        64.29667
287.59        63.73705
288.04        63.11246
288.50        62.44941
288.95        61.70238
289.41        60.95559
289.86        60.23388
290.32        59.61663
290.77        59.07316
291.22         58.6004
291.68        58.15463
292.13        57.71477
292.59        57.33559
293.04        57.07266
293.50        57.06174
293.95        57.29288
294.40        57.71336
294.86        58.21767
295.31        58.64343
295.77        58.95023
296.22         59.1822
296.68        59.38683
297.13        59.62977
297.58        59.94526
298.04        60.31725
298.49        60.74848
298.95        61.30141
299.40        61.94102
299.85        62.64079
300.31        63.34137
300.76         63.9146
301.21        64.34381
301.67        64.70954
302.12        64.97952
302.58         65.2258
303.03        65.43488
303.48        65.62905
303.94        65.92342
304.39         66.4272
304.84        67.15481
305.30        68.04266
305.75        68.88992
306.20        69.43925
306.66        69.66164
307.11        69.60898
307.57        69.43867
308.02        69.27635
308.47        69.20788
308.93        69.18563
309.38        69.19643
309.83        69.30393
310.29        69.49593
310.74        69.75843
311.19        69.95734
311.65        69.86369
312.10         69.4368
312.55        68.75459
313.00        68.03591
313.46        67.62069
313.91        67.55948
314.36        67.76421
314.82        68.02676
315.27           68.04
315.72        67.70569
316.18        67.14772
316.63        66.49963
317.08         65.9901
317.53        65.67886
317.99        65.48206
318.44        65.32864
318.89        65.09196
319.35        64.73449
319.80        64.30719
320.25        63.86115
320.70          63.474
321.16        63.15687
321.61         62.8881
322.06        62.61292
322.51        62.25632
322.97        61.79063
323.42        61.25676
323.87        60.69717
324.32        60.18939
324.78        59.74849
325.23        59.38266
325.68        59.04307
326.13        58.66037
326.59        58.21806
327.04        57.77029
327.49        57.36676
327.94        57.09992
328.39         56.9788
328.85          56.929
329.30        56.93797
329.75        56.89014
330.20        56.74391
330.66        56.51119
331.11        56.20879
331.56        55.79046
332.01        55.26871
332.46        54.65444
332.92        54.04054
333.37        53.63019
333.82        53.46774
334.27        53.53199
334.72        53.70335
335.17        53.76182
335.63         53.6243
336.08        53.36051
336.53        53.08198
336.98        53.01074
337.43        53.19025
337.88         53.5405
338.34        53.86546
338.79        53.90763
339.24         53.5875
339.69        52.99586
340.14        52.34106
340.59        51.97017
341.05         51.9689
341.50        52.23856
341.95        52.59408
342.40        52.74906
342.85        52.63177
343.30        52.34411
343.75        51.99768
344.20        51.77008
344.66        51.71209
345.11        51.73633
345.56        51.80842
346.01        51.87711
346.46        51.91119
346.91        51.94239
347.36        51.91642
347.81        51.73853
348.26        51.41446
348.72        50.99597
349.17        50.58273
349.62        50.41054
350.07        50.52436
350.52        50.83466
350.97        51.21048
351.42        51.45676
351.87        51.50605
352.32        51.40309
352.77        51.16655
353.22        50.83077
353.67        50.43412
354.13        50.00255
354.58        49.55057
355.03        49.15283
355.48        48.83865
355.93        48.60521
356.38        48.47518
356.83        48.47098
357.28        48.57098
357.73         48.7443
358.18        48.89838
358.63        48.88732
359.08         48.6739
359.53        48.29997
359.98        47.83437
360.43        47.38551
360.88         46.9934
361.33        46.63654
361.78        46.31831
362.23         46.0443
362.68        45.80952
363.13        45.61275
363.58        45.42971
364.03        45.21408
364.48        44.94423
364.93        44.62015
365.38        44.23437
365.83        43.78965
366.28        43.30096
366.73        42.77826
367.18        42.25999
367.63        41.80064
368.08        41.41747
368.53        41.10984
368.98        40.84839
369.43        40.57564
369.88        40.27933
370.33        39.97709
370.78         39.6996
371.23         39.5033
371.68        39.39943
372.13         39.3548
372.58        39.34405
373.03        39.33083
373.48        39.28774
373.93        39.21369
374.38          39.079
374.83        38.83881
375.28         38.4924
375.72        38.05152
376.17        37.58569
376.62         37.1698
377.07        36.84043
377.52        36.58597
377.97        36.40462
378.42        36.28569
378.87        36.21204
379.32        36.17817
379.77        36.15181
380.22        36.08132
380.67        35.95393
381.11        35.78592
381.56        35.57609
382.01        35.35695
382.46        35.14341
382.91        34.92287
383.36        34.72539
383.81        34.59231
384.26        34.52516
384.71        34.52367
385.15        34.50828
385.60        34.36954
386.05        34.08908
386.50        33.70017
386.95        33.32502
387.40        33.15956
387.85        33.23208
388.29        33.45874
388.74        33.70515
389.19        33.74352
389.64        33.53125
390.09        33.13438
390.54        32.68126
390.98        32.36848
391.43        32.27441
391.88        32.31873
392.33        32.39289
392.78        32.34154
393.23        32.14133
393.67        31.83405
394.12        31.55533
394.57        31.38494
395.02        31.34455
395.47        31.39906
395.91        31.49416
396.36        31.50577
396.81        31.41714
397.26        31.25658
397.71        31.10405
398.15        31.05539
398.60        31.15678
399.05        31.34717
399.50        31.52391
399.95        31.54216
400.39         31.3759
400.84        31.06182
401.29        30.71009
401.74        30.52411
402.18        30.56701
402.63        30.77172
403.08        31.00069
403.53        31.02905
403.97         30.8116
404.42        30.43746
404.87        30.04971
405.32         29.8822
405.76         29.9832
406.21         30.2674
406.66        30.60201
407.11        30.78261
407.55        30.75567
408.00        30.59208
408.45        30.36029
408.90        30.10319
409.34        29.89762
409.79         29.8712
410.24        29.95498
410.68        29.91562
411.13        29.74211
411.58        29.56279
412.03        29.42257
412.47        29.35377
412.92        29.36761
413.37        29.44208
413.81         29.5655
414.26        29.74101
414.71        29.94692
415.15        30.18768
415.60        30.37905
416.05        30.42259
416.49        30.29702
416.94        30.02969
417.39        29.71911
417.83        29.52596
418.28        29.49772
418.73         29.5872
419.17        29.70615
419.62        29.70742
420.07        29.56377
420.51        29.32956
420.96        29.09192
421.41        28.95377
421.85        28.93307
422.30        29.00793
422.74        29.12429
423.19        29.24961
423.64        29.35091
424.08        29.44921
424.53        29.51132
424.98        29.51265
425.42        29.45444
425.87         29.3825
426.31        29.29802
426.76        29.11952
427.21         28.8883
427.65        28.80883
428.10        28.89297
428.54        28.93829
428.99        28.93854
429.44        29.10408
429.88         29.3113
430.33        29.18628
430.77        28.79987
431.22        28.59623
431.66        28.61653
432.11        28.72559
432.56        28.87048
433.00        29.03946
433.45        29.09905
433.89        28.95718
434.34        28.70956
434.78        28.56115
435.23        28.49384
435.67        28.82391
436.12         28.3992
436.57        28.26202
437.01        28.14173
437.46        28.10817
437.90        28.18059
438.35        28.34571
438.79        28.50963
439.24         28.5652
439.68          28.486
440.13        28.15257
440.57        27.75129
441.02        27.88147
441.46        28.35847
441.91        28.61147
442.35        27.87606
442.80        27.69411
443.24        27.78286
443.69        27.71938
444.13        27.50171
444.58        27.35424
445.02        27.30788
445.47        27.37214
445.91        27.48712
446.36        27.49247
446.80        27.36047
447.24        27.17513
447.69        27.00198
448.13        26.88671
448.58        26.85593
449.02        26.88398
449.47        26.93002
449.91        26.91944
450.36        26.84304
450.80        26.72295
451.25        26.60431
451.69         26.5299
452.13        26.52005
452.58        26.55109
453.02         26.6057
453.47        26.66839
453.91        26.72734
454.36        26.78296
454.80        26.81929
455.24          26.804
455.69        26.74435
456.13        26.62707
456.58        26.50053
457.02         26.4241
457.46        26.40643
457.91        26.36954
458.35        26.31476
458.79        26.31745
459.24        26.36602
459.68        26.44825
460.13        26.59078
460.57        26.58624
461.01        26.39511
461.46         26.7663
461.90        26.70445
462.34        26.32929
462.79        26.53792
463.23        26.41481
463.68        26.34167
464.12         26.2467
464.56        26.33644
465.01        26.44557
465.45        26.53603
465.89        26.57848
466.34         26.5724
466.78        26.43507
467.22        26.24837
467.67        26.33341
468.11        26.62888
468.55        26.61476
468.99        26.32119
469.44        26.22632
469.88        26.34778
470.32        26.41315
470.77        26.39288
471.21         26.3718
471.65        26.34875
472.10        26.30141
472.54        26.24732
472.98        26.26338
473.42        26.35286
473.87         26.4183
474.31        26.44852
474.75        26.59182
475.20        26.78817
475.64        26.75124
476.08        26.54882
476.52        26.52101
476.97        26.68521
477.41        26.87729
477.85        27.03348
478.29        27.13092
478.74        27.15431
479.18         27.0659
479.62        26.95531
480.06        26.96817
480.50        27.09861
480.95        27.18931
481.39        27.20263
481.83        27.20482
482.27        27.19001
482.72        27.13369
483.16        27.08713
483.60        27.08951
484.04        27.14971
484.48        27.42066
484.93        27.86033
485.37        27.78936
485.81        27.75636
486.25        28.10088
486.69        29.84592
487.14        29.35693
487.58        28.27725
488.02        28.88732
488.46        28.46806
488.90        28.68538
489.34        28.46995
489.79         28.5969
490.23        28.94785
490.67        29.05121
491.11        28.93398
491.55        28.81753
491.99        28.76793
492.43        28.77285
492.88        28.86242
493.32        29.05898
493.76         29.3159
494.20        29.53872
494.64        29.70591
495.08        29.84115
495.52        29.96541
495.96        30.12656
496.41        30.33608
496.85        30.53693
497.29        30.71642
497.73        30.94986
498.17        31.20581
498.61        31.30216
499.05        31.27652
499.49        31.39274
499.93        31.67673
500.37        31.91501
500.82        32.09673
501.26        32.43298
501.70        32.83564
502.14        32.88173
502.58         32.6384
503.02         32.5819
503.46        32.74846
503.90        32.88912
504.34        32.95302
504.78        32.96989
505.22         32.9305
505.66        32.84066
506.10        32.75154
506.54        32.73874
506.98        32.82305
507.42        32.98684
507.86        33.19051
508.30        33.36716
508.74        33.49259
509.18        33.57712
509.62        33.64702
510.06        33.74549
510.50        33.88108
510.94        34.04013
511.38        34.17681
511.82        34.22002
512.26        34.15996
512.70        34.02381
513.14        33.88552
513.58        33.85406
514.02        33.94674
514.46        34.13457
514.90        34.34702
515.34        34.39597
515.78        34.31805
516.22        34.18265
516.66        34.07779
517.10        33.83379
517.54        33.47526
517.98         33.9351
518.42        33.81282
518.86        34.00689
519.30         34.0844
519.74        34.18116
520.18        34.26939
520.62        34.28568
521.06        34.23693
521.50        34.12602
521.93        33.98109
522.37        33.85784
522.81        33.77393
523.25        33.72136
523.69        33.68951
524.13        33.65921
524.57        33.62279
525.01        33.58375
525.45        33.54985
525.89        33.53164
526.32        33.52669
526.76        33.53003
527.20        33.51555
527.64        33.44845
528.08        33.32322
528.52        33.15001
528.96        32.96799
529.40         32.8353
529.83        32.76424
530.27        32.75041
530.71        32.74667
531.15        32.68065
531.59        32.54255
532.03        32.35834
532.46        32.18565
532.90        32.13622
533.34         32.2161
533.78        32.37883
534.22        32.55371
534.66        32.63377
535.09        32.58788
535.53        32.46539
535.97        32.29664
536.41        32.12595
536.85        31.97965
537.28        31.86336
537.72        31.81196
538.16        31.78286
538.60         31.9303
539.04        32.10117
539.47        32.27745
539.91         32.4456
540.35        32.60688
540.79         32.4887
541.22        32.54213
541.66        32.58623
542.10        32.78651
542.54        32.60301
542.97        32.88503
543.41        33.00311
543.85         33.1851
544.29        33.34955
544.72        33.47522
545.16        33.62541
545.60        33.79127
546.04        33.85401
546.47        33.88043
546.91        34.20384
547.35        34.73524
547.79        34.99955
548.22        34.99376
548.66        35.05352
549.10        35.20515
549.53        35.42876
549.97        35.74716
550.41        35.75985
550.84        36.12959
551.28        36.35989
551.72        36.64686
552.15        36.91656
552.59        37.16425
553.03        37.40741
553.46        37.60877
553.90        37.70172
554.34        37.76941
554.77        37.75335
555.21        37.74504
555.65        37.83081
556.08        38.01952
556.52        38.27553
556.96        38.53461
557.39        38.74271
557.83        38.86927
558.27         38.8527
558.70        38.74157
559.14        38.69915
559.57        38.73576
560.01        38.80472
560.45        38.89786
560.88        38.95654
561.32        39.02432
561.75        39.22709
562.19        39.63572
562.63         39.6422
563.06        39.37481
563.50        39.42879
563.93        39.77758
564.37        40.04803
564.80        40.04316
565.24        40.19359
565.68        40.40055
566.11        40.53158
566.55        40.61258
566.98        40.58563
567.42        40.47791
567.85        40.91491
568.29        40.81958
568.72        41.25208
569.16         41.8079
569.60        42.22806
570.03        42.42605
570.47        42.68187
570.90        42.79701
571.34        43.15945
571.77        42.57594
572.21        43.40065
572.64        43.55911
573.08        43.87655
573.51        43.94559
573.95        44.63274
574.38        44.71501
574.82        45.13121
