SpectraSmart Spectrum 2.9.0.0
--------- Device Information -----------
Spectrum Name :  反射率_0
Saving Time :  2024/04/20 00:23:16
Spectro-Module Model Name : SE2030-DUVN
Spectro-Module Serial Number : OS361AC55029948
Wavelength Start : 200
Wavelength End : 1025
Wavelength Unit : Wavelength(nm)
Spectrum Unit : Reflectance(%)
-----------Spectrum Setting ------------
Integration Time : 30ms
Average : 10
Boxcar : 0
Background removal :  enabled
linearity correction :  enabled
SC :  disabled
Intensity correction :  disabled
DWT denoise :  enabled
savitzky-golay :  disabled
FFT :  disabled
Running average :  disabled
Kalman :  disabled
High pass :  disabled
---------------BEGIN--------------------
Wavelength(nm)             Reflectance(%)
200.29               0
200.75        64.33476
201.21        64.94529
201.67        67.63008
202.13        72.50433
202.58        79.39908
203.04        88.70387
203.50         97.5016
203.96        98.71871
204.42        92.40998
204.88        83.17243
205.34        75.22354
205.80        70.48371
206.26        68.08153
206.72        66.94687
207.18        66.66953
207.64         66.2102
208.10        65.01804
208.55        64.18134
209.01        63.42593
209.47        63.02069
209.93        62.83173
210.39        62.73059
210.85        62.36949
211.31         61.3304
211.77        59.49698
212.23        56.77128
212.69         53.9478
213.14        54.07233
213.60        57.35538
214.06        61.90849
214.52        65.90297
214.98        68.87059
215.44        71.18724
215.90        73.00114
216.36         74.6583
216.81        76.42716
217.27        78.00233
217.73        79.51646
218.19        79.72345
218.65        76.78587
219.11        70.58614
219.57        61.35875
220.02        51.79234
220.48        48.91859
220.94        54.85774
221.40        67.77833
221.86        82.51173
222.32        91.24447
222.77        91.99055
223.23        87.43668
223.69        80.48068
224.15        75.53661
224.61        73.81089
225.06        73.67122
225.52        74.34927
225.98        75.29777
226.44         76.3016
226.90        77.64952
227.36        79.08886
227.81         79.7892
228.27        79.78848
228.73        79.19619
229.19        78.28691
229.65        77.44352
230.10         76.7486
230.56        76.25193
231.02        75.99564
231.48        76.13781
231.93        76.56107
232.39        77.20013
232.85        77.81147
233.31        78.06384
233.77        77.86794
234.22        77.35137
234.68        76.50225
235.14        75.26337
235.60         73.7639
236.05         72.0869
236.51        70.64284
236.97        69.99896
237.43        70.31367
237.88        71.82852
238.34        74.01913
238.80        75.69481
239.26         75.8699
239.71        74.57263
240.17        72.47125
240.63         71.2747
241.08        71.43922
241.54        72.49427
242.00         73.4225
242.46         72.1835
242.91         67.7459
243.37        59.20352
243.83        46.98968
244.28         38.2996
244.74        40.89762
245.20        53.88418
245.66        68.15419
246.11        75.85282
246.57        76.49132
247.03        71.33974
247.48        61.73434
247.94        57.12809
248.40        60.22866
248.85        65.16257
249.31         68.8117
249.77        70.32547
250.22        70.12974
250.68        68.86152
251.14        67.10513
251.59        66.01794
252.05        66.50116
252.51        68.60767
252.96        70.93437
253.42        71.21729
253.88        69.31395
254.33        66.29311
254.79        65.10134
255.25        68.42936
255.70        75.48681
256.16        84.16538
256.62        91.69771
257.07        95.06152
257.53        94.46359
257.99        91.29877
258.44        86.68253
258.90         82.9675
259.35        80.34286
259.81        78.99768
260.27        78.10808
260.72        77.00745
261.18        75.94354
261.63        74.57379
262.09         73.7353
262.55        73.92262
263.00        74.86176
263.46        76.33901
263.91        77.20525
264.37        76.57197
264.83        74.46172
265.28        71.32705
265.74        68.38385
266.19        66.75314
266.65        66.68372
267.11        67.54837
267.56        68.58038
268.02        68.72499
268.47        67.74801
268.93        66.04646
269.38        64.01371
269.84         62.5053
270.30        61.74731
270.75        61.46173
271.21        61.36455
271.66        61.01403
272.12        60.28114
272.57        59.30121
273.03        58.24044
273.48        57.23187
273.94        56.39873
274.39         55.6406
274.85        54.93053
275.31        54.15456
275.76        53.26147
276.22        52.32726
276.67        51.41237
277.13        50.75339
277.58        50.29773
278.04          50.035
278.49        49.69542
278.95        49.02319
279.40        47.93896
279.86        46.65115
280.31        45.34943
280.77        44.49401
281.22        44.06084
281.68        43.95099
282.13         43.8889
282.59        43.54675
283.04         42.8392
283.50        41.94316
283.95        41.00256
284.41        40.29377
284.86        39.83823
285.32        39.57327
285.77        39.39444
286.22         39.2334
286.68        39.05816
287.13        38.86795
287.59        38.66059
288.04        38.36751
288.50        38.01273
288.95        37.56623
289.41        37.11015
289.86        36.69004
290.32        36.37545
290.77        36.14111
291.22         35.9856
291.68         35.8658
292.13        35.77183
292.59         35.7451
293.04        35.82132
293.50        36.07941
293.95        36.51611
294.40        37.09698
294.86        37.76181
295.31         38.4265
295.77        39.06323
296.22        39.68206
296.68        40.29763
297.13        40.91857
297.58        41.55009
298.04        42.18238
298.49        42.80157
298.95        43.43762
299.40        44.07542
299.85        44.71676
300.31        45.34983
300.76        45.93558
301.21        46.47737
301.67        47.02332
302.12        47.55083
302.58        48.11016
303.03        48.67496
303.48        49.24407
303.94        49.87003
304.39        50.58171
304.84        51.37549
305.30        52.21789
305.75        52.96287
306.20        53.42799
306.66        53.61149
307.11        53.55806
307.57        53.42926
308.02        53.37613
308.47         53.4719
308.93        53.65895
309.38        53.88522
309.83        54.13445
310.29        54.37516
310.74        54.61571
311.19        54.76193
311.65        54.65548
312.10        54.27892
312.55        53.68956
313.00        53.07021
313.46        52.70547
313.91        52.63705
314.36        52.79663
314.82         53.0187
315.27         53.0563
315.72        52.82665
316.18        52.42675
316.63        51.94905
317.08        51.55285
317.53        51.28166
317.99        51.07146
318.44        50.88899
318.89        50.67254
319.35        50.40217
319.80        50.11016
320.25        49.80655
320.70        49.50194
321.16        49.19626
321.61        48.88831
322.06        48.57604
322.51        48.26717
322.97        47.95346
323.42        47.64199
323.87        47.32114
324.32        46.97979
324.78        46.60807
325.23           46.23
325.68        45.83579
326.13         45.4197
326.59        44.98905
327.04        44.57809
327.49        44.21525
327.94        43.95223
328.39        43.79415
328.85        43.69696
329.30        43.67123
329.75        43.65996
330.20        43.63336
330.66         43.5759
331.11        43.47561
331.56        43.25364
332.01         42.9013
332.46        42.43431
332.92        41.92141
333.37        41.51144
333.82         41.2491
334.27         41.1263
334.72        41.08316
335.17        41.00527
335.63         40.8475
336.08        40.65324
336.53        40.49349
336.98        40.50519
337.43         40.7057
337.88         41.0415
338.34        41.34258
338.79        41.38935
339.24        41.11441
339.69        40.58571
340.14        40.00205
340.59        39.69912
341.05        39.75136
341.50        40.06523
341.95        40.44303
342.40        40.57641
342.85        40.39407
343.30        40.00691
343.75        39.55193
344.20        39.24963
344.66        39.16054
345.11         39.1818
345.56        39.26137
346.01        39.31916
346.46        39.31155
346.91        39.27835
347.36          39.162
347.81        38.86069
348.26        38.38715
348.72        37.80637
349.17        37.23568
349.62        36.94643
350.07        36.99989
350.52        37.30021
350.97        37.72251
351.42        38.07622
351.87        38.28629
352.32        38.39183
352.77        38.36959
353.22        38.18975
353.67        37.87035
354.13        37.43847
354.58        36.95952
355.03        36.58664
355.48        36.36456
355.93        36.27293
356.38        36.26189
356.83        36.23991
357.28         36.1691
357.73        36.05669
358.18        35.92311
358.63        35.80528
359.08        35.70578
359.53        35.60945
359.98        35.45226
360.43        35.14067
360.88        34.67189
361.33        34.08706
361.78        33.50733
362.23        33.12829
362.68        32.99081
363.13        33.02849
363.58        33.11505
364.03        33.05143
364.48        32.78168
364.93        32.36166
365.38         31.8617
365.83        31.40844
366.28        31.05147
366.73        30.75313
367.18        30.49558
367.63        30.25052
368.08        30.00676
368.53        29.78688
368.98        29.58143
369.43        29.36437
369.88        29.13133
370.33        28.88225
370.78         28.6392
371.23        28.44727
371.68        28.31744
372.13        28.23472
372.58        28.17361
373.03        28.09274
373.48         27.9749
373.93        27.82495
374.38        27.65289
374.83        27.47323
375.28        27.28643
375.72        27.07754
376.17        26.85352
376.62         26.5855
377.07        26.28406
377.52         25.9729
377.97        25.69336
378.42        25.50509
378.87        25.41593
379.32        25.39747
379.77        25.42029
380.22        25.43837
380.67        25.43169
381.11        25.41566
381.56        25.35568
382.01        25.21859
382.46         25.0042
382.91        24.71668
383.36        24.42768
383.81        24.24635
384.26        24.19277
384.71        24.24898
385.15        24.31209
385.60        24.22823
386.05        23.97044
386.50        23.58626
386.95        23.21497
387.40        23.07694
387.85        23.20339
388.29        23.50206
388.74        23.81153
389.19        23.88913
389.64        23.68972
390.09         23.2896
390.54        22.82788
390.98        22.51989
391.43        22.44454
391.88        22.51965
392.33        22.63545
392.78        22.63447
393.23        22.49017
393.67        22.24914
394.12        22.02884
394.57        21.91387
395.02        21.92319
395.47        22.01821
395.91        22.14024
396.36        22.16735
396.81         22.0782
397.26        21.90657
397.71        21.72698
398.15        21.63138
398.60        21.66337
399.05        21.77707
399.50        21.89619
399.95        21.91232
400.39         21.8043
400.84        21.59997
401.29        21.38408
401.74        21.31167
402.18        21.42344
402.63        21.65692
403.08        21.89105
403.53        21.93243
403.97        21.74472
404.42        21.40876
404.87        21.04473
405.32        20.85025
405.76        20.87385
406.21        21.04589
406.66        21.28169
407.11        21.44924
407.55        21.50782
408.00        21.50501
408.45         21.4548
408.90        21.32449
409.34        21.15263
409.79        21.04632
410.24        21.00109
410.68        20.92133
411.13        20.81539
411.58        20.75671
412.03        20.74181
412.47        20.73279
412.92        20.72072
413.37        20.70763
413.81        20.72329
414.26        20.82888
414.71        21.02006
415.15        21.28312
415.60        21.51171
416.05        21.56394
416.49        21.40908
416.94        21.09651
417.39        20.74795
417.83        20.56006
418.28        20.58675
418.73        20.76078
419.17        20.98055
419.62        21.07679
420.07        21.01111
420.51        20.84208
420.96        20.63788
421.41        20.48032
421.85        20.39183
422.30        20.35598
422.74        20.35597
423.19        20.40296
423.64         20.4811
424.08        20.60315
424.53        20.71936
424.98        20.77198
425.42         20.7503
425.87        20.66992
426.31        20.56444
426.76        20.49807
427.21        20.47598
427.65         20.4712
428.10         20.4917
428.54        20.52184
428.99        20.55804
429.44        20.69595
429.88        20.83626
430.33        20.68404
430.77        20.31552
431.22        20.13479
431.66        20.17997
432.11        20.27486
432.56        20.38415
433.00        20.61075
433.45        20.78172
433.89         20.6638
434.34        20.40897
434.78        20.19453
435.23        19.96474
435.67        21.01482
436.12        20.40006
436.57        20.30672
437.01        19.96739
437.46        19.84294
437.90        19.97192
438.35         19.9671
438.79        20.11528
439.24        20.13146
439.68        20.10282
440.13        19.86943
440.57        19.56507
441.02        19.71064
441.46        20.12265
441.91        20.17513
442.35        19.40451
442.80        19.17574
443.24        19.29283
443.69        19.32716
444.13        19.23429
444.58        19.16051
445.02        19.11121
445.47        19.09974
445.91        19.11094
446.36        19.07593
446.80        18.98665
447.24        18.88891
447.69        18.80985
448.13        18.75028
448.58        18.72281
449.02        18.72022
449.47        18.72993
449.91        18.72356
450.36        18.69915
450.80        18.66037
451.25        18.62327
451.69        18.59402
452.13        18.58135
452.58        18.57502
453.02         18.5748
453.47        18.58294
453.91        18.59858
454.36         18.6209
454.80        18.63422
455.24         18.6107
455.69        18.55413
456.13        18.45453
456.58        18.35817
457.02         18.3231
457.46        18.35554
457.91        18.39539
458.35        18.41523
458.79        18.42205
459.24        18.40425
459.68        18.36574
460.13        18.37127
460.57        18.34663
461.01        18.27817
461.46        18.66023
461.90        18.75171
462.34        18.54635
462.79        18.65907
463.23        18.47138
463.68        18.30174
464.12        18.18197
464.56        18.27719
465.01        18.43804
465.45        18.60073
465.89        18.69282
466.34        18.70252
466.78        18.59347
467.22        18.43269
467.67        18.45918
468.11        18.63724
468.55        18.59608
468.99        18.37168
469.44        18.32144
469.88        18.45999
470.32        18.59138
470.77         18.6646
471.21         18.6932
471.65        18.66487
472.10        18.57679
472.54        18.46978
472.98        18.44903
473.42        18.52973
473.87        18.62821
474.31        18.70902
474.75        18.83279
475.20        18.94863
475.64        18.86866
476.08        18.67108
476.52         18.6396
476.97        18.79408
477.41        19.00518
477.85        19.19627
478.29        19.29957
478.74        19.29312
479.18        19.16797
479.62        19.01913
480.06        18.99896
480.50         19.1116
480.95        19.22202
481.39        19.28431
481.83         19.3211
482.27        19.32185
482.72        19.27777
483.16        19.22178
483.60        19.20537
484.04        19.23584
484.48        19.37621
484.93        19.64927
485.37        19.72368
485.81        19.78737
486.25        20.28261
486.69        20.76866
487.14        20.42082
487.58        20.11018
488.02        21.04626
488.46        20.49164
488.90        20.56847
489.34        20.38125
489.79        20.47044
490.23        20.77195
490.67        20.94676
491.11        20.97668
491.55        20.93476
491.99         20.8569
492.43        20.81553
492.88        20.83411
493.32        20.84348
493.76        20.87397
494.20        21.01334
494.64        21.26559
495.08        21.59937
495.52        21.94486
495.96        22.19646
496.41        22.33717
496.85        22.38253
497.29        22.38175
497.73         22.4923
498.17        22.70102
498.61        22.77811
499.05        22.74253
499.49        22.84647
499.93        23.10407
500.37        23.31897
500.82        23.48315
501.26        23.77497
501.70        24.12778
502.14        24.21691
502.58        24.08104
503.02        24.06005
503.46        24.18001
503.90        24.26512
504.34        24.28551
504.78         24.2749
505.22        24.23262
505.66        24.16045
506.10        24.10448
506.54        24.13169
506.98        24.25711
507.42        24.46539
507.86        24.70409
508.30        24.88621
508.74        24.98496
509.18        25.01468
509.62         25.0248
510.06        25.09693
510.50        25.24858
510.94        25.45736
511.38        25.65186
511.82        25.71751
512.26        25.63377
512.70        25.43979
513.14        25.23605
513.58        25.17572
514.02        25.28414
514.46        25.51311
514.90         25.7646
515.34        25.81687
515.78        25.67432
516.22        25.45572
516.66         25.2654
517.10        24.93354
517.54        24.49558
517.98        25.00255
518.42        24.86891
518.86        25.11983
519.30        25.25962
519.74        25.43997
520.18        25.60559
520.62        25.64644
521.06        25.56493
521.50        25.37644
521.93        25.14312
522.37        24.97855
522.81        24.91478
523.25          24.925
523.69        24.97523
524.13        25.00951
524.57        25.00729
525.01        24.98312
525.45        24.94923
525.89        24.92209
526.32        24.90526
526.76        24.89378
527.20         24.8657
527.64        24.79463
528.08        24.67726
528.52         24.5197
528.96        24.36701
529.40        24.28496
529.83        24.28353
530.27        24.35302
530.71        24.42128
531.15        24.37512
531.59        24.19912
532.03        23.93225
532.46        23.67069
532.90        23.58419
533.34        23.69269
533.78         23.9312
534.22        24.19401
534.66        24.31957
535.09        24.26364
535.53        24.08933
535.97        23.85285
536.41        23.64002
536.85        23.48789
537.28        23.38446
537.72        23.34184
538.16        23.30766
538.60        23.38959
539.04        23.48627
539.47        23.59393
539.91        23.71291
540.35         23.8461
540.79        23.78768
541.22        23.85935
541.66        23.91654
542.10         24.0775
542.54        23.94898
542.97        24.16035
543.41        24.25813
543.85        24.41266
544.29        24.56372
544.72        24.69013
545.16         24.8289
545.60        24.97061
546.04        25.03124
546.47        25.07045
546.91        25.33566
547.35        25.76136
547.79        26.03451
548.22        26.12545
548.66         26.1544
549.10        26.17606
549.53        26.37021
549.97        26.73583
550.41        26.77817
550.84        26.98158
551.28        27.09801
551.72        27.30883
552.15        27.53119
552.59        27.75884
553.03        28.14802
553.46        28.36023
553.90        28.55213
554.34        28.62874
554.77        28.61835
555.21        28.58301
555.65        28.61382
556.08        28.73157
556.52        28.90459
556.96        29.09073
557.39        29.25971
557.83        29.38579
558.27        29.41319
558.70        29.37708
559.14        29.39134
559.57        29.46067
560.01        29.56759
560.45         29.6752
560.88        29.68056
561.32        29.63477
561.75        29.66065
562.19        29.86695
562.63         29.9298
563.06        29.90771
563.50        30.03313
563.93        30.26702
564.37         30.4748
564.80        30.50136
565.24         30.5663
565.68        30.63291
566.11        30.71189
566.55        30.83157
566.98        30.92978
567.42        30.98341
567.85        31.34871
568.29        31.21673
568.72        31.54995
569.16        32.02271
569.60        32.34642
570.03        32.48337
570.47        32.58638
570.90        32.52343
571.34        32.97872
571.77        32.92949
572.21        33.18497
572.64        33.40503
573.08        33.67525
573.51        33.90629
573.95        34.06135
574.38        34.47057
574.82        34.73883
