SpectraSmart Spectrum 2.9.0.0
--------- Device Information -----------
Spectrum Name :  反射率_0
Saving Time :  2024/04/20 01:01:33
Spectro-Module Model Name : SE2030-DUVN
Spectro-Module Serial Number : OS361AC55029948
Wavelength Start : 200
Wavelength End : 1025
Wavelength Unit : Wavelength(nm)
Spectrum Unit : Reflectance(%)
-----------Spectrum Setting ------------
Integration Time : 30ms
Average : 10
Boxcar : 0
Background removal :  enabled
linearity correction :  enabled
SC :  disabled
Intensity correction :  disabled
DWT denoise :  enabled
savitzky-golay :  disabled
FFT :  disabled
Running average :  disabled
Kalman :  disabled
High pass :  disabled
---------------BEGIN--------------------
Wavelength(nm)             Reflectance(%)
200.29               0
200.75        54.44333
201.21        51.28637
201.67        49.33735
202.13        51.64474
202.58        59.68361
203.04        73.66723
203.50        89.27307
203.96        94.76819
204.42        88.44631
204.88         77.2495
205.34        66.74068
205.80        59.25875
206.26        53.60708
206.72        47.58386
207.18        41.03603
207.64        37.61263
208.10        40.93001
208.55        50.09793
209.01         59.0656
209.47        63.34364
209.93        63.31816
210.39        60.57829
210.85        57.00517
211.31        54.69352
211.77        53.91974
212.23         54.0704
212.69        54.83432
213.14         55.3185
213.60        54.80714
214.06        54.54758
214.52          54.693
214.98        55.33792
215.44        56.45239
215.90        57.62939
216.36        59.28972
216.81        62.03455
217.27        65.36102
217.73          68.927
218.19        70.82785
218.65        68.44154
219.11        61.43945
219.57        50.17699
220.02        37.12805
220.48         29.3604
220.94        29.65214
221.40        36.91035
221.86        47.42944
222.32        55.15556
222.77        58.25608
223.23        58.43318
223.69        57.53957
224.15         58.2138
224.61        60.56578
225.06        63.14221
225.52        65.05263
225.98        65.76711
226.44         65.3587
226.90        64.30505
227.36        62.94664
227.81        61.70855
228.27        61.13685
228.73        61.02308
229.19        61.27984
229.65        61.79058
230.10        62.40862
230.56        63.15186
231.02        63.93787
231.48        64.74179
231.93        65.46049
232.39        66.07301
232.85        66.41323
233.31        66.28094
233.77        65.64758
234.22        64.60905
234.68        63.26185
235.14        61.71985
235.60        60.15909
236.05        58.66819
236.51        57.46043
236.97        56.76084
237.43        56.61222
237.88         57.1727
238.34         58.2002
238.80        59.29642
239.26        59.98983
239.71         60.1778
240.17        59.81458
240.63         59.4664
241.08        59.34365
241.54        59.22714
242.00         58.6933
242.46         56.7979
242.91        52.86178
243.37        45.94072
243.83        36.15499
244.28        28.58151
244.74        29.14686
245.20        38.01298
245.66        47.58111
246.11        50.24707
246.57        44.91977
247.03        31.83326
247.48        14.95612
247.94        12.93536
248.40        26.28604
248.85        41.36409
249.31        51.73012
249.77        56.32658
250.22        56.77569
250.68        54.59868
251.14        50.79533
251.59         47.5864
252.05        46.56522
252.51        47.26459
252.96         48.5058
253.42        48.38712
253.88        46.63618
254.33        44.45464
254.79        43.63241
255.25        45.55932
255.70        49.81654
256.16        55.05044
256.62        59.77646
257.07        62.43142
257.53        62.99316
257.99        62.01455
258.44         59.8503
258.90        57.71555
259.35        55.75883
259.81        54.42177
260.27        53.23927
260.72        51.78909
261.18        50.24595
261.63         48.3464
262.09        46.91331
262.55         46.5891
263.00        47.21812
263.46        48.53342
263.91        49.44721
264.37        48.92417
264.83        47.02588
265.28        44.22258
265.74        41.72038
266.19        40.77946
266.65        41.54129
267.11        43.31515
267.56        45.20942
268.02        45.95374
268.47        45.32071
268.93        43.77616
269.38        41.79313
269.84        40.35905
270.30        39.75599
270.75        39.68111
271.21        39.87272
271.66        39.94753
272.12        39.76192
272.57        39.44965
273.03        39.08094
273.48        38.64825
273.94         38.2178
274.39        37.73586
274.85        37.23009
275.31        36.71527
275.76        36.17607
276.22        35.63488
276.67         35.1091
277.13        34.73153
277.58        34.45325
278.04        34.28187
278.49        34.03413
278.95        33.52367
279.40        32.70555
279.86        31.73779
280.31        30.76192
280.77        30.12505
281.22        29.81106
281.68        29.73944
282.13        29.72735
282.59         29.5466
283.04        29.13841
283.50        28.62214
283.95        28.06154
284.41        27.59065
284.86        27.21816
285.32        26.90841
285.77        26.65456
286.22        26.51879
286.68        26.48434
287.13        26.51775
287.59         26.5078
288.04        26.25883
288.50        25.77047
288.95         25.0759
289.41         24.3571
289.86        23.82689
290.32        23.58129
290.77        23.53694
291.22        23.59251
291.68        23.55798
292.13        23.39075
292.59        23.16426
293.04         22.9672
293.50        22.94978
293.95        23.13108
294.40        23.44035
294.86        23.78667
295.31        24.04497
295.77        24.18102
296.22        24.23946
296.68        24.26163
297.13        24.28938
297.58        24.36011
298.04         24.4706
298.49        24.64009
298.95         24.9326
299.40        25.33612
299.85        25.82729
300.31        26.34536
300.76        26.79734
301.21        27.15217
301.67        27.44914
302.12        27.68012
302.58        27.88432
303.03        28.05891
303.48         28.2056
303.94        28.37901
304.39         28.6314
304.84        28.97174
305.30        29.37181
305.75        29.74119
306.20        29.95536
306.66        30.00893
307.11        29.93458
307.57         29.8151
308.02        29.71339
308.47        29.67479
308.93        29.67018
309.38        29.70263
309.83        29.81736
310.29        29.99759
310.74        30.23168
311.19        30.41681
311.65        30.38895
312.10        30.12412
312.55        29.67538
313.00        29.18496
313.46         28.8738
313.91        28.77887
314.36        28.85151
314.82         28.9794
315.27        28.99745
315.72         28.8508
316.18        28.60374
316.63        28.32689
317.08        28.12918
317.53        28.03619
317.99        27.99964
318.44        27.98034
318.89        27.91041
319.35        27.77103
319.80        27.59033
320.25        27.38865
320.70        27.19665
321.16        27.02144
321.61        26.84979
322.06        26.68197
322.51        26.52355
322.97        26.36679
323.42        26.21993
323.87        26.05318
324.32        25.82071
324.78        25.51502
325.23          25.158
325.68        24.79368
326.13        24.50114
326.59        24.30445
327.04        24.20217
327.49        24.15565
327.94        24.10035
328.39        24.01491
328.85        23.90067
329.30        23.80988
329.75        23.79747
330.20         23.8684
330.66        23.97255
331.11        24.06807
331.56        24.04288
332.01        23.86914
332.46        23.57946
332.92        23.22537
333.37        22.89567
333.82        22.63686
334.27        22.45045
334.72        22.33083
335.17        22.26293
335.63        22.23149
336.08        22.23859
336.53        22.31009
336.98        22.49259
337.43        22.77444
337.88         23.1328
338.34        23.41541
338.79        23.42547
339.24         23.1154
339.69        22.54397
340.14        21.94173
340.59        21.69813
341.05        21.88924
341.50        22.40487
341.95        22.99379
342.40        23.26171
342.85         23.1192
343.30        22.70445
343.75        22.19111
344.20        21.86248
344.66        21.79891
345.11        21.87479
345.56        22.03303
346.01         22.1849
346.46        22.27789
346.91        22.35859
347.36        22.34437
347.81        22.09326
348.26         21.6166
348.72        20.99388
349.17        20.38208
349.62          20.126
350.07        20.30163
350.52        20.78648
350.97        21.41143
351.42        21.92038
351.87        22.22223
352.32        22.37655
352.77        22.38006
353.22         22.2347
353.67         21.9682
354.13        21.59225
354.58        21.17253
355.03        20.85729
355.48        20.68771
355.93        20.64662
356.38        20.67941
356.83         20.6836
357.28        20.62378
357.73        20.51803
358.18        20.39647
358.63        20.31024
359.08        20.26985
359.53        20.25695
359.98        20.21842
360.43        20.07764
360.88         19.8297
361.33        19.50621
361.78        19.19482
362.23        19.03694
362.68        19.05368
363.13        19.18296
363.58        19.32844
364.03        19.34296
364.48        19.18464
364.93         18.9014
365.38        18.52647
365.83         18.1216
366.28        17.73033
366.73        17.34642
367.18        17.01773
367.63        16.81577
368.08        16.74453
368.53        16.78286
368.98         16.8645
369.43        16.87784
369.88        16.79541
370.33        16.65008
370.78        16.46958
371.23        16.30966
371.68        16.19323
372.13        16.09198
372.58        16.03101
373.03        16.05541
373.48        16.15584
373.93        16.31289
374.38        16.43926
374.83        16.39808
375.28        16.16969
375.72        15.79415
376.17        15.38478
376.62        15.08721
377.07        14.95128
377.52         14.9315
377.97        14.99306
378.42        15.07863
378.87        15.15463
379.32        15.23145
379.77        15.28271
380.22        15.26478
380.67        15.17493
381.11        15.02846
381.56        14.84379
382.01        14.67681
382.46        14.54612
382.91        14.42974
383.36        14.34752
383.81         14.3231
384.26        14.35119
384.71         14.4377
385.15         14.4965
385.60        14.39504
386.05        14.12241
386.50        13.71982
386.95        13.34062
387.40        13.22864
387.85        13.41838
388.29        13.81765
388.74        14.23903
389.19        14.42164
389.64        14.31419
390.09        13.99637
390.54        13.61051
390.98        13.37992
391.43        13.37679
391.88        13.51659
392.33        13.68293
392.78        13.71055
393.23        13.57509
393.67        13.33611
394.12        13.10989
394.57         13.0051
395.02        13.04306
395.47        13.17883
395.91        13.34363
396.36        13.40508
396.81        13.33151
397.26        13.16231
397.71        12.96992
398.15        12.84774
398.60        12.83629
399.05        12.90046
399.50        12.97893
399.95        12.98495
400.39        12.90038
400.84        12.74817
401.29        12.60588
401.74        12.61181
402.18        12.79634
402.63        13.09944
403.08        13.39181
403.53        13.47284
403.97        13.30641
404.42        12.96967
404.87        12.59728
405.32        12.41101
405.76        12.46491
406.21        12.68326
406.66        12.96252
407.11        13.13999
407.55        13.17016
408.00         13.1107
408.45        13.00143
408.90        12.87632
409.34        12.77736
409.79        12.74677
410.24        12.77245
410.68        12.78578
411.13        12.78491
411.58        12.82324
412.03        12.88135
412.47        12.90345
412.92        12.87825
413.37        12.81124
413.81        12.75571
414.26        12.80863
414.71        12.97631
415.15        13.23591
415.60        13.47245
416.05        13.52075
416.49        13.34414
416.94        13.00556
417.39        12.63081
417.83        12.42261
418.28        12.43839
418.73        12.60732
419.17        12.83718
419.62        12.97036
420.07        12.96784
420.51        12.88223
420.96        12.75826
421.41        12.64701
421.85        12.56729
422.30        12.50858
422.74        12.47538
423.19        12.50231
423.64        12.58211
424.08        12.71485
424.53        12.85071
424.98        12.92013
425.42        12.90577
425.87        12.83112
426.31         12.7218
426.76        12.62959
427.21        12.56268
427.65        12.49728
428.10        12.46385
428.54        12.49088
428.99        12.57947
429.44        12.77881
429.88        12.97944
430.33        12.92202
430.77        12.64757
431.22        12.42894
431.66         12.3472
432.11        12.38947
432.56        12.55597
433.00          12.888
433.45        13.20363
433.89        13.21058
434.34        12.96603
434.78         12.6382
435.23        12.28482
435.67        12.81125
436.12        12.44168
436.57        12.48191
437.01        12.41223
437.46        12.40283
437.90        12.44485
438.35        12.45338
438.79        12.42407
439.24        12.40548
439.68         12.4005
440.13        12.29002
440.57        12.13792
441.02        12.24494
441.46        12.49179
441.91        12.50265
442.35        11.98829
442.80         11.7914
443.24        11.78903
443.69        11.71961
444.13        11.58078
444.58        11.50549
445.02        11.50188
445.47        11.56663
445.91        11.65098
446.36        11.64959
446.80        11.54268
447.24         11.3765
447.69           11.21
448.13        11.10596
448.58        11.08842
449.02        11.13595
449.47        11.20368
449.91        11.21447
450.36        11.15549
450.80        11.04898
451.25        10.94911
451.69         10.9254
452.13        10.99431
452.58        11.12056
453.02        11.25878
453.47        11.33732
453.91        11.34105
454.36        11.29391
454.80        11.21953
455.24         11.1589
455.69        11.13237
456.13        11.11168
456.58        11.11056
457.02        11.14449
457.46        11.20864
457.91        11.27305
458.35         11.3145
458.79        11.32024
459.24        11.28597
459.68        11.21849
460.13        11.17851
460.57        11.15067
461.01        11.13571
461.46        11.42188
461.90        11.54517
462.34        11.47271
462.79        11.57734
463.23        11.48105
463.68         11.3839
464.12        11.30625
464.56        11.35555
465.01        11.43781
465.45        11.51826
465.89         11.5558
466.34         11.5458
466.78        11.46873
467.22        11.36855
467.67        11.39649
468.11        11.53057
468.55        11.53879
468.99        11.44049
469.44        11.45351
469.88        11.58519
470.32        11.71255
470.77        11.79409
471.21        11.82843
471.65        11.80581
472.10        11.72874
472.54        11.63551
472.98        11.61851
473.42        11.69151
473.87        11.79153
474.31        11.88018
474.75         11.9678
475.20        12.01712
475.64        11.92022
476.08        11.74024
476.52        11.67568
476.97        11.74495
477.41        11.86288
477.85        11.98039
478.29        12.05282
478.74        12.06413
479.18        12.00762
479.62        11.93869
480.06        11.94859
480.50        12.03591
480.95        12.11109
481.39        12.14506
481.83        12.15478
482.27        12.13795
482.72        12.09231
483.16        12.03448
483.60        12.00922
484.04        12.01362
484.48        12.06461
484.93         12.2475
485.37        12.35039
485.81        12.33932
486.25        12.91062
486.69        13.17576
487.14        12.35516
487.58        12.51667
488.02         13.5588
488.46        12.77496
488.90        12.91073
489.34        12.96079
489.79        13.06596
490.23        13.16174
490.67        13.26352
491.11        13.35069
491.55        13.26667
491.99        13.05714
492.43         12.9399
492.88        12.94763
493.32        12.94949
493.76        12.96056
494.20        13.06235
494.64        13.25332
495.08        13.50286
495.52        13.75908
495.96        13.95164
496.41        14.06232
496.85        14.08464
497.29        14.06102
497.73        14.12882
498.17          14.286
498.61        14.37093
499.05        14.38736
499.49          14.487
499.93        14.67366
500.37        14.82374
500.82        14.93283
501.26        15.11782
501.70        15.33759
502.14        15.38692
502.58        15.28872
503.02         15.2571
503.46        15.30838
503.90        15.32936
504.34        15.31252
504.78         15.2965
505.22        15.28281
505.66        15.26993
506.10        15.26078
506.54        15.25507
506.98        15.25673
507.42        15.27024
507.86        15.30426
508.30        15.37171
508.74        15.46963
509.18         15.5845
509.62        15.70509
510.06        15.81404
510.50        15.90547
510.94        15.98986
511.38        16.04862
511.82        16.05317
512.26        16.00517
512.70         15.9108
513.14        15.83124
513.58        15.86121
514.02         16.0072
514.46         16.2392
514.90        16.47128
515.34        16.51114
515.78        16.34631
516.22        16.11739
516.66        15.93169
517.10        15.60094
517.54        15.15989
517.98         15.7909
518.42        15.69185
518.86        15.97732
519.30        16.08696
519.74        16.20395
520.18        16.29711
520.62        16.29219
521.06        16.20623
521.50        16.04516
521.93        15.85852
522.37        15.73887
522.81        15.70988
523.25        15.74862
523.69        15.83039
524.13         15.9134
524.57        15.97765
525.01        16.03032
525.45        16.06356
525.89        16.06447
526.32        16.03165
526.76        15.96925
527.20        15.88292
527.64        15.78927
528.08        15.69597
528.52        15.59897
528.96        15.51555
529.40        15.46807
529.83         15.4581
530.27        15.48639
530.71        15.51203
531.15        15.46956
531.59        15.35159
532.03         15.1792
532.46        15.01321
532.90         14.9648
533.34        15.04503
533.78        15.21264
534.22        15.39631
534.66        15.48662
535.09        15.45409
535.53        15.34053
535.97         15.1872
536.41        15.05755
536.85        14.97662
537.28        14.93339
537.72        14.93002
538.16        14.92306
538.60        14.97899
539.04        15.03609
539.47        15.09685
539.91        15.16813
540.35        15.25428
540.79        15.22166
541.22        15.27387
541.66        15.31416
542.10        15.41693
542.54         15.3302
542.97        15.45946
543.41        15.51914
543.85        15.61929
544.29        15.72303
544.72        15.80926
545.16        15.89003
545.60         15.9593
546.04        15.96472
546.47        15.96307
546.91        16.14668
547.35        16.47439
547.79        16.72471
548.22        16.85092
548.66        16.89521
549.10        16.88678
549.53        16.95128
549.97         17.1083
550.41        17.07711
550.84        17.18265
551.28        17.25144
551.72         17.3928
552.15        17.57065
552.59        17.77929
553.03        18.01645
553.46        18.23613
553.90        18.38454
554.34        18.45129
554.77        18.45194
555.21         18.4288
555.65        18.44075
556.08        18.50222
556.52        18.59623
556.96         18.7036
557.39        18.81878
557.83        18.92545
558.27         18.9806
558.70        18.99565
559.14        19.02382
559.57         19.0649
560.01        19.11624
560.45        19.15604
560.88        19.12738
561.32        19.07109
561.75        19.04585
562.19        19.13757
562.63        19.20608
563.06        19.26925
563.50        19.37147
563.93        19.49045
564.37        19.62632
564.80        19.67921
565.24        19.73556
565.68        19.76951
566.11        19.80997
566.55        19.87654
566.98        19.92355
567.42        19.93975
567.85        20.15869
568.29         20.0605
568.72        20.26422
569.16        20.56077
569.60        20.76475
570.03        20.85042
570.47        20.93111
570.90        20.92094
571.34        21.20073
571.77        21.08455
572.21        21.27863
572.64        21.47837
573.08        21.47998
573.51        21.62743
573.95        22.16511
574.38        22.27541
574.82        22.41665
