SpectraSmart Spectrum 2.9.0.0
--------- Device Information -----------
Spectrum Name :  反射率_0
Saving Time :  2024/04/20 00:52:33
Spectro-Module Model Name : SE2030-DUVN
Spectro-Module Serial Number : OS361AC55029948
Wavelength Start : 200
Wavelength End : 1025
Wavelength Unit : Wavelength(nm)
Spectrum Unit : Reflectance(%)
-----------Spectrum Setting ------------
Integration Time : 30ms
Average : 10
Boxcar : 0
Background removal :  enabled
linearity correction :  enabled
SC :  disabled
Intensity correction :  disabled
DWT denoise :  enabled
savitzky-golay :  disabled
FFT :  disabled
Running average :  disabled
Kalman :  disabled
High pass :  disabled
---------------BEGIN--------------------
Wavelength(nm)             Reflectance(%)
200.29               0
200.75        69.38261
201.21         69.3793
201.67        71.28319
202.13        75.74843
202.58        82.89445
203.04        93.08285
203.50        102.8586
203.96         103.867
204.42        96.17993
204.88        85.31695
205.34         76.0078
205.80        70.24912
206.26        66.97379
206.72        64.85916
207.18        63.46943
207.64        62.40822
208.10        61.80359
208.55          62.468
209.01        63.49584
209.47        64.66538
209.93        65.79756
210.39        66.78849
210.85         67.1991
211.31        66.62752
211.77        64.90382
212.23        61.65939
212.69        57.64384
213.14        56.35369
213.60        58.56935
214.06        62.70417
214.52        66.01575
214.98        66.91294
215.44        65.71989
215.90        62.69821
216.36        59.36981
216.81        59.31414
217.27         63.4641
217.73        70.39243
218.19        76.63377
218.65        77.67152
219.11        72.70514
219.57         62.5228
220.02        49.92155
220.48        42.50974
220.94        43.23859
221.40        50.69375
221.86        60.56124
222.32        66.06697
222.77        65.47852
223.23        61.03843
223.69        56.10231
224.15        55.31972
224.61        58.64964
225.06        63.50172
225.52        67.37231
225.98        68.14009
226.44        65.88033
226.90         61.6418
227.36        56.84175
227.81         53.9766
228.27        54.10024
228.73        56.04062
229.19        58.60557
229.65        60.42879
230.10        61.19611
230.56        61.44122
231.02        61.42535
231.48        61.47583
231.93        61.61049
232.39        61.70204
232.85        61.56262
233.31        61.00154
233.77         60.0035
234.22        58.67691
234.68        57.25872
235.14        56.05262
235.60        55.22562
236.05        54.78443
236.51        54.61412
236.97        54.47253
237.43        54.29443
237.88        54.24383
238.34        54.37358
238.80        55.25664
239.26        56.97477
239.71        59.16206
240.17        61.09506
240.63        62.36838
241.08        63.00309
241.54        63.08574
242.00        62.49607
242.46        60.84362
242.91        57.78349
243.37        52.36443
243.83        45.18843
244.28        41.58051
244.74        46.31128
245.20        58.24107
245.66        69.03563
246.11        71.48664
246.57         64.8129
247.03        48.98069
247.48        27.75209
247.94        21.86996
248.40        33.97301
248.85        49.24321
249.31        60.50852
249.77        66.37429
250.22        68.42564
250.68        68.40861
251.14         66.8664
251.59        64.59598
252.05        62.40625
252.51        60.13557
252.96        57.61748
253.42        55.04638
253.88        52.82222
254.33         51.3355
254.79        51.79989
255.25        54.93879
255.70        60.00654
256.16        65.81439
256.62        70.44957
257.07        71.81687
257.53        70.15533
257.99        66.42966
258.44        61.77647
258.90        58.45825
259.35        56.47585
259.81        55.60816
260.27        54.89339
260.72        53.50587
261.18         51.6349
261.63        49.21035
262.09        47.12318
262.55        46.10813
263.00         46.1123
263.46        46.87126
263.91        47.38837
264.37        46.72919
264.83         44.9192
265.28        42.34672
265.74        40.12274
266.19        39.38219
266.65        40.23265
267.11        42.03693
267.56        43.88617
268.02        44.48341
268.47        43.61609
268.93        41.74405
269.38        39.46062
269.84        37.96332
270.30        37.56868
270.75        37.91196
271.21        38.53008
271.66        38.73801
272.12        38.33912
272.57        37.56239
273.03        36.67922
273.48        36.00262
273.94        35.66455
274.39        35.50091
274.85        35.35639
275.31         34.9915
275.76        34.34668
276.22        33.54111
276.67        32.73104
277.13        32.24166
277.58        32.06323
278.04        32.12147
278.49        32.13649
278.95        31.78238
279.40        30.99348
279.86        29.98569
280.31         28.9637
280.77         28.3546
281.22        28.15837
281.68        28.24864
282.13        28.41889
282.59        28.40669
283.04        28.13613
283.50        27.73733
283.95        27.25411
284.41        26.78714
284.86        26.35221
285.32        25.92962
285.77         25.5618
286.22         25.3874
286.68        25.40188
287.13         25.5449
287.59        25.66857
288.04        25.52344
288.50        25.09786
288.95        24.45217
289.41        23.77149
289.86        23.27308
290.32        23.06089
290.77        23.04442
291.22        23.15999
291.68        23.27732
292.13        23.35558
292.59        23.44814
293.04        23.57291
293.50        23.76823
293.95        24.03569
294.40        24.34496
294.86        24.68417
295.31        25.05324
295.77        25.45012
296.22        25.88096
296.68        26.33147
297.13        26.75006
297.58        27.14139
298.04        27.52901
298.49        27.95468
298.95         28.5203
299.40        29.22481
299.85        30.02728
300.31        30.85891
300.76        31.61491
301.21         32.2607
301.67        32.84296
302.12        33.35475
302.58        33.84549
303.03        34.31034
303.48        34.75169
303.94        35.21762
304.39        35.74468
304.84        36.33946
305.30        36.97554
305.75        37.56851
306.20        38.01001
306.66        38.29785
307.11        38.45532
307.57        38.55013
308.02        38.61176
308.47        38.68544
308.93        38.75358
309.38        38.84628
309.83        39.05924
310.29        39.38632
310.74        39.79989
311.19        40.15917
311.65         40.2381
312.10        39.99727
312.55        39.50956
313.00        38.96704
313.46        38.66704
313.91        38.66215
314.36        38.88382
314.82        39.16266
315.27        39.24306
315.72        39.04848
316.18        38.67642
316.63        38.25994
317.08        38.00905
317.53        37.96985
317.99        38.05999
318.44        38.17927
318.89        38.15869
319.35        37.95118
319.80        37.61644
320.25        37.22958
320.70        36.90812
321.16        36.68431
321.61        36.52637
322.06        36.38749
322.51        36.19838
322.97        35.93248
323.42         35.6225
323.87        35.29693
324.32        35.00492
324.78        34.75383
325.23        34.53606
325.68        34.31406
326.13        34.03421
326.59        33.68871
327.04        33.32706
327.49        32.98813
327.94        32.73516
328.39        32.58678
328.85        32.50407
329.30        32.51332
329.75         32.6043
330.20        32.75219
330.66        32.92506
331.11         33.0732
331.56        33.06483
332.01          32.871
332.46        32.51707
332.92        32.07686
333.37        31.69929
333.82        31.43972
334.27        31.28687
334.72        31.19963
335.17        31.09844
335.63        30.94946
336.08        30.78372
336.53        30.65867
336.98        30.67662
337.43        30.84719
337.88        31.13476
338.34        31.37396
338.79        31.34859
339.24        30.99979
339.69        30.39054
340.14        29.75302
340.59        29.47838
341.05        29.64354
341.50        30.13642
341.95         30.6942
342.40        30.90707
342.85        30.68686
343.30        30.17867
343.75        29.58331
344.20        29.22859
344.66        29.20143
345.11        29.35789
345.56        29.60831
346.01        29.81107
346.46        29.89934
346.91        29.93867
347.36        29.85995
347.81        29.54212
348.26        29.00652
348.72        28.32345
349.17        27.66671
349.62        27.40739
350.07        27.62118
350.52        28.17582
350.97         28.8676
351.42        29.38711
351.87        29.63273
352.32        29.68001
352.77        29.55655
353.22        29.31458
353.67        28.99953
354.13         28.6145
354.58        28.20449
355.03        27.88845
355.48        27.69892
355.93        27.62467
356.38        27.63323
356.83        27.65588
357.28        27.65878
357.73        27.64488
358.18         27.5984
358.63        27.49898
359.08        27.34396
359.53        27.13977
359.98        26.89155
360.43        26.60954
360.88        26.30902
361.33         25.9989
361.78        25.72155
362.23        25.54374
362.68        25.47089
363.13        25.46944
363.58        25.48423
364.03        25.42888
364.48        25.27348
364.93        25.03993
365.38        24.73071
365.83        24.35907
366.28        23.95163
366.73        23.51873
367.18        23.11779
367.63        22.83495
368.08        22.68365
368.53        22.63865
368.98        22.64472
369.43        22.60792
369.88         22.5021
370.33        22.35653
370.78        22.18354
371.23        22.01027
371.68        21.85283
372.13        21.69256
372.58        21.56749
373.03        21.54541
373.48        21.62519
373.93        21.77902
374.38        21.91671
374.83        21.89837
375.28         21.6979
375.72        21.35193
376.17        20.96412
376.62        20.66331
377.07        20.49866
377.52        20.43699
377.97        20.44561
378.42        20.47163
378.87        20.48812
379.32        20.50175
379.77        20.51427
380.22        20.52488
380.67        20.52924
381.11        20.52599
381.56        20.47245
382.01        20.32405
382.46        20.08029
382.91        19.75797
383.36        19.44177
383.81        19.25524
384.26        19.22152
384.71        19.31643
385.15        19.42881
385.60        19.38906
386.05        19.16652
386.50        18.81272
386.95        18.46816
387.40        18.35504
387.85        18.50625
388.29        18.83076
388.74        19.16607
389.19         19.2796
389.64        19.12643
390.09         18.7786
390.54         18.3695
390.98        18.10572
391.43        18.05936
391.88        18.15292
392.33        18.27535
392.78        18.26733
393.23        18.10702
393.67        17.84944
394.12        17.61642
394.57        17.51118
395.02        17.55604
395.47         17.7089
395.91         17.9046
396.36        18.01043
396.81        17.99388
397.26        17.88744
397.71        17.76065
398.15        17.70339
398.60        17.75583
399.05        17.87499
399.50        17.99158
399.95        18.00817
400.39        17.90742
400.84        17.71894
401.29        17.52528
401.74         17.4748
402.18        17.60698
402.63          17.862
403.08        18.12451
403.53        18.21149
403.97        18.08588
404.42        17.81937
404.87        17.52208
405.32        17.37546
405.76        17.42439
406.21        17.60696
406.66        17.83981
407.11        17.99341
407.55        18.03158
408.00        18.00025
408.45        17.93338
408.90        17.84058
409.34        17.75999
409.79        17.76707
410.24        17.82848
410.68         17.8202
411.13        17.74085
411.58        17.66716
412.03        17.61847
412.47        17.60067
412.92        17.61726
413.37        17.65594
413.81        17.72795
414.26        17.86577
414.71         18.0582
415.15        18.30092
415.60        18.50294
416.05        18.54427
416.49        18.40073
416.94        18.11604
417.39         17.7981
417.83        17.62281
418.28        17.63991
418.73        17.79016
419.17        17.98923
419.62        18.09196
420.07        18.06535
420.51        17.96029
420.96        17.82614
421.41        17.71762
421.85        17.65207
422.30        17.61996
422.74        17.62265
423.19        17.69614
423.64        17.83037
424.08         18.0277
424.53        18.22527
424.98        18.33665
425.42        18.34139
425.87        18.26642
426.31        18.15425
426.76        18.08393
427.21        18.06782
427.65        18.07266
428.10        18.11383
428.54        18.18889
428.99        18.29047
429.44            18.5
429.88        18.70037
430.33        18.58384
430.77        18.21659
431.22        17.97485
431.66        17.92872
432.11        17.98038
432.56         18.1143
433.00        18.41111
433.45        18.67681
433.89        18.62144
434.34        18.35969
434.78        18.08096
435.23        17.78874
435.67        18.70319
436.12         18.2138
436.57        18.25706
437.01        18.11031
437.46         18.0823
437.90        18.17841
438.35        18.24806
438.79        18.27036
439.24         18.2944
439.68        18.31739
440.13        18.17937
440.57        17.96681
441.02        18.11237
441.46        18.44225
441.91        18.40325
442.35        17.60812
442.80        17.33983
443.24        17.42468
443.69        17.46121
444.13        17.40437
444.58        17.37889
445.02        17.38313
445.47        17.43394
445.91         17.5003
446.36        17.49129
446.80        17.39511
447.24        17.25759
447.69        17.13457
448.13        17.07662
448.58        17.10324
449.02        17.19321
449.47        17.29581
449.91        17.31999
450.36        17.25391
450.80        17.12834
451.25        17.00056
451.69        16.94124
452.13        16.97337
452.58         17.0603
453.02        17.17992
453.47        17.30124
453.91        17.40915
454.36        17.51289
454.80        17.58379
455.24        17.57237
455.69        17.48287
456.13        17.31379
456.58        17.14327
457.02        17.07835
457.46        17.13494
457.91        17.24245
458.35        17.34711
458.79        17.41026
459.24        17.41065
459.68        17.36617
460.13        17.35667
460.57         17.3398
461.01        17.30993
461.46        17.72468
461.90        17.86859
462.34        17.71474
462.79        17.84546
463.23        17.67477
463.68        17.51725
464.12        17.41873
464.56        17.53936
465.01        17.72898
465.45        17.91306
465.89        18.00402
466.34        17.99001
466.78        17.84524
467.22        17.64891
467.67        17.65305
468.11        17.83008
468.55        17.81773
468.99        17.64162
469.44         17.6308
469.88        17.79372
470.32        17.94514
470.77        18.03311
471.21        18.06651
471.65        18.03585
472.10        17.94264
472.54         17.8328
472.98        17.81993
473.42        17.92135
473.87        18.04914
474.31        18.17193
474.75        18.35301
475.20        18.53946
475.64        18.54461
476.08        18.41981
476.52         18.4083
476.97        18.52666
477.41        18.65922
477.85        18.76468
478.29        18.83418
478.74        18.85949
479.18        18.81189
479.62        18.75382
480.06        18.78913
480.50        18.90932
480.95        18.99637
481.39        19.01867
481.83         19.0187
482.27        18.99751
482.72        18.94309
483.16        18.88671
483.60        18.89079
484.04        18.96787
484.48        19.12812
484.93        19.40788
485.37        19.57882
485.81        19.76696
486.25        20.14483
486.69        20.76916
487.14        20.12061
487.58        19.75665
488.02        20.99752
488.46        20.30954
488.90        20.48694
489.34        20.30332
489.79        20.47142
490.23        20.88778
490.67        21.05363
491.11        20.98779
491.55        20.93429
491.99        20.93872
492.43        20.94843
492.88        20.98149
493.32        21.04585
493.76        21.14853
494.20        21.30077
494.64        21.50084
495.08        21.74368
495.52        21.99142
495.96        22.19155
496.41        22.34049
496.85        22.43016
497.29        22.49754
497.73        22.68689
498.17        22.97417
498.61        23.12746
499.05         23.1474
499.49        23.26335
499.93        23.48605
500.37        23.62311
500.82        23.69395
501.26        23.92192
501.70        24.25319
502.14        24.35509
502.58         24.2509
503.02        24.25599
503.46        24.38698
503.90         24.4691
504.34        24.48584
504.78        24.49219
505.22        24.48998
505.66        24.47551
506.10        24.46072
506.54        24.46066
506.98        24.48388
507.42        24.53082
507.86        24.61044
508.30        24.73415
508.74        24.89502
509.18        25.07917
509.62        25.26108
510.06        25.40092
510.50        25.48908
510.94        25.54115
511.38        25.55806
511.82        25.54503
512.26        25.51214
512.70        25.45652
513.14         25.4215
513.58        25.47039
514.02        25.60327
514.46         25.8054
514.90        26.00556
515.34        26.02289
515.78        25.87802
516.22        25.67013
516.66        25.50691
517.10        25.22857
517.54        24.86566
517.98        25.46119
518.42        25.41025
518.86        25.68451
519.30        25.78535
519.74        25.88138
520.18        25.94876
520.62        25.92904
521.06        25.83962
521.50        25.67934
521.93        25.50133
522.37        25.40281
522.81        25.40434
523.25        25.48303
523.69        25.58737
524.13         25.6335
524.57        25.59921
525.01        25.50742
525.45         25.3975
525.89        25.33208
526.32        25.32584
526.76        25.35988
527.20        25.39408
527.64        25.37022
528.08        25.27545
528.52        25.12873
528.96        24.97576
529.40        24.88382
529.83        24.86507
530.27        24.90289
530.71        24.94314
531.15        24.90342
531.59        24.77057
532.03        24.57699
532.46        24.37937
532.90         24.2835
533.34         24.3033
533.78        24.40082
534.22        24.52581
534.66         24.6019
535.09        24.60257
535.53        24.56054
535.97        24.48971
536.41        24.40859
536.85        24.33022
537.28        24.26009
537.72        24.22144
538.16        24.17789
538.60        24.25045
539.04        24.32772
539.47        24.41041
539.91        24.50848
540.35        24.62919
540.79        24.56302
541.22        24.64349
541.66        24.72034
542.10        24.91257
542.54         24.8088
542.97        25.05615
543.41        25.17835
543.85        25.34898
544.29        25.50769
544.72         25.6266
545.16        25.73697
545.60        25.83215
546.04        25.82731
546.47        25.80572
546.91        26.06469
547.35        26.54115
547.79         26.8781
548.22        27.02211
548.66        27.10068
549.10        27.14811
549.53        27.29296
549.97         27.5622
550.41        27.55109
550.84        27.77704
551.28        27.92717
551.72        28.14933
552.15        28.35374
552.59        28.53528
553.03        28.70819
553.46        28.85707
553.90        28.98727
554.34         29.0971
554.77        29.18585
555.21        29.27008
555.65         29.3631
556.08        29.46438
556.52         29.5675
556.96        29.67141
557.39        29.81087
557.83        29.97448
558.27         30.0822
558.70        30.13271
559.14        30.18745
559.57        30.23928
560.01        30.28881
560.45        30.32998
560.88        30.31449
561.32        30.30748
561.75        30.38934
562.19        30.64512
562.63         30.7734
563.06        30.79632
563.50        30.80264
563.93          30.816
564.37        30.97965
564.80        31.12625
565.24        31.23262
565.68        31.25015
566.11        31.32956
566.55        31.49386
566.98        31.60032
567.42        31.62837
567.85        31.98307
568.29        31.83904
568.72        32.16421
569.16        32.62648
569.60        32.91735
570.03        32.98551
570.47        33.05948
570.90        33.01846
571.34        33.36378
571.77        33.05402
572.21        33.58007
572.64          33.618
573.08        33.79274
573.51        33.89574
573.95        34.51923
574.38        34.61288
574.82        34.80851
