SpectraSmart Spectrum 2.9.0.0
--------- Device Information -----------
Spectrum Name :  反射率_0
Saving Time :  2024/04/20 00:29:32
Spectro-Module Model Name : SE2030-DUVN
Spectro-Module Serial Number : OS361AC55029948
Wavelength Start : 200
Wavelength End : 1025
Wavelength Unit : Wavelength(nm)
Spectrum Unit : Reflectance(%)
-----------Spectrum Setting ------------
Integration Time : 30ms
Average : 10
Boxcar : 0
Background removal :  enabled
linearity correction :  enabled
SC :  disabled
Intensity correction :  disabled
DWT denoise :  enabled
savitzky-golay :  disabled
FFT :  disabled
Running average :  disabled
Kalman :  disabled
High pass :  disabled
---------------BEGIN--------------------
Wavelength(nm)             Reflectance(%)
200.29               0
200.75        56.31986
201.21        56.74601
201.67        59.23958
202.13        63.87733
202.58        70.43678
203.04        78.87772
203.50        87.10276
203.96        89.71831
204.42        86.23649
204.88        80.12057
205.34        73.93058
205.80        68.40272
206.26        62.53624
206.72        54.41127
207.18        43.91236
207.64        36.94487
208.10        39.80595
208.55         51.0336
209.01        62.12486
209.47        66.09124
209.93        63.54732
210.39        57.39193
210.85        50.81706
211.31        47.16769
211.77        46.93262
212.23        49.26805
212.69        53.54752
213.14        56.76585
213.60        56.65981
214.06        55.32939
214.52        54.36206
214.98        54.89227
215.44        56.83336
215.90        59.48226
216.36        62.63916
216.81        65.41827
217.27        66.94579
217.73        67.74472
218.19        66.95689
218.65        63.23289
219.11        56.41124
219.57        46.23097
220.02        35.08812
220.48        29.71906
220.94        32.33589
221.40        41.92041
221.86        53.07171
222.32         57.3468
222.77        53.08627
223.23        43.16792
223.69        33.10137
224.15        30.70977
224.61        35.85486
225.06        44.24311
225.52        51.49125
225.98        53.92006
226.44        51.58728
226.90        46.19948
227.36        39.76153
227.81        35.84029
228.27        35.85203
228.73          38.181
229.19        41.33917
229.65        43.64704
230.10        44.74079
230.56        45.26228
231.02        45.49419
231.48        45.72121
231.93        45.99849
232.39        46.17767
232.85          46.192
233.31        46.02532
233.77        45.69939
234.22        45.29896
234.68        44.92391
235.14        44.59916
235.60        44.40082
236.05        44.37107
236.51        44.63538
236.97        45.39928
237.43        46.82714
237.88        49.21074
238.34        52.45583
238.80        55.96926
239.26        58.85526
239.71        60.67956
240.17        61.46917
240.63        62.30108
241.08        63.59312
241.54        65.00816
242.00         65.9212
242.46        65.03321
242.91        61.63966
243.37        55.02862
243.83        45.59831
244.28        38.96872
244.74        41.20198
245.20        51.78899
245.66        63.03579
246.11        68.09563
246.57        66.34804
247.03        58.44305
247.48        46.74681
247.94        43.83351
248.40         51.1315
248.85        60.01845
249.31        66.18824
249.77        68.64918
250.22        68.33302
250.68         66.2329
251.14        63.21827
251.59        61.26647
252.05        61.71824
252.51        64.24597
252.96        67.43564
253.42        68.87949
253.88        68.13639
254.33        66.35861
254.79        65.66492
255.25        67.85087
255.70        72.50182
256.16        78.14504
256.62        83.32948
257.07        86.52892
257.53        87.73058
257.99        87.43287
258.44        85.51309
258.90        82.82549
259.35        79.68638
259.81        77.14606
260.27        75.07684
260.72        73.32611
261.18         72.0593
261.63        70.70506
262.09        69.83893
262.55        69.66421
263.00        69.94386
263.46        70.64305
263.91        70.85284
264.37        69.89703
264.83        67.78625
265.28        64.84016
265.74        62.09943
266.19         60.4946
266.65        60.23083
267.11        60.77517
267.56        61.43402
268.02        61.22663
268.47        59.94857
268.93        57.95802
269.38        55.66343
269.84        53.95739
270.30        53.07522
270.75        52.74787
271.21        52.64049
271.66         52.2335
272.12        51.37674
272.57         50.2272
273.03        49.00992
273.48        47.96165
273.94        47.21709
274.39        46.65331
274.85        46.15112
275.31        45.48697
275.76        44.59738
276.22        43.58174
276.67         42.6023
277.13         42.0253
277.58        41.81433
278.04        41.88371
278.49         41.8565
278.95        41.30147
279.40        40.13444
279.86        38.63353
280.31        37.09924
280.77        36.11794
281.22        35.71004
281.68        35.72163
282.13        35.85493
282.59        35.72881
283.04        35.24245
283.50        34.57878
283.95         33.8753
284.41        33.37822
284.86        33.11716
285.32        33.03183
285.77         33.0376
286.22        33.09084
286.68        33.15882
287.13        33.22826
287.59        33.29353
288.04        33.30177
288.50        33.26443
288.95         33.1436
289.41        32.98272
289.86        32.76613
290.32        32.55795
290.77        32.37568
291.22        32.25485
291.68        32.20574
292.13        32.25051
292.59        32.41964
293.04         32.7835
293.50        33.46837
293.95        34.45947
294.40        35.68801
294.86        37.01566
295.31        38.23711
295.77        39.29218
296.22        40.22403
296.68        41.08043
297.13         41.9306
297.58        42.81021
298.04        43.69633
298.49        44.59953
298.95         45.5899
299.40        46.64943
299.85        47.76161
300.31        48.86914
300.76        49.85612
301.21        50.70274
301.67        51.47692
302.12        52.16984
302.58        52.86332
303.03        53.54942
303.48        54.23703
303.94        54.99404
304.39        55.86606
304.84        56.85802
305.30        57.93215
305.75        58.95029
306.20          59.743
306.66        60.29575
307.11        60.63008
307.57         60.8572
308.02        61.04673
308.47         61.2621
308.93        61.47355
309.38        61.67633
309.83        61.93797
310.29        62.25292
310.74        62.60738
311.19        62.88503
311.65        62.88831
312.10        62.58458
312.55         62.0453
313.00        61.46846
313.46        61.15854
313.91        61.16172
314.36        61.40474
314.82        61.69965
315.27        61.76829
315.72        61.52217
316.18        61.07175
316.63        60.54456
317.08        60.15939
317.53        59.96826
317.99        59.88527
318.44        59.83285
318.89        59.67345
319.35        59.36769
319.80        58.97444
320.25        58.53985
320.70        58.13393
321.16        57.77562
321.61        57.44792
322.06        57.13631
322.51        56.82937
322.97        56.50732
323.42        56.18504
323.87        55.84583
324.32         55.4691
324.78        55.04198
325.23        54.59506
325.68        54.11774
326.13        53.60899
326.59        53.08075
327.04        52.57005
327.49        52.12041
327.94        51.80964
328.39        51.64281
328.85        51.56103
329.30        51.55017
329.75        51.49625
330.20        51.35514
330.66        51.12998
331.11        50.83618
331.56        50.43147
332.01        49.92781
332.46        49.34048
332.92         48.7426
333.37        48.29885
333.82        48.04903
334.27        47.97284
334.72        48.00821
335.17        48.03381
335.63        47.98766
336.08        47.91354
336.53        47.82017
336.98        47.75462
337.43        47.72309
337.88        47.69613
338.34        47.61378
338.79        47.43738
339.24        47.14174
339.69        46.75428
340.14         46.3546
340.59        46.07045
341.05        45.92992
341.50        45.91183
341.95        45.94186
342.40        45.89869
342.85        45.75127
343.30        45.54065
343.75          45.315
344.20         45.1537
344.66         45.0742
345.11        45.02516
345.56         44.9925
346.01        44.95407
346.46        44.89138
346.91        44.81929
347.36        44.69138
347.81        44.42945
348.26        44.03899
348.72        43.57419
349.17        43.11052
349.62        42.84301
350.07        42.81641
350.52        42.96268
350.97        43.18845
351.42        43.35296
351.87        43.39823
352.32        43.34616
352.77        43.18944
353.22        42.92298
353.67         42.5635
354.13        42.13703
354.58         41.6569
355.03        41.19294
355.48        40.77979
355.93        40.42595
356.38        40.15409
356.83        39.98689
357.28        39.91359
357.73        39.90854
358.18        39.92928
358.63          39.908
359.08        39.81345
359.53        39.65573
359.98        39.41833
360.43        39.08005
360.88        38.65465
361.33        38.16151
361.78        37.67028
362.23        37.29781
362.68        37.07269
363.13        36.95767
363.58         36.8991
364.03        36.80633
364.48        36.64175
364.93        36.42371
365.38        36.13918
365.83        35.77687
366.28        35.34811
366.73        34.85643
367.18        34.35804
367.63        33.94144
368.08        33.62897
368.53        33.41144
368.98        33.23135
369.43        32.98736
369.88        32.66013
370.33         32.2811
370.78        31.91607
371.23        31.67998
371.68        31.59934
372.13        31.62518
372.58         31.6948
373.03        31.70793
373.48        31.62314
373.93         31.4642
374.38        31.23745
374.83        30.95215
375.28        30.61914
375.72         30.2272
376.17        29.82898
376.62         29.4721
377.07        29.18204
377.52        28.96146
377.97        28.79915
378.42        28.66769
378.87        28.55612
379.32        28.46683
379.77        28.40456
380.22        28.37584
380.67        28.37428
381.11        28.39121
381.56        28.38411
382.01        28.31121
382.46        28.15849
382.91        27.92889
383.36        27.66893
383.81        27.44771
384.26        27.28461
384.71         27.1822
385.15        27.06921
385.60        26.84348
386.05        26.49477
386.50        26.05694
386.95         25.6731
387.40        25.56553
387.85        25.75663
388.29        26.15092
388.74        26.55289
389.19        26.66563
389.64        26.43783
390.09         25.9574
390.54        25.40841
390.98        25.08179
391.43        25.06812
391.88        25.25169
392.33         25.4721
392.78        25.49907
393.23        25.29616
393.67        24.94254
394.12        24.59043
394.57        24.36016
395.02        24.28185
395.47        24.30316
395.91        24.37253
396.36        24.37986
396.81        24.30532
397.26        24.18203
397.71        24.05837
398.15         23.9846
398.60        23.99863
399.05        24.05992
399.50        24.11912
399.95        24.10972
400.39        24.01586
400.84        23.85161
401.29        23.66922
401.74         23.5664
402.18        23.57629
402.63        23.66722
403.08        23.75995
403.53        23.72036
403.97         23.5265
404.42        23.23473
404.87        22.95574
405.32        22.87188
405.76        23.01347
406.21        23.31026
406.66         23.6396
407.11        23.81111
407.55        23.77661
408.00        23.59912
408.45        23.34525
408.90        23.07713
409.34        22.86809
409.79        22.81021
410.24        22.85372
410.68        22.82299
411.13        22.70678
411.58        22.60466
412.03        22.53561
412.47        22.49637
412.92        22.48839
413.37        22.49908
413.81         22.5391
414.26        22.64468
414.71        22.80514
415.15         23.0155
415.60        23.18706
416.05        23.20761
416.49        23.05308
416.94        22.76221
417.39        22.43593
417.83        22.23721
418.28        22.21434
418.73        22.31584
419.17         22.4588
419.62        22.50279
420.07        22.41766
420.51        22.25021
420.96        22.06684
421.41         21.9457
421.85         21.9017
422.30        21.91809
422.74        21.96015
423.19        22.01437
423.64        22.06066
424.08        22.11746
424.53        22.15427
424.98        22.15297
425.42        22.11631
425.87        22.05073
426.31        21.97064
426.76        21.90866
427.21         21.8608
427.65        21.80951
428.10        21.77953
428.54        21.78113
428.99        21.81986
429.44        21.99017
429.88        22.17149
430.33        22.02983
430.77        21.64204
431.22        21.44319
431.66        21.49094
432.11        21.62378
432.56        21.80375
433.00        22.13693
433.45        22.42674
433.89        22.29645
434.34        21.87997
434.78        21.58518
435.23        21.41682
435.67         21.9794
436.12        21.53766
436.57        21.36602
437.01        21.05257
437.46         20.9294
437.90        21.02486
438.35        21.17024
438.79        21.28652
439.24        21.36279
439.68        21.37558
440.13        21.15853
440.57        20.85797
441.02        21.04059
441.46        21.51827
441.91        21.62977
442.35        20.84446
442.80        20.57077
443.24        20.59894
443.69        20.49397
444.13        20.26058
444.58        20.13014
445.02        20.12539
445.47        20.23615
445.91        20.39781
446.36        20.45734
446.80        20.38268
447.24        20.24458
447.69        20.10368
448.13        20.01116
448.58        19.99371
449.02        20.02669
449.47        20.07519
449.91        20.07701
450.36        20.02316
450.80        19.93171
451.25        19.84177
451.69        19.79081
452.13        19.79512
452.58        19.83405
453.02        19.88501
453.47        19.91879
453.91        19.92498
454.36        19.90752
454.80        19.87154
455.24        19.82404
455.69        19.77581
456.13        19.70506
456.58        19.62663
457.02        19.55185
457.46        19.48386
457.91        19.38222
458.35        19.26349
458.79        19.20172
459.24        19.19689
459.68        19.22927
460.13        19.33047
460.57        19.36567
461.01        19.30278
461.46        19.68066
461.90        19.73444
462.34        19.48806
462.79        19.59494
463.23        19.39223
463.68         19.2068
464.12        19.06261
464.56        19.13147
465.01        19.26735
465.45        19.40357
465.89        19.46086
466.34        19.42817
466.78        19.26742
467.22         19.0621
467.67         19.0826
468.11        19.29492
468.55        19.30741
468.99        19.13101
469.44        19.09694
469.88        19.21221
470.32        19.28539
470.77        19.28801
471.21         19.2725
471.65        19.23727
472.10        19.16812
472.54        19.09464
472.98        19.10467
473.42        19.20609
473.87        19.31824
474.31        19.40757
474.75        19.54193
475.20        19.66938
475.64         19.5907
476.08        19.38396
476.52        19.34077
476.97        19.48133
477.41        19.67348
477.85        19.84143
478.29        19.92023
478.74        19.89017
479.18        19.74306
479.62        19.57629
480.06        19.54453
480.50        19.65166
480.95        19.76003
481.39        19.82463
481.83         19.8707
482.27        19.88837
482.72        19.86707
483.16        19.82898
483.60        19.83029
484.04        19.88108
484.48        19.99837
484.93        20.21688
485.37        20.38906
485.81        20.37747
486.25        20.87584
486.69         21.7238
487.14        21.05315
487.58        20.88001
488.02        21.50869
488.46        21.07914
488.90        21.15295
489.34        21.01154
489.79        21.23131
490.23        21.68538
490.67        21.88942
491.11         21.8343
491.55        21.75953
491.99        21.71936
492.43        21.69408
492.88        21.71381
493.32        21.78008
493.76        21.89869
494.20        22.08047
494.64        22.32024
495.08        22.60439
495.52         22.8953
495.96        23.15257
496.41        23.36228
496.85        23.48552
497.29        23.54697
497.73        23.70218
498.17        23.92772
498.61        23.97623
499.05        23.88712
499.49        23.96769
499.93        24.24286
500.37        24.49113
500.82        24.69635
501.26        25.03457
501.70        25.43135
502.14        25.55223
502.58        25.42954
503.02        25.40785
503.46        25.51498
503.90        25.56775
504.34        25.55725
504.78        25.55655
505.22        25.57084
505.66        25.58929
506.10        25.62852
506.54        25.70789
506.98        25.82933
507.42        25.98993
507.86        26.16142
508.30        26.29654
508.74        26.38134
509.18        26.42137
509.62        26.44815
510.06        26.51447
510.50        26.63221
510.94        26.78967
511.38        26.93901
511.82        27.00239
512.26        26.96527
512.70        26.85171
513.14        26.73243
513.58         26.7142
514.02        26.81193
514.46        26.99429
514.90        27.18605
515.34        27.20082
515.78        27.05884
516.22        26.86175
516.66        26.70778
517.10        26.42185
517.54        26.03243
517.98         26.5702
518.42        26.47325
518.86        26.73066
519.30        26.85461
519.74        26.99706
520.18        27.11292
520.62        27.11027
521.06        26.99763
521.50        26.78826
521.93         26.5422
522.37        26.36816
522.81        26.29643
523.25        26.30208
523.69        26.35123
524.13        26.38733
524.57        26.38822
525.01        26.36569
525.45        26.32853
525.89        26.28917
526.32        26.24979
526.76        26.20628
527.20        26.13867
527.64        26.02422
528.08        25.86204
528.52        25.65937
528.96        25.46201
529.40        25.33592
529.83        25.29148
530.27        25.31988
530.71         25.3508
531.15        25.27386
531.59        25.07351
532.03        24.78717
532.46         24.5077
532.90        24.39964
533.34        24.48268
533.78         24.6957
534.22        24.93483
534.66        25.04128
535.09        24.97226
535.53        24.78907
535.97        24.55306
536.41         24.3585
536.85        24.24105
537.28        24.18432
537.72          24.186
538.16        24.16861
538.60        24.23958
539.04        24.30183
539.47        24.36695
539.91        24.45945
540.35        24.59007
540.79        24.54143
541.22         24.6388
541.66        24.72249
542.10        24.91039
542.54         24.7975
542.97        25.03866
543.41        25.16896
543.85        25.36462
544.29        25.56016
544.72        25.72364
545.16        25.88111
545.60        26.02174
546.04        26.05998
546.47        26.07423
546.91        26.35274
547.35        26.83052
547.79        27.16236
548.22        27.30154
548.66        27.36219
549.10         27.3967
549.53         27.5923
549.97        27.96526
550.41        28.02387
550.84        28.26901
551.28        28.46473
551.72        28.78756
552.15        29.01552
552.59        29.11301
553.03        29.71062
553.46        29.70193
553.90        29.91077
554.34        30.01772
554.77        30.06029
555.21        30.07987
555.65        30.14965
556.08         30.2894
556.52        30.46437
556.96        30.64625
557.39        30.82618
557.83        30.98209
558.27        31.04961
558.70        31.04684
559.14        31.06604
559.57        31.11007
560.01         31.1711
560.45        31.24004
560.88         31.2587
561.32        31.28648
561.75        31.41888
562.19        31.73805
562.63        31.88172
563.06        31.88225
563.50        31.93279
563.93        32.03736
564.37        32.17373
564.80        32.19489
565.24        32.30236
565.68        32.44378
566.11        32.48669
566.55         32.6786
566.98        32.77898
567.42        32.83287
567.85        33.22129
568.29        33.08862
568.72         33.4349
569.16        33.91249
569.60        34.26654
570.03        34.35728
570.47        34.46733
570.90        34.41956
571.34        34.83244
571.77          34.645
572.21        35.00251
572.64        35.29446
573.08        35.67133
573.51          35.755
573.95        36.12206
574.38        36.42003
574.82        36.72309
