SpectraSmart Spectrum 2.9.0.0
--------- Device Information -----------
Spectrum Name :  反射率_0
Saving Time :  2024/04/20 00:52:53
Spectro-Module Model Name : SE2030-DUVN
Spectro-Module Serial Number : OS361AC55029948
Wavelength Start : 200
Wavelength End : 1025
Wavelength Unit : Wavelength(nm)
Spectrum Unit : Reflectance(%)
-----------Spectrum Setting ------------
Integration Time : 30ms
Average : 10
Boxcar : 0
Background removal :  enabled
linearity correction :  enabled
SC :  disabled
Intensity correction :  disabled
DWT denoise :  enabled
savitzky-golay :  disabled
FFT :  disabled
Running average :  disabled
Kalman :  disabled
High pass :  disabled
---------------BEGIN--------------------
Wavelength(nm)             Reflectance(%)
200.29               0
200.75        64.73302
201.21        65.10355
201.67        67.98221
202.13        74.11721
202.58        83.53716
203.04        96.46054
203.50        108.9515
203.96        111.3878
204.42        103.5503
204.88        91.80936
205.34        81.27715
205.80        73.95338
206.26        68.54481
206.72        63.04712
207.18        57.53007
207.64        55.53145
208.10        60.10006
208.55        70.00071
209.01          78.856
209.47        82.12519
209.93        80.45149
210.39        75.54453
210.85        70.04469
211.31        66.82846
211.77        66.21107
212.23        67.58934
212.69         69.8372
213.14        69.62441
213.60        65.99586
214.06        62.03864
214.52        59.66372
214.98        59.80362
215.44        62.08064
215.90         65.8148
216.36        70.55672
216.81        74.65676
217.27        76.77512
217.73         77.4785
218.19        76.52661
218.65        73.53112
219.11        68.63194
219.57        61.59466
220.02        54.02359
220.48        50.77108
220.94        53.32204
221.40        60.91727
221.86        70.21168
222.32        75.89606
222.77        76.64745
223.23        74.20379
223.69        70.83307
224.15        69.86399
224.61        71.54662
225.06         74.1442
225.52        76.56873
225.98        78.02165
226.44        78.46134
226.90        78.34664
227.36        77.73428
227.81        76.53707
228.27        75.22044
228.73         73.8168
229.19        72.59917
229.65        71.87231
230.10        71.56252
230.56        71.62204
231.02        71.89876
231.48        72.27379
231.93        72.62389
232.39        73.01221
232.85        73.22811
233.31         73.0125
233.77        72.33056
234.22        71.23378
234.68        69.98379
235.14        68.98893
235.60         68.4117
236.05        68.20142
236.51        68.17449
236.97        67.98346
237.43        67.51434
237.88        66.96052
238.34        66.26266
238.80        66.08717
239.26        66.71983
239.71        67.91901
240.17        69.14555
240.63        70.14266
241.08         70.8569
241.54        71.30025
242.00        71.11105
242.46        69.41285
242.91        65.69001
243.37        58.98459
243.83        49.64545
244.28        43.30202
244.74          45.885
245.20        56.86129
245.66        68.74522
246.11        75.09015
246.57        75.58634
247.03        71.30007
247.48        63.68884
247.94        61.26248
248.40        65.43649
248.85        70.61798
249.31        74.34273
249.77        76.11759
250.22        76.41087
250.68        75.80656
251.14        74.54662
251.59        73.04077
252.05        71.77707
252.51        70.85963
252.96        69.73945
253.42        67.76195
253.88        65.21069
254.33        62.73713
254.79        62.05713
255.25        64.44506
255.70        69.20444
256.16        74.94431
256.62         79.8264
257.07        81.84997
257.53        81.15833
257.99        78.58712
258.44        74.76414
258.90        71.43484
259.35        68.75186
259.81        67.02374
260.27        65.66743
260.72        64.16116
261.18        62.68458
261.63        60.95295
262.09        59.63831
262.55        59.11657
263.00        59.25498
263.46        59.93987
263.91        60.35838
264.37        59.88477
264.83        58.51006
265.28        56.49369
265.74        54.72395
266.19        53.96356
266.65        54.35783
267.11        55.42268
267.56        56.54237
268.02        56.84919
268.47        56.17138
268.93        54.82707
269.38        53.15681
269.84        51.92457
270.30          51.332
270.75         51.1711
271.21        51.17773
271.66        50.94014
272.12        50.34796
272.57        49.52363
273.03        48.69107
273.48        48.08517
273.94        47.80126
274.39        47.68475
274.85        47.55563
275.31        47.10284
275.76        46.25703
276.22        45.16996
276.67        44.02869
277.13        43.24147
277.58        42.81293
278.04         42.6677
278.49        42.51099
278.95        42.02592
279.40        41.11976
279.86        40.01294
280.31        38.88082
280.77        38.13717
281.22        37.76559
281.68        37.66621
282.13        37.61178
282.59         37.3363
283.04         36.7679
283.50        36.05339
283.95         35.2935
284.41        34.68773
284.86        34.25075
285.32         33.9403
285.77        33.69693
286.22        33.51381
286.68        33.36705
287.13        33.23543
287.59        33.08112
288.04        32.79779
288.50        32.39856
288.95        31.88078
289.41        31.33857
289.86        30.83878
290.32        30.46234
290.77        30.18337
291.22        30.01177
291.68        29.92298
292.13         29.9022
292.59        29.96388
293.04         30.1165
293.50        30.39466
293.95        30.77538
294.40         31.2254
294.86        31.67501
295.31        32.02835
295.77        32.27104
296.22        32.44121
296.68        32.59011
297.13        32.78132
297.58        33.05481
298.04        33.40034
298.49        33.83509
298.95        34.42206
299.40        35.13159
299.85        35.92891
300.31        36.71809
300.76        37.34496
301.21        37.77851
301.67        38.09353
302.12        38.31601
302.58        38.55593
303.03        38.82618
303.48        39.11892
303.94        39.49395
304.39        39.99908
304.84         40.6319
305.30        41.35489
305.75        42.03769
306.20        42.50406
306.66        42.73911
307.11        42.78488
307.57        42.74265
308.02        42.69061
308.47        42.69203
308.93        42.71459
309.38        42.78505
309.83        42.99884
310.29        43.34302
310.74        43.78787
311.19        44.17531
311.65        44.24762
312.10        43.96116
312.55        43.40384
313.00        42.78221
313.46        42.41842
313.91        42.37233
314.36        42.56184
314.82        42.83096
315.27        42.94717
315.72        42.82746
316.18        42.56161
316.63         42.2276
317.08        41.95272
317.53         41.7748
317.99        41.64228
318.44          41.526
318.89        41.37499
319.35        41.17491
319.80        40.94996
320.25        40.72614
320.70        40.54012
321.16        40.39271
321.61         40.2725
322.06        40.14017
322.51        39.93962
322.97        39.65208
323.42        39.30489
323.87        38.93073
324.32        38.59101
324.78        38.29962
325.23        38.05487
325.68         37.8287
326.13         37.5786
326.59        37.29567
327.04        37.02422
327.49        36.78404
327.94        36.61002
328.39        36.51009
328.85        36.44578
329.30        36.45259
329.75        36.53266
330.20        36.66788
330.66        36.82517
331.11        36.95459
331.56        36.92064
332.01        36.69695
332.46        36.31411
332.92        35.85822
333.37        35.50113
333.82        35.30035
334.27        35.23774
334.72        35.25206
335.17         35.2285
335.63        35.12113
336.08        34.97243
336.53        34.85144
336.98        34.88517
337.43        35.09103
337.88        35.42248
338.34        35.71439
338.79        35.75282
339.24        35.47623
339.69        34.95154
340.14        34.39003
340.59        34.14648
341.05        34.29275
341.50        34.72463
341.95        35.21806
342.40        35.42537
342.85        35.26753
343.30        34.86849
343.75        34.38325
344.20        34.06319
344.66        33.98018
345.11         34.0229
345.56        34.14082
346.01        34.25388
346.46        34.31661
346.91        34.37302
347.36        34.34937
347.81        34.11955
348.26         33.6913
348.72        33.12928
349.17        32.57718
349.62        32.35247
350.07        32.52107
350.52        32.97262
350.97        33.53011
351.42        33.92535
351.87        34.07605
352.32        34.05121
352.77         33.8956
353.22        33.68742
353.67        33.46635
354.13        33.21912
354.58        32.95146
355.03        32.72079
355.48        32.54484
355.93          32.435
356.38        32.37008
356.83        32.30218
357.28         32.2139
357.73        32.10286
358.18        31.99282
358.63        31.92776
359.08        31.90767
359.53        31.91272
359.98        31.87559
360.43        31.69558
360.88        31.36328
361.33        30.91938
361.78        30.45852
362.23        30.13632
362.68        29.98927
363.13        29.96231
363.58        29.97791
364.03        29.91327
364.48        29.72826
364.93        29.46003
365.38        29.12574
365.83        28.75944
366.28        28.38816
366.73        28.00489
367.18        27.64716
367.63        27.37344
368.08        27.19259
368.53        27.09592
368.98        27.03339
369.43        26.91851
369.88        26.73187
370.33        26.49669
370.78        26.25543
371.23        26.08542
371.68        26.00817
372.13        25.99271
372.58        26.01022
373.03        26.01543
373.48        25.98506
373.93         25.9277
374.38        25.83563
374.83        25.69589
375.28         25.5087
375.72        25.26777
376.17        25.01425
376.62        24.77484
377.07        24.56997
377.52        24.40413
377.97        24.27791
378.42         24.1881
378.87        24.12634
379.32        24.08125
379.77        24.05529
380.22        24.05054
380.67        24.05984
381.11        24.08718
381.56        24.07138
382.01        23.93503
382.46         23.6705
382.91        23.29956
383.36        22.93413
383.81         22.7425
384.26        22.75329
384.71        22.92517
385.15        23.11018
385.60        23.08529
386.05        22.80852
386.50        22.35136
386.95        21.88814
387.40        21.69409
387.85        21.81759
388.29        22.15085
388.74        22.51232
389.19         22.6351
389.64        22.46638
390.09         22.0885
390.54        21.65163
390.98        21.38611
391.43         21.3701
391.88         21.5148
392.33        21.68765
392.78        21.70016
393.23        21.52719
393.67        21.23192
394.12        20.96423
394.57        20.85669
395.02        20.93591
395.47        21.14835
395.91        21.40602
396.36         21.5321
396.81        21.48426
397.26        21.31121
397.71        21.10552
398.15        20.98844
398.60        21.01223
399.05         21.1211
399.50        21.23689
399.95        21.24967
400.39        21.13699
400.84        20.93127
401.29         20.7144
401.74        20.63316
402.18        20.72935
402.63        20.94588
403.08        21.16893
403.53        21.21721
403.97        21.05488
404.42        20.75283
404.87        20.43084
405.32         20.2855
405.76        20.36099
406.21        20.59003
406.66        20.86558
407.11        21.02108
407.55        21.01367
408.00        20.90029
408.45        20.74261
408.90        20.59328
409.34        20.50845
409.79        20.56437
410.24        20.69705
410.68        20.72397
411.13        20.63273
411.58        20.51933
412.03        20.42533
412.47        20.39039
412.92         20.4261
413.37        20.50877
413.81        20.62264
414.26        20.76095
414.71         20.9048
415.15         21.0634
415.60        21.17491
416.05        21.16992
416.49        21.03652
416.94        20.80077
417.39        20.54165
417.83        20.38732
418.28        20.37712
418.73        20.47222
419.17        20.60553
419.62        20.65978
420.07        20.61032
420.51        20.49307
420.96        20.36506
421.41        20.29222
421.85        20.28521
422.30        20.33183
422.74        20.39731
423.19        20.46568
423.64        20.51969
424.08        20.57808
424.53        20.62168
424.98        20.64947
425.42        20.66718
425.87        20.67638
426.31        20.67697
426.76        20.68037
427.21        20.67832
427.65        20.65765
428.10         20.6517
428.54          20.687
428.99        20.76906
429.44        20.97804
429.88        21.18758
430.33        21.06155
430.77        20.67338
431.22        20.45065
431.66        20.45316
432.11        20.53379
432.56        20.66205
433.00        20.93111
433.45        21.15222
433.89        21.03809
434.34        20.73224
434.78        20.50075
435.23        20.28225
435.67        21.23795
436.12        20.45435
436.57        20.47316
437.01        20.47803
437.46        20.52823
437.90        20.62076
438.35        20.76555
438.79        20.90389
439.24        20.94712
439.68        20.88415
440.13        20.57733
440.57        20.19852
441.02        20.34401
441.46        20.83857
441.91        21.01489
442.35          20.335
442.80        20.15565
443.24        20.26687
443.69        20.23787
444.13        20.06756
444.58        19.98194
445.02        20.00196
445.47        20.11577
445.91         20.2629
446.36        20.30028
446.80        20.20118
447.24        20.03736
447.69        19.87381
448.13        19.76646
448.58        19.74352
449.02        19.78175
449.47        19.84344
449.91        19.85962
450.36        19.82067
450.80        19.74781
451.25        19.68236
451.69        19.66649
452.13        19.71544
452.58        19.80138
453.02        19.90328
453.47        19.99561
453.91        20.06662
454.36        20.12146
454.80        20.14675
455.24        20.11786
455.69        20.04435
456.13        19.91794
456.58        19.79021
457.02        19.72698
457.46        19.73755
457.91        19.75715
458.35         19.7695
458.79        19.80044
459.24        19.83728
459.68        19.88012
460.13         19.9686
460.57        19.97437
461.01        19.87524
461.46        20.22317
461.90        20.25452
462.34        20.03299
462.79        20.23376
463.23        20.16329
463.68        20.12071
464.12        20.06194
464.56        20.14913
465.01        20.25308
465.45        20.33418
465.89        20.35369
466.34         20.3131
466.78         20.1586
467.22        19.97713
467.67        20.05166
468.11         20.3436
468.55        20.44312
468.99        20.34186
469.44        20.36103
469.88        20.50272
470.32        20.56702
470.77        20.54497
471.21        20.52977
471.65        20.52765
472.10        20.51124
472.54        20.49011
472.98        20.52186
473.42        20.60703
473.87          20.674
474.31        20.70737
474.75        20.80886
475.20        20.93235
475.64        20.85983
476.08        20.66416
476.52        20.63999
476.97        20.80597
477.41        21.02645
477.85        21.23108
478.29        21.36697
478.74        21.41167
479.18        21.34282
479.62        21.24693
480.06        21.26658
480.50        21.40114
480.95        21.51213
481.39        21.55807
481.83         21.5773
482.27        21.56687
482.72        21.51573
483.16        21.46434
483.60        21.47706
484.04         21.5558
484.48        21.74293
484.93        22.06233
485.37        22.13122
485.81        22.15654
486.25        22.60246
486.69        23.38629
487.14        22.72891
487.58        21.91255
488.02        23.14218
488.46        22.55905
488.90        22.96424
489.34        22.91702
489.79        23.03858
490.23        23.27382
490.67        23.40973
491.11        23.47613
491.55        23.48023
491.99        23.45448
492.43        23.46321
492.88         23.5256
493.32        23.60203
493.76        23.70083
494.20        23.85245
494.64        24.05597
495.08         24.3008
495.52        24.55441
495.96        24.76904
496.41        24.94105
496.85        25.06783
497.29        25.16726
497.73        25.34585
498.17        25.57968
498.61        25.65739
499.05        25.60852
499.49        25.70866
499.93        25.97064
500.37        26.15736
500.82        26.26485
501.26        26.52001
501.70        26.85437
502.14        26.89575
502.58        26.69967
503.02        26.66779
503.46        26.82972
503.90        26.97792
504.34        27.06807
504.78        27.12021
505.22        27.12347
505.66        27.08144
506.10        27.03277
506.54        27.03498
506.98        27.10456
507.42        27.22882
507.86        27.37808
508.30        27.50259
508.74        27.58525
509.18        27.63475
509.62        27.67628
510.06        27.74912
510.50         27.8628
510.94        28.00971
511.38        28.14581
511.82        28.20147
512.26        28.16543
512.70         28.0575
513.14        27.95422
513.58        27.97171
514.02        28.12313
514.46        28.37296
514.90        28.62691
515.34        28.66654
515.78        28.50955
516.22        28.26087
516.66        28.04123
517.10        27.71566
517.54         27.3239
517.98        27.87199
518.42        27.80925
518.86        28.07992
519.30        28.19929
519.74        28.32607
520.18        28.43524
520.62        28.46567
521.06        28.42995
521.50         28.3283
521.93        28.19395
522.37        28.09412
522.81        28.04712
523.25        28.03836
523.69        28.05625
524.13        28.07949
524.57        28.09617
525.01        28.11019
525.45         28.1123
525.89         28.0863
526.32        28.02923
526.76         27.9477
527.20         27.8478
527.64        27.74567
528.08        27.64811
528.52        27.55048
528.96        27.46556
529.40        27.40946
529.83        27.38232
530.27        27.38927
530.71        27.39574
531.15        27.34917
531.59        27.24378
532.03        27.09507
532.46        26.95297
532.90        26.91668
533.34        26.99175
533.78        27.14126
534.22        27.29836
534.66        27.36068
535.09        27.30082
535.53        27.16314
535.97        26.98932
536.41        26.84216
536.85        26.74745
537.28        26.70178
537.72        26.71097
538.16        26.70097
538.60        26.79493
539.04        26.87867
539.47        26.96371
539.91        27.07877
540.35        27.23434
540.79        27.18851
541.22        27.30038
541.66        27.39039
542.10        27.58788
542.54        27.44608
542.97        27.68566
543.41        27.78539
543.85         27.9415
544.29        28.08484
544.72        28.19343
545.16        28.31509
545.60        28.44033
546.04        28.46966
546.47        28.47432
546.91        28.74515
547.35        29.20588
547.79        29.48941
548.22        29.55856
548.66         29.5559
549.10        29.54231
549.53         29.7124
549.97          30.076
550.41        30.10434
550.84        30.34929
551.28        30.50939
551.72        30.76034
552.15        31.00587
552.59         31.2378
553.03        31.48107
553.46        31.69798
553.90        31.82291
554.34        31.84096
554.77        31.93947
555.21        31.86477
555.65        31.93203
556.08        32.06202
556.52        32.24041
556.96         32.4231
557.39        32.58654
557.83        32.70822
558.27         32.7171
558.70        32.65826
559.14        32.66996
559.57         32.7579
560.01        32.89971
560.45        33.04021
560.88        33.04752
561.32        32.97694
561.75         32.9572
562.19        33.12631
562.63         33.1926
563.06        33.20835
563.50        33.32915
563.93        33.52392
564.37        33.75214
564.80        33.83511
565.24        33.92932
565.68        33.98341
566.11        34.04588
566.55        34.14704
566.98        34.19794
567.42        34.19331
567.85        34.56151
568.29        34.41009
568.72        34.80669
569.16        35.37324
569.60        35.67924
570.03        35.68678
570.47        35.78817
570.90        35.83041
571.34        36.13479
571.77        35.71896
572.21        36.16042
572.64        36.42683
573.08         36.4614
573.51        36.76163
573.95           36.98
574.38        37.40588
574.82        37.62778
