SpectraSmart Spectrum 2.9.0.0
--------- Device Information -----------
Spectrum Name :  反射率_0
Saving Time :  2024/04/20 00:50:38
Spectro-Module Model Name : SE2030-DUVN
Spectro-Module Serial Number : OS361AC55029948
Wavelength Start : 200
Wavelength End : 1025
Wavelength Unit : Wavelength(nm)
Spectrum Unit : Reflectance(%)
-----------Spectrum Setting ------------
Integration Time : 30ms
Average : 10
Boxcar : 0
Background removal :  enabled
linearity correction :  enabled
SC :  disabled
Intensity correction :  disabled
DWT denoise :  enabled
savitzky-golay :  disabled
FFT :  disabled
Running average :  disabled
Kalman :  disabled
High pass :  disabled
---------------BEGIN--------------------
Wavelength(nm)             Reflectance(%)
200.29               0
200.75        70.95347
201.21        74.80521
201.67        82.22047
202.13        91.88769
202.58        102.5814
203.04        114.5891
203.50         124.011
203.96        122.8237
204.42        112.4822
204.88        99.11688
205.34        88.11973
205.80        81.74908
206.26        78.76065
206.72        77.92611
207.18        79.31481
207.64        82.18181
208.10        85.11533
208.55        88.29189
209.01        90.07611
209.47        90.25859
209.93        89.29652
210.39        87.18598
210.85        85.08633
211.31        84.51125
211.77        85.61688
212.23        88.38618
212.69        91.90408
213.14        92.64832
213.60        89.30203
214.06        84.99937
214.52        81.80558
214.98        80.67339
215.44        81.23824
215.90        82.83245
216.36        85.51292
216.81         88.9937
217.27        92.48537
217.73        96.09042
218.19        98.73908
218.65        99.10663
219.11        97.24268
219.57        93.20497
220.02        88.79491
220.48        88.92657
220.94        94.87432
221.40         105.343
221.86        116.7653
222.32        123.8198
222.77        125.2009
223.23        122.9427
223.69         119.074
224.15        116.5929
224.61        116.3428
225.06         117.127
225.52        118.7417
225.98        120.9481
226.44        123.6443
226.90        126.8803
227.36        130.3059
227.81        132.7822
228.27        134.0396
228.73        134.2095
229.19        133.3351
229.65        131.5334
230.10        129.0872
230.56        126.6105
231.02        124.5732
231.48        123.7499
231.93        124.0212
232.39         125.094
232.85        126.5064
233.31        127.6534
233.77         128.291
234.22        128.6484
234.68        128.4091
235.14        127.0282
235.60        124.5829
236.05        121.2683
236.51        118.0257
236.97        116.2524
237.43        116.2522
237.88        118.2082
238.34        120.9519
238.80        122.0989
239.26        120.0329
239.71        115.4463
240.17        109.5566
240.63        104.7113
241.08        101.6123
241.54        99.65426
242.00        98.34788
242.46         96.5489
242.91        93.71461
243.37        89.38119
243.83        84.15432
244.28        82.21185
244.74        86.63766
245.20        95.51151
245.66        103.4647
246.11        106.8217
246.57        105.1409
247.03         98.7273
247.48        86.93677
247.94        76.31214
248.40        72.76479
248.85        73.24368
249.31        75.00794
249.77        76.88176
250.22        78.79019
250.68        81.24158
251.14        84.34599
251.59        87.53814
252.05        90.41676
252.51        93.15302
252.96        95.01006
253.42        95.26514
253.88        94.32677
254.33        92.67549
254.79        92.70037
255.25        96.51514
255.70        103.3813
256.16        111.5996
256.62        119.1881
257.07        123.9455
257.53        126.0082
257.99        126.2646
258.44        124.3749
258.90        121.1929
259.35        117.2325
259.81        114.1109
260.27        112.0482
260.72        111.2989
261.18         112.012
261.63        113.0358
262.09        114.5586
262.55        115.9675
263.00        116.7817
263.46          117.45
263.91        117.1249
264.37        115.5143
264.83        112.6959
265.28        108.9658
265.74        105.5959
266.19        103.5999
266.65         103.296
267.11         104.033
267.56        105.0517
268.02        105.3883
268.47        104.7419
268.93        103.4716
269.38        101.8202
269.84        100.3999
270.30        99.38688
270.75        98.58045
271.21        97.85858
271.66        96.98032
272.12        95.90484
272.57         94.6973
273.03        93.51345
273.48        92.42253
273.94         91.5399
274.39        90.73648
274.85        89.98043
275.31        89.07264
275.76        87.92121
276.22         86.6355
276.67        85.25875
277.13        84.10161
277.58        83.09564
278.04        82.27419
278.49        81.33012
278.95        80.04636
279.40        78.31972
279.86        76.42706
280.31        74.54929
280.77        73.21703
281.22        72.37514
281.68        71.94363
282.13        71.59419
282.59        70.99348
283.04        70.01269
283.50         68.8419
283.95        67.60764
284.41        66.62881
284.86        65.89265
285.32        65.34455
285.77        64.81264
286.22        64.16784
286.68        63.40513
287.13        62.55193
287.59        61.70918
288.04        60.88922
288.50        60.15054
288.95        59.41266
289.41        58.73646
289.86        58.11148
290.32        57.59361
290.77        57.15852
291.22        56.78623
291.68        56.40528
292.13          55.991
292.59        55.60289
293.04        55.30363
293.50        55.24363
293.95        55.42387
294.40        55.78981
294.86        56.25548
295.31        56.68858
295.77        57.04886
296.22        57.36805
296.68        57.65997
297.13        57.93343
297.58        58.20813
298.04        58.48614
298.49        58.79226
298.95        59.22418
299.40         59.7636
299.85        60.37664
300.31        61.00836
300.76        61.53989
301.21        61.94905
301.67        62.30727
302.12        62.57039
302.58        62.78652
303.03        62.93694
303.48        63.05082
303.94        63.23818
304.39        63.60365
304.84        64.17047
305.30        64.88518
305.75         65.5797
306.20         66.0435
306.66        66.25379
307.11        66.24569
307.57        66.14967
308.02        66.05289
308.47        66.02647
308.93        66.03472
309.38        66.06007
309.83         66.1574
310.29        66.31809
310.74        66.52818
311.19        66.68328
311.65        66.60565
312.10        66.25855
312.55         65.6983
313.00        65.09911
313.46        64.72944
313.91        64.62714
314.36        64.73481
314.82        64.87346
315.27        64.78431
315.72        64.39214
316.18        63.80372
316.63         63.1698
317.08        62.74406
317.53        62.57761
317.99        62.57463
318.44        62.60788
318.89        62.45504
319.35        62.06069
319.80        61.51122
320.25        60.90973
320.70        60.42138
321.16        60.08778
321.61        59.85817
322.06        59.68092
322.51        59.48269
322.97        59.22048
323.42        58.93302
323.87        58.59924
324.32        58.19139
324.78        57.70288
325.23        57.16201
325.68        56.60065
326.13        56.09392
326.59        55.66647
327.04        55.33532
327.49        55.07861
327.94        54.86553
328.39        54.67319
328.85        54.47101
329.30         54.3029
329.75        54.15403
330.20        54.01659
330.66        53.86763
331.11        53.68846
331.56        53.38023
332.01        52.93533
332.46        52.38457
332.92        51.82268
333.37        51.45002
333.82        51.31565
334.27        51.39211
334.72        51.57888
335.17        51.69382
335.63        51.66007
336.08        51.53439
336.53        51.39583
336.98        51.41021
337.43          51.604
337.88        51.90963
338.34        52.15545
338.79        52.12579
339.24        51.75377
339.69        51.11812
340.14        50.41563
340.59        49.97261
341.05        49.87635
341.50        50.05185
341.95        50.32397
342.40        50.41535
342.85         50.2598
343.30        49.95074
343.75        49.62228
344.20        49.48854
344.66        49.59555
345.11        49.83704
345.56        50.11182
346.01         50.2653
346.46        50.24512
346.91        50.11222
347.36        49.88531
347.81        49.58415
348.26        49.24308
348.72         48.8853
349.17        48.55609
349.62         48.3988
350.07        48.43951
350.52        48.62955
350.97        48.89191
351.42        49.10661
351.87        49.22426
352.32        49.26161
352.77        49.20099
353.22        49.02301
353.67        48.74176
354.13        48.38737
354.58        47.99089
355.03        47.65279
355.48        47.40679
355.93        47.24367
356.38        47.14975
356.83        47.09388
357.28        47.05211
357.73        47.01437
358.18        46.96346
358.63        46.87527
359.08        46.73589
359.53        46.54682
359.98        46.28459
360.43        45.91542
360.88          45.449
361.33         44.9112
361.78         44.3776
362.23         43.9711
362.68        43.72309
363.13        43.59669
363.58        43.52763
364.03        43.40959
364.48        43.20276
364.93        42.92748
365.38        42.59468
365.83        42.23323
366.28        41.85996
366.73        41.46417
367.18         41.0598
367.63        40.67036
368.08        40.30539
368.53        39.97573
368.98        39.66833
369.43        39.34977
369.88        39.01714
370.33         38.6845
370.78        38.38012
371.23        38.15536
371.68          38.021
372.13        37.94915
372.58        37.91996
373.03         37.9024
373.48        37.87131
373.93        37.82488
374.38        37.72454
374.83        37.51438
375.28        37.18878
375.72        36.75524
376.17        36.29873
376.62         35.9183
377.07        35.65429
377.52        35.49474
377.97        35.39764
378.42        35.29028
378.87        35.15205
379.32        34.99778
379.77         34.8695
380.22        34.82877
380.67        34.87638
381.11        34.98645
381.56        35.06292
382.01        34.97866
382.46         34.7056
382.91        34.28227
383.36        33.82143
383.81        33.49118
384.26        33.33439
384.71         33.3222
385.15        33.33868
385.60        33.21529
386.05        32.92013
386.50        32.50937
386.95        32.13906
387.40        32.05217
387.85         32.2746
388.29        32.68757
388.74        33.10434
389.19        33.23368
389.64        33.01914
390.09         32.5458
390.54        31.97375
390.98        31.55191
391.43         31.3805
391.88        31.37443
392.33        31.41194
392.78         31.3157
393.23        31.06205
393.67        30.70458
394.12        30.39857
394.57        30.25371
395.02        30.28984
395.47        30.45383
395.91        30.65744
396.36        30.71786
396.81         30.6011
397.26        30.35957
397.71        30.09462
398.15        29.93526
398.60        29.94271
399.05        30.04903
399.50        30.17151
399.95         30.1927
400.39        30.08741
400.84        29.89028
401.29        29.66994
401.74        29.55196
402.18         29.5774
402.63        29.69428
403.08        29.82295
403.53        29.83193
403.97        29.69164
404.42        29.45973
404.87        29.21381
405.32         29.0826
405.76         29.0947
406.21          29.207
406.66        29.35163
407.11        29.42191
407.55         29.3915
408.00        29.30073
408.45        29.18502
408.90         29.0303
409.34        28.88472
409.79        28.88565
410.24        28.97202
410.68        28.92572
411.13        28.74105
411.58        28.53772
412.03         28.3603
412.47        28.24736
412.92        28.21474
413.37        28.24243
413.81         28.3284
414.26        28.48688
414.71        28.69613
415.15        28.95696
415.60        29.16909
416.05        29.20527
416.49        29.03923
416.94        28.71019
417.39        28.33429
417.83        28.10113
418.28        28.06681
418.73        28.17353
419.17        28.32919
419.62        28.37995
420.07        28.29128
420.51        28.11652
420.96        27.92705
421.41        27.80294
421.85        27.75975
422.30        27.78258
422.74        27.83794
423.19        27.92304
423.64        28.01602
424.08        28.13332
424.53        28.23178
424.98        28.27736
425.42        28.26688
425.87        28.20945
426.31        28.12176
426.76        28.04094
427.21        27.96419
427.65        27.87167
428.10        27.79932
428.54        27.77243
428.99        27.80197
429.44         28.0039
429.88        28.22589
430.33        28.04568
430.77        27.56034
431.22        27.32813
431.66        27.40712
432.11        27.57252
432.56         27.7757
433.00        28.12588
433.45        28.39286
433.89        28.27336
434.34        27.93593
434.78         27.6171
435.23        27.26214
435.67        28.39082
436.12        27.47024
436.57        27.34747
437.01        27.07979
437.46        26.96567
437.90        27.02808
438.35        27.16779
438.79        27.30769
439.24        27.38311
439.68        27.37238
440.13        27.07489
440.57        26.68932
441.02        26.96621
441.46        27.66112
441.91        27.89262
442.35        26.95434
442.80        26.65528
443.24        26.72517
443.69        26.59546
444.13         26.2782
444.58        26.08689
445.02        26.05688
445.47        26.16885
445.91        26.34867
446.36        26.41252
446.80        26.32152
447.24        26.16737
447.69        26.00814
448.13        25.87914
448.58        25.80993
449.02        25.77804
449.47        25.76892
449.91        25.75178
450.36        25.72378
450.80        25.69222
451.25        25.66925
451.69        25.64583
452.13         25.6295
452.58        25.61309
453.02        25.60157
453.47        25.61285
453.91          25.647
454.36         25.6963
454.80        25.73752
455.24        25.72746
455.69        25.66852
456.13         25.5511
456.58           25.43
457.02        25.37269
457.46        25.38759
457.91        25.39575
458.35        25.38024
458.79        25.38685
459.24        25.40321
459.68        25.42824
460.13        25.51588
460.57        25.51081
461.01         25.3829
461.46        25.83714
461.90        25.88657
462.34        25.59818
462.79        25.83084
463.23        25.70414
463.68        25.60555
464.12        25.49412
464.56        25.57866
465.01        25.68856
465.45        25.77329
465.89        25.78491
466.34        25.72195
466.78        25.51649
467.22        25.26454
467.67         25.2998
468.11        25.57132
468.55         25.5735
468.99        25.32653
469.44        25.27558
469.88        25.43132
470.32        25.53244
470.77        25.54911
471.21        25.56275
471.65        25.57132
472.10        25.55136
472.54        25.51529
472.98        25.53341
473.42        25.60895
473.87        25.64844
474.31        25.65175
474.75        25.77829
475.20        25.97176
475.64        25.95056
476.08        25.76629
476.52        25.72633
476.97        25.84523
477.41        25.97462
477.85        26.06915
478.29        26.13337
478.74        26.16104
479.18        26.10546
479.62        26.04579
480.06        26.11512
480.50        26.29852
480.95        26.43652
481.39        26.48577
481.83        26.50449
482.27        26.49137
482.72        26.42684
483.16        26.35091
483.60        26.33331
484.04        26.38762
484.48        26.56135
484.93        26.87222
485.37        27.01936
485.81        27.14162
486.25        27.67542
486.69        28.80872
487.14        28.27179
487.58        27.46163
488.02        28.30598
488.46        27.75178
488.90        27.98683
489.34        27.87567
489.79        28.00361
490.23        28.28171
490.67        28.43971
491.11        28.47177
491.55        28.37362
491.99        28.21142
492.43         28.1541
492.88        28.23734
493.32        28.36544
493.76        28.53047
494.20        28.73912
494.64        28.97575
495.08        29.28582
495.52        29.60652
495.96        29.73668
496.41        29.72622
496.85        29.81467
497.29        30.02169
497.73        30.28181
498.17        30.54828
498.61        30.65817
499.05        30.64221
499.49         30.7818
499.93        31.09603
500.37        31.33099
500.82        31.48499
501.26        31.81172
501.70        32.22947
502.14        32.30624
502.58        32.09245
503.02        32.03656
503.46        32.17169
503.90         32.2622
504.34        32.27964
504.78        32.28666
505.22        32.28057
505.66        32.25409
506.10        32.23693
506.54        32.26944
506.98        32.36276
507.42        32.51291
507.86        32.68726
508.30        32.83076
508.74        32.92682
509.18        32.98057
509.62         33.0334
510.06        33.15334
510.50        33.34988
510.94        33.60199
511.38        33.83176
511.82        33.91406
512.26        33.82669
512.70        33.61212
513.14        33.37729
513.58        33.28565
514.02        33.36905
514.46        33.58218
514.90        33.83258
515.34        33.89652
515.78        33.79963
516.22        33.62779
516.66        33.48118
517.10         33.2063
517.54        32.83343
517.98        33.29554
518.42        33.17783
518.86        33.38761
519.30         33.4853
519.74        33.60983
520.18        33.72208
520.62        33.73937
521.06        33.66755
521.50         33.5162
521.93        33.33367
522.37        33.20852
522.81        33.16397
523.25        33.18211
523.69        33.23915
524.13        33.26629
524.57         33.2407
525.01        33.23017
525.45          33.263
525.89        33.09495
526.32        33.18701
526.76        33.16528
527.20        33.13778
527.64        33.05653
528.08        32.91918
528.52        32.73185
528.96        32.53819
529.40        32.41411
529.83        32.37062
530.27        32.39752
530.71        32.42779
531.15        32.35723
531.59        32.17184
532.03        31.91046
532.46        31.65569
532.90        31.55851
533.34        31.63533
533.78        31.82712
534.22        32.04805
534.66        32.16764
535.09        32.14539
535.53        32.03559
535.97        31.87011
536.41        31.69544
536.85        31.53977
537.28        31.40787
537.72         31.3339
538.16        31.27736
538.60         31.3926
539.04         31.5306
539.47        31.68273
539.91        31.84755
540.35        32.02742
540.79        31.95109
541.22        32.04661
541.66        32.11211
542.10        32.30535
542.54        32.10042
542.97        32.35117
543.41        32.46518
543.85        32.67311
544.29        32.88781
544.72        33.06763
545.16        33.24292
545.60          33.397
546.04        33.42225
546.47        33.40987
546.91        33.71374
547.35        34.24969
547.79        34.58104
548.22        34.67002
548.66        34.69434
549.10        34.72302
549.53        34.98304
549.97        35.46751
550.41        35.51396
550.84        35.75245
551.28        35.87756
551.72        36.13388
552.15        36.33006
552.59        36.44421
553.03        37.04588
553.46        37.09719
553.90        37.28863
554.34        37.31953
554.77        37.29211
555.21        37.22673
555.65        37.24789
556.08        37.46806
556.52        37.75018
556.96        38.05592
557.39        38.32455
557.83        38.51501
558.27        38.55348
558.70        38.48541
559.14        38.46696
559.57        38.51081
560.01        38.59647
560.45        38.68206
560.88        38.65558
561.32        38.58898
561.75        38.60236
562.19        38.84317
562.63        38.98622
563.06        39.06127
563.50        39.17086
563.93        39.30183
564.37        39.50897
564.80        39.60451
565.24        39.74937
565.68        39.86535
566.11        39.97343
566.55        40.10318
566.98        40.16434
567.42        40.15281
567.85        40.58859
568.29        40.44402
568.72        40.84269
569.16        41.39697
569.60        41.76626
570.03        41.86116
570.47        42.04046
570.90        42.17285
571.34        42.38053
571.77        41.96807
572.21        42.88714
572.64        42.93366
573.08        42.94573
573.51        43.16317
573.95        43.84832
574.38        44.31003
574.82        44.57696
