SpectraSmart Spectrum 2.9.0.0
--------- Device Information -----------
Spectrum Name :  反射率_0
Saving Time :  2024/04/20 00:05:00
Spectro-Module Model Name : SE2030-DUVN
Spectro-Module Serial Number : OS361AC55029948
Wavelength Start : 200
Wavelength End : 1025
Wavelength Unit : Wavelength(nm)
Spectrum Unit : Reflectance(%)
-----------Spectrum Setting ------------
Integration Time : 30ms
Average : 10
Boxcar : 0
Background removal :  enabled
linearity correction :  enabled
SC :  disabled
Intensity correction :  disabled
DWT denoise :  enabled
savitzky-golay :  disabled
FFT :  disabled
Running average :  disabled
Kalman :  disabled
High pass :  disabled
---------------BEGIN--------------------
Wavelength(nm)             Reflectance(%)
200.29               0
200.75         65.5095
201.21        67.06881
201.67        70.96563
202.13        77.54839
202.58        86.69977
203.04        98.51445
203.50        109.3313
203.96        110.7562
204.42        103.0535
204.88        91.99037
205.34        82.63032
205.80         77.2891
206.26        75.04394
206.72        74.74921
207.18        76.62244
207.64         80.2269
208.10        83.89088
208.55        87.29923
209.01        88.58382
209.47        87.39344
209.93        84.43018
210.39        80.22578
210.85        75.89648
211.31        72.55956
211.77        70.14309
212.23        68.09855
212.69        66.73284
213.14        67.25182
213.60        69.21053
214.06        72.07822
214.52         74.5305
214.98        76.06046
215.44        76.91204
215.90        76.99541
216.36         77.0752
216.81        78.66514
217.27        81.79603
217.73        86.00011
218.19        89.03964
218.65        87.88042
219.11        82.12921
219.57        72.23142
220.02        61.05954
220.48        56.14713
220.94        60.14157
221.40        71.43438
221.86        85.00695
222.32        93.14327
222.77        93.86671
223.23        89.68491
223.69        84.00661
224.15         81.7456
224.61        83.42694
225.06        86.70647
225.52        89.72023
225.98        90.79923
226.44        89.91937
226.90        87.83862
227.36        85.51167
227.81        84.42103
228.27        85.18086
228.73        86.93505
229.19        88.63023
229.65        89.08086
230.10        88.22003
230.56        86.81962
231.02        85.45881
231.48        84.92558
231.93        85.20323
232.39        85.96311
232.85        86.79042
233.31        87.15293
233.77        86.89693
234.22        86.26172
234.68        85.27761
235.14        83.92923
235.60        82.37191
236.05         80.6531
236.51        79.17649
236.97        78.52538
237.43         78.8332
237.88        80.31593
238.34        82.36526
238.80        83.73466
239.26        83.42431
239.71        81.58176
240.17          78.784
240.63        76.51962
241.08        75.26031
241.54        74.66223
242.00        74.10693
242.46        72.23769
242.91        68.30198
243.37        61.45233
243.83        52.31986
244.28        47.14394
244.74        51.83778
245.20        64.94519
245.66        77.71101
246.11        83.01266
246.57        80.33581
247.03        70.18761
247.48        54.79068
247.94        48.60865
248.40        54.87309
248.85        63.92006
249.31        70.73338
249.77        73.97993
250.22        74.56566
250.68        73.69784
251.14         71.9703
251.59        70.48286
252.05        70.16824
252.51        70.93668
252.96        72.14137
253.42        72.87278
253.88        73.00835
254.33        72.91381
254.79        74.20755
255.25        78.20861
255.70        84.30132
256.16        91.19701
256.62        97.08086
257.07        99.97489
257.53        100.1387
257.99        98.44356
258.44        95.38834
258.90        92.62729
259.35        90.23591
259.81        88.78997
260.27        87.77309
260.72        86.78304
261.18         86.0822
261.63        85.16019
262.09        84.65096
262.55        84.72173
263.00        85.12944
263.46        85.91799
263.91        86.17124
264.37        85.32137
264.83        83.37416
265.28        80.62372
265.74        78.16119
266.19        76.89526
266.65        77.04315
267.11        78.02448
267.56        79.10052
268.02         79.2813
268.47        78.33399
268.93        76.62953
269.38        74.54838
269.84        72.93606
270.30        72.02699
270.75        71.57053
271.21        71.29731
271.66        70.76322
272.12        69.85419
272.57        68.70228
273.03         67.5159
273.48        66.48158
273.94        65.72395
274.39        65.10049
274.85        64.52039
275.31        63.75742
275.76        62.74404
276.22        61.61359
276.67        60.47003
277.13        59.64185
277.58        59.08688
278.04        58.76432
278.49        58.39969
278.95        57.75662
279.40        56.72895
279.86        55.53811
280.31        54.28459
280.77         53.3279
281.22        52.63209
281.68        52.14852
282.13        51.71541
282.59        51.19921
283.04        50.53207
283.50        49.82851
283.95        49.09842
284.41        48.43798
284.86        47.83083
285.32        47.29739
285.77        46.81876
286.22        46.46779
286.68        46.25172
287.13        46.10349
287.59        45.99529
288.04        45.80939
288.50        45.55165
288.95         45.2031
289.41        44.81387
289.86        44.36782
290.32        43.93573
290.77        43.50818
291.22        43.15215
291.68        42.92991
292.13        42.84995
292.59        42.93197
293.04         43.1515
293.50        43.49967
293.95        43.94641
294.40        44.48056
294.86        45.09319
295.31        45.77806
295.77        46.52296
296.22        47.31346
296.68        48.09555
297.13           48.77
297.58        49.32359
298.04        49.78773
298.49        50.23662
298.95        50.84165
299.40        51.60746
299.85        52.47492
300.31        53.35235
300.76        54.07255
301.21        54.60781
301.67        55.05989
302.12        55.42756
302.58        55.80361
303.03        56.18655
303.48         56.5798
303.94        57.07831
304.39        57.77056
304.84        58.66027
305.30        59.68899
305.75         60.6641
306.20        61.33446
306.66        61.66942
307.11        61.71695
307.57         61.6334
308.02        61.55579
308.47        61.56875
308.93        61.62645
309.38        61.70418
309.83         61.8383
310.29        62.01522
310.74        62.23267
311.19         62.3921
311.65         62.3209
312.10        61.98973
312.55        61.45908
313.00        60.89875
313.46        60.57186
313.91        60.51578
314.36        60.66695
314.82        60.86857
315.27        60.89616
315.72        60.66969
316.18        60.27536
316.63        59.80448
317.08        59.42059
317.53        59.16319
317.99         58.9696
318.44        58.78101
318.89        58.49017
319.35        58.07674
319.80        57.59644
320.25        57.11054
320.70        56.71225
321.16        56.41981
321.61        56.20545
322.06        56.03111
322.51         55.8432
322.97        55.60699
323.42        55.34752
323.87        55.04427
324.32        54.67569
324.78        54.23499
325.23         53.7485
325.68        53.24203
326.13        52.77652
326.59        52.37392
327.04        52.05632
327.49        51.80798
327.94          51.606
328.39        51.43517
328.85        51.26927
329.30        51.15487
329.75        51.08728
330.20        51.05336
330.66        51.01324
331.11        50.94402
331.56        50.74474
332.01        50.39948
332.46        49.94055
332.92        49.41666
333.37        48.95116
333.82        48.58397
334.27        48.30627
334.72        48.11833
335.17        48.01167
335.63        47.95795
336.08        47.97566
336.53        48.02777
336.98        48.07386
337.43        48.09136
337.88        48.08203
338.34        47.99282
338.79        47.79655
339.24        47.48082
339.69        47.06334
340.14        46.66122
340.59        46.46899
341.05        46.51877
341.50          46.763
341.95        47.05987
342.40        47.18492
342.85        47.08442
343.30        46.82922
343.75        46.51472
344.20        46.30031
344.66        46.22986
345.11        46.22886
345.56        46.26231
346.01        46.27567
346.46         46.2372
346.91         46.1723
347.36         46.0439
347.81        45.78285
348.26        45.40077
348.72        44.95643
349.17        44.51152
349.62        44.23914
350.07        44.18712
350.52        44.29676
350.97        44.52495
351.42        44.80492
351.87        45.08511
352.32        45.35969
352.77        45.54383
353.22        45.50919
353.67        45.24081
354.13        44.79607
354.58        44.25859
355.03        43.81347
355.48        43.52233
355.93        43.35791
356.38        43.27892
356.83        43.20952
357.28        43.11725
357.73        43.01094
358.18        42.91031
358.63        42.84586
359.08         42.8109
359.53        42.78215
359.98        42.68384
360.43        42.40676
360.88        41.94545
361.33        41.34947
361.78         40.7368
362.23        40.30109
362.68         40.0901
363.13         40.0389
363.58        40.05581
364.03         39.9932
364.48        39.79989
364.93        39.51723
365.38        39.15724
365.83        38.74751
366.28        38.31508
366.73        37.85198
367.18        37.40551
367.63        37.05212
368.08         36.8045
368.53        36.64967
368.98        36.52883
369.43        36.33986
369.88         36.0588
370.33        35.71396
370.78        35.35318
371.23        35.06324
371.68         34.8722
372.13         34.7505
372.58        34.67342
373.03        34.60105
373.48        34.51341
373.93        34.42032
374.38        34.31253
374.83        34.17322
375.28        33.99728
375.72        33.77214
376.17        33.53269
376.62        33.29882
377.07        33.08559
377.52        32.89639
377.97        32.72678
378.42        32.56647
378.87          32.413
379.32        32.26725
379.77        32.14338
380.22         32.0595
380.67        32.01205
381.11        31.99591
381.56        31.95821
382.01        31.83777
382.46        31.62192
382.91        31.32584
383.36        31.01438
383.81        30.78457
384.26        30.65802
384.71        30.61931
385.15        30.58617
385.60         30.4427
386.05        30.16826
386.50        29.80253
386.95        29.46394
387.40        29.33719
387.85        29.44763
388.29        29.71379
388.74        29.99788
389.19        30.07962
389.64        29.91494
390.09        29.56078
390.54         29.1472
390.98        28.87461
391.43        28.81671
391.88        28.89726
392.33         28.9867
392.78        28.89832
393.23         28.6153
393.67        28.20053
394.12        27.82735
394.57        27.63922
395.02        27.66275
395.47         27.8372
395.91        28.06955
396.36        28.16654
396.81        28.08651
397.26        27.88746
397.71        27.65873
398.15        27.51258
398.60        27.50936
399.05        27.58799
399.50        27.68979
399.95        27.73536
400.39        27.70369
400.84        27.61571
401.29        27.51566
401.74         27.4817
402.18        27.53868
402.63        27.65245
403.08        27.75376
403.53        27.72832
403.97        27.55856
404.42        27.29697
404.87        27.04265
405.32        26.95936
405.76        27.07545
406.21        27.33165
406.66        27.62243
407.11        27.78153
407.55        27.76812
408.00        27.64061
408.45        27.45286
408.90        27.23231
409.34        27.04509
409.79        27.00918
410.24        27.07773
410.68        27.06227
411.13        26.95453
411.58        26.86404
412.03        26.80278
412.47        26.75126
412.92         26.7108
413.37        26.67875
413.81        26.68397
414.26         26.7908
414.71        26.99257
415.15        27.27436
415.60        27.52866
416.05        27.61355
416.49        27.49474
416.94        27.21947
417.39        26.89323
417.83        26.68657
418.28        26.65484
418.73        26.74498
419.17        26.88624
419.62        26.96013
420.07        26.93719
420.51        26.85591
420.96        26.76655
421.41        26.71638
421.85        26.71145
422.30        26.74799
422.74        26.79879
423.19        26.86889
423.64        26.94332
424.08        27.03653
424.53        27.11825
424.98        27.17672
425.42        27.21212
425.87        27.22594
426.31         27.2199
426.76         27.2083
427.21        27.18523
427.65        27.13858
428.10        27.10257
428.54        27.11743
428.99        27.19864
429.44        27.40503
429.88        27.60738
430.33        27.53306
430.77        27.21556
431.22        26.95661
431.66        26.85826
432.11        26.95564
432.56        27.21489
433.00         27.6391
433.45        27.99318
433.89        27.82441
434.34        27.28625
434.78        27.06702
435.23        26.97527
435.67        27.55652
436.12        27.13366
436.57        26.99053
437.01        26.74262
437.46        26.65274
437.90        26.75125
438.35         26.8956
438.79        26.99962
439.24        27.05339
439.68        27.03968
440.13        26.75053
440.57         26.3795
441.02        26.66379
441.46        27.36198
441.91          27.606
442.35        26.70197
442.80        26.44918
443.24        26.58116
443.69        26.52784
444.13        26.28884
444.58        26.15817
445.02        26.16593
445.47        26.29958
445.91        26.48864
446.36        26.55555
446.80        26.46599
447.24         26.3097
447.69        26.15392
448.13        26.04852
448.58        26.02287
449.02        26.04837
449.47        26.09357
449.91        26.09957
450.36        26.05765
450.80        25.98602
451.25        25.91011
451.69        25.84123
452.13        25.79653
452.58        25.76649
453.02        25.75823
453.47        25.79208
453.91        25.86729
454.36        25.97498
454.80        26.08624
455.24        26.14666
455.69        26.14953
456.13        26.07921
456.58         25.9872
457.02        25.93968
457.46        25.94579
457.91         25.9286
458.35        25.87052
458.79        25.81792
459.24        25.76349
459.68        25.71117
460.13        25.73209
460.57        25.69431
461.01        25.57201
461.46        26.06876
461.90        26.17074
462.34        25.91303
462.79        26.15707
463.23        26.01947
463.68        25.90592
464.12        25.79813
464.56        25.91318
465.01        26.06942
465.45        26.20439
465.89        26.25635
466.34        26.22138
466.78        26.03377
467.22         25.7987
467.67         25.8683
468.11         26.1916
468.55        26.24471
468.99         26.0344
469.44        25.99837
469.88        26.14579
470.32        26.21842
470.77        26.19671
471.21        26.18129
471.65        26.17672
472.10        26.15215
472.54        26.12773
472.98        26.18613
473.42        26.32696
473.87        26.44954
474.31        26.52551
474.75        26.67712
475.20        26.84221
475.64        26.74618
476.08        26.47756
476.52        26.40592
476.97        26.55738
477.41        26.76085
477.85        26.94998
478.29        27.09486
478.74         27.1746
479.18        27.15228
479.62        27.10604
480.06        27.16724
480.50        27.32611
480.95        27.42113
481.39        27.43098
481.83        27.45134
482.27        27.48266
482.72        27.49397
483.16        27.50874
483.60        27.53188
484.04         27.6479
484.48        27.85241
484.93        28.14424
485.37        28.32328
485.81        28.33322
486.25        28.80272
486.69        29.74618
487.14        29.56142
487.58        28.96099
488.02         29.6218
488.46        29.29446
488.90        29.45774
489.34         29.3363
489.79        29.46744
490.23        29.78615
490.67        29.98468
491.11         30.0498
491.55        30.03454
491.99        29.98766
492.43        30.01056
492.88          30.129
493.32        30.27474
493.76        30.44433
494.20        30.66211
494.64        30.92216
495.08        31.22404
495.52        31.52853
495.96         31.7648
496.41        31.94195
496.85        32.08298
497.29        32.21585
497.73        32.47274
498.17        32.80929
498.61        32.92426
499.05        32.85633
499.49        32.98149
499.93        33.32645
500.37        33.60258
500.82        33.79052
501.26        34.13348
501.70        34.54042
502.14         34.5616
502.58         34.2815
503.02        34.22347
503.46        34.42999
503.90        34.63247
504.34        34.76881
504.78        34.85476
505.22        34.87288
505.66        34.83153
506.10        34.77748
506.54        34.78062
506.98        34.86164
507.42        35.00243
507.86        35.17539
508.30        35.33384
508.74        35.45984
509.18         35.5633
509.62        35.65639
510.06        35.75753
510.50        35.87173
510.94        35.99311
511.38        36.10023
511.82        36.16114
512.26        36.17233
512.70        36.14609
513.14        36.12333
513.58        36.16128
514.02        36.26461
514.46        36.41969
514.90        36.58306
515.34         36.6089
515.78        36.55172
516.22        36.45811
516.66         36.3987
517.10         36.1827
517.54        35.82743
517.98        36.24571
518.42        36.09549
518.86        36.25701
519.30        36.31774
519.74        36.40273
520.18        36.48948
520.62        36.52422
521.06        36.51242
521.50        36.45578
521.93        36.36497
522.37        36.26578
522.81        36.17154
523.25          36.084
523.69         36.0145
524.13        35.98031
524.57        35.97926
525.01        35.99776
525.45        36.02849
525.89        36.05693
526.32        36.07339
526.76        36.08856
527.20        36.06772
527.64        35.96181
528.08        35.77131
528.52        35.50997
528.96        35.26304
529.40        35.16108
529.83        35.22107
530.27         35.4105
530.71         35.6119
531.15        35.64027
531.59        35.46065
532.03        35.13749
532.46        34.78483
532.90        34.60616
533.34        34.63748
533.78        34.80672
534.22         35.0257
534.66        35.15988
535.09        35.16465
535.53          35.099
535.97        34.98642
536.41        34.85732
536.85        34.73278
537.28        34.61588
537.72        34.54549
538.16         34.4824
538.60        34.59867
539.04        34.73116
539.47        34.86352
539.91        34.98416
540.35        35.09891
540.79         34.9187
541.22        34.93847
541.66        34.97669
542.10        35.21124
542.54        35.05545
542.97        35.40921
543.41        35.57387
543.85        35.78923
544.29        35.97581
544.72        36.11197
545.16        36.26901
545.60        36.43792
546.04        36.48642
546.47        36.50352
546.91        36.85921
547.35        37.45634
547.79        37.82696
548.22        37.92567
548.66        37.94036
549.10        37.94778
549.53        38.19374
549.97        38.68765
550.41        38.74611
550.84        39.07664
551.28        39.29144
551.72        39.60761
552.15        39.88983
552.59        40.13426
553.03        40.36254
553.46        40.54785
553.90        40.67884
554.34        40.75132
554.77        40.80512
555.21        40.88898
555.65        40.90055
556.08        41.10406
556.52        41.27014
556.96        41.45699
557.39        41.67847
557.83        41.91155
558.27        42.05085
558.70        42.09407
559.14        42.13577
559.57           42.17
560.01        42.19681
560.45        42.21874
560.88        42.18207
561.32        42.17511
561.75        42.31661
562.19        42.71189
562.63        42.88161
563.06        42.86074
563.50        42.87634
563.93        42.94654
564.37        43.10983
564.80        43.17413
565.24        43.34431
565.68        43.52115
566.11        43.65616
566.55         43.7666
566.98        43.82573
567.42        43.84684
567.85        44.14469
568.29        44.06526
568.72        44.41558
569.16        44.91698
569.60        45.27428
570.03        45.42274
570.47        45.60955
570.90        45.61783
571.34         46.0724
571.77        45.58401
572.21        46.25483
572.64        46.85549
573.08         47.1492
573.51        46.78643
573.95        47.44827
574.38        47.87255
574.82        48.33251
