SpectraSmart Spectrum 2.9.0.0
--------- Device Information -----------
Spectrum Name :  反射率_0
Saving Time :  2024/04/19 23:53:06
Spectro-Module Model Name : SE2030-DUVN
Spectro-Module Serial Number : OS361AC55029948
Wavelength Start : 200
Wavelength End : 1025
Wavelength Unit : Wavelength(nm)
Spectrum Unit : Reflectance(%)
-----------Spectrum Setting ------------
Integration Time : 30ms
Average : 10
Boxcar : 0
Background removal :  enabled
linearity correction :  enabled
SC :  disabled
Intensity correction :  disabled
DWT denoise :  enabled
savitzky-golay :  disabled
FFT :  disabled
Running average :  disabled
Kalman :  disabled
High pass :  disabled
---------------BEGIN--------------------
Wavelength(nm)             Reflectance(%)
200.29               0
200.75        62.24614
201.21        62.41874
201.67        65.11063
202.13        70.33468
202.58        77.79275
203.04        87.80464
203.50        97.09129
203.96        97.93031
204.42        90.56202
204.88        80.26048
205.34        71.29319
205.80        65.32494
206.26        61.28414
206.72        57.68224
207.18        54.63624
207.64        54.39125
208.10        58.44088
208.55        65.63634
209.01        71.59415
209.47         73.7021
209.93        72.45381
210.39        69.00502
210.85         64.6776
211.31        60.72377
211.77        57.09121
212.23        52.96852
212.69        48.61887
213.14         46.5415
213.60        47.59196
214.06        50.88221
214.52        54.29471
214.98        56.73572
215.44        58.46056
215.90        59.61274
216.36        60.94239
216.81        63.66444
217.27        67.56466
217.73         72.0449
218.19        75.03229
218.65        73.84367
219.11        68.11902
219.57        58.13913
220.02        46.44815
220.48        40.08412
220.94        41.58635
221.40        49.73082
221.86        59.99857
222.32        65.23936
222.77        63.77075
223.23        58.04003
223.69        51.69567
224.15        49.90268
224.61        52.78306
225.06        57.54617
225.52        61.67548
225.98        63.14693
226.44        61.94944
226.90        59.04598
227.36         55.4552
227.81        52.91608
228.27        52.32027
228.73          52.861
229.19        53.81768
229.65        54.35303
230.10        54.29988
230.56        54.06272
231.02         53.8154
231.48        53.76511
231.93        53.89166
232.39        54.06524
232.85        54.17131
233.31        54.11118
233.77        53.84998
234.22        53.44225
234.68        52.89874
235.14        52.13678
235.60        51.23207
236.05         50.2885
236.51        49.51587
236.97        49.18347
237.43        49.40769
237.88        50.36034
238.34        51.93269
238.80         53.8728
239.26        55.64705
239.71        56.91642
240.17        57.55979
240.63        58.14836
241.08        58.95114
241.54        59.90247
242.00        60.22335
242.46        58.33653
242.91        53.33644
243.37        43.86687
243.83         31.0152
244.28        24.30848
244.74        32.60434
245.20         53.6037
245.66         73.4118
246.11         80.6099
246.57        74.52803
247.03        55.58538
247.48        28.55295
247.94        19.79517
248.40         33.7416
248.85        52.02689
249.31         65.4204
249.77        71.63222
250.22         72.5759
250.68        70.50853
251.14        66.51164
251.59        62.82824
252.05        61.11971
252.51        60.83228
252.96        61.09938
253.42        60.72173
253.88        59.47134
254.33        58.11134
254.79        58.16706
255.25        60.67742
255.70        65.09307
256.16        70.25397
256.62        74.40141
257.07        75.64824
257.53        74.21845
257.99        70.93029
258.44        66.84354
258.90        64.09728
259.35        62.56646
259.81        62.11091
260.27        61.66836
260.72        60.33841
261.18        58.41561
261.63        55.85413
262.09        53.72498
262.55        52.97225
263.00        53.47813
263.46          54.835
263.91        55.84268
264.37        55.39547
264.83        53.50957
265.28        50.68435
265.74         48.1101
266.19        46.97947
266.65        47.46368
267.11        48.89705
267.56        50.44304
268.02        50.92416
268.47        50.11415
268.93        48.43907
269.38        46.35227
269.84        44.80828
270.30        44.07541
270.75        43.87471
271.21        43.89617
271.66        43.67389
272.12        43.06579
272.57         42.2253
273.03        41.35258
273.48         40.6456
273.94        40.19936
274.39        39.88298
274.85        39.55917
275.31        38.99631
275.76        38.14471
276.22        37.12814
276.67        36.10382
277.13          35.415
277.58         35.0555
278.04         34.9474
278.49        34.83178
278.95        34.42048
279.40        33.63177
279.86        32.66108
280.31        31.64538
280.77        30.92299
281.22        30.48771
281.68        30.26392
282.13        30.10659
282.59        29.85135
283.04        29.45015
283.50        29.00387
283.95         28.5459
284.41        28.16224
284.86        27.85074
285.32        27.59575
285.77         27.3975
286.22        27.32925
286.68        27.37864
287.13        27.49989
287.59        27.59627
288.04        27.49619
288.50        27.19869
288.95        26.72732
289.41         26.2283
289.86        25.85295
290.32        25.68899
290.77        25.67727
291.22        25.75936
291.68        25.81023
292.13        25.80478
292.59         25.8003
293.04        25.86574
293.50        26.12245
293.95        26.57525
294.40        27.15923
294.86        27.78749
295.31        28.33979
295.77        28.78206
296.22        29.15421
296.68        29.48086
297.13        29.78009
297.58        30.08419
298.04        30.39656
298.49        30.76179
298.95        31.28868
299.40        31.96883
299.85        32.76067
300.31        33.57327
300.76        34.26025
301.21        34.78107
301.67        35.19807
302.12        35.51676
302.58        35.81152
303.03        36.08559
303.48        36.33615
303.94        36.62304
304.39        36.99897
304.84        37.47242
305.30        38.01611
305.75        38.52239
306.20        38.84547
306.66        38.97928
307.11        38.96035
307.57        38.88765
308.02        38.83705
308.47         38.8618
308.93        38.92657
309.38         39.0308
309.83        39.22548
310.29        39.49029
310.74        39.80597
311.19        40.05268
311.65        40.03741
312.10        39.72974
312.55        39.19635
313.00        38.60138
313.46        38.19914
313.91        38.03674
314.36        38.05878
314.82        38.14738
315.27        38.13082
315.72        37.94762
316.18        37.66621
316.63        37.34909
317.08        37.09719
317.53        36.93381
317.99        36.81108
318.44         36.6915
318.89          36.511
319.35        36.25391
319.80        35.94798
320.25        35.62316
320.70        35.32525
321.16        35.06226
321.61        34.82056
322.06        34.58116
322.51         34.3177
322.97        34.01632
323.42        33.69782
323.87        33.35746
324.32        32.99207
324.78         32.6029
325.23        32.20174
325.68        31.80954
326.13        31.46798
326.59        31.18919
327.04        30.98725
327.49        30.83211
327.94        30.67543
328.39        30.49987
328.85        30.29263
329.30        30.11666
329.75        30.03597
330.20        30.05706
330.66        30.13243
331.11         30.1946
331.56        30.08346
332.01        29.76263
332.46         29.2725
332.92        28.71245
333.37        28.26337
333.82        27.98986
334.27        27.86952
334.72        27.82553
335.17        27.71971
335.63         27.5031
336.08        27.21904
336.53        26.96842
336.98        26.92478
337.43        27.11675
337.88        27.48906
338.34        27.83286
338.79        27.86054
339.24        27.49383
339.69        26.81315
340.14        26.09175
340.59        25.78966
341.05        25.99813
341.50        26.57925
341.95        27.22018
342.40        27.43755
342.85        27.12716
343.30        26.45841
343.75        25.68021
344.20        25.19635
344.66        25.11821
345.11        25.28669
345.56        25.57208
346.01        25.76762
346.46        25.79312
346.91        25.73425
347.36        25.57157
347.81        25.25928
348.26        24.82702
348.72        24.31329
349.17        23.82449
349.62         23.6242
350.07        23.76458
350.52        24.15601
350.97        24.65555
351.42        25.04277
351.87        25.24364
352.32        25.30878
352.77        25.24774
353.22        25.08428
353.67        24.84639
354.13        24.53958
354.58        24.20466
355.03        23.94905
355.48        23.80254
355.93        23.75735
356.38        23.76966
356.83         23.7578
357.28        23.69237
357.73         23.5816
358.18        23.45811
358.63         23.3773
359.08         23.3498
359.53        23.36176
359.98        23.34281
360.43        23.18918
360.88        22.89171
361.33        22.48454
361.78        22.09136
362.23        21.91175
362.68         21.9772
363.13         22.2129
363.58        22.46224
364.03        22.48469
364.48        22.22313
364.93        21.75101
365.38        21.18627
365.83        20.73297
366.28        20.46395
366.73        20.32458
367.18          20.258
367.63        20.17179
368.08        20.03565
368.53        19.88701
368.98        19.74763
369.43        19.63935
369.88        19.57027
370.33        19.52945
370.78        19.49702
371.23        19.45072
371.68        19.38268
372.13        19.28768
372.58        19.20685
373.03        19.20853
373.48        19.29491
373.93        19.43951
374.38        19.54534
374.83        19.46604
375.28        19.18108
375.72        18.73193
376.17         18.2614
376.62        17.95941
377.07        17.87979
377.52        17.96438
377.97        18.11799
378.42        18.19019
378.87        18.13704
379.32        18.00349
379.77        17.84307
380.22        17.73224
380.67        17.69076
381.11        17.69491
381.56        17.69346
382.01        17.62451
382.46        17.47427
382.91        17.26303
383.36        17.05801
383.81        16.95518
384.26        16.97038
384.71        17.07934
385.15         17.1845
385.60        17.14149
386.05          16.926
386.50        16.58263
386.95        16.24081
387.40        16.10463
387.85        16.20672
388.29        16.47043
388.74        16.74428
389.19         16.8126
389.64        16.63524
390.09        16.28029
390.54        15.87873
390.98        15.63354
391.43        15.61142
391.88        15.73362
392.33        15.88503
392.78        15.90124
393.23          15.757
393.67        15.50661
394.12        15.26755
394.57        15.14489
395.02        15.16021
395.47        15.27104
395.91        15.41066
396.36        15.44912
396.81        15.35793
397.26        15.17437
397.71        14.97593
398.15          14.862
398.60        14.87233
399.05        14.96603
399.50        15.06615
399.95        15.06333
400.39        14.93588
400.84        14.71231
401.29        14.48637
401.74        14.42752
402.18        14.57819
402.63        14.87239
403.08        15.16751
403.53        15.24026
403.97        15.04825
404.42        14.67558
404.87        14.26835
405.32        14.06609
405.76        14.12588
406.21         14.3653
406.66        14.66473
407.11        14.83765
407.55        14.83339
408.00        14.71585
408.45        14.54351
408.90        14.37998
409.34         14.2771
409.79        14.27437
410.24        14.33428
410.68        14.34295
411.13        14.29128
411.58        14.24949
412.03        14.21965
412.47        14.18176
412.92        14.13579
413.37        14.07563
413.81        14.03893
414.26        14.09878
414.71        14.25389
415.15        14.48993
415.60        14.69679
416.05        14.71793
416.49        14.52038
416.94        14.16212
417.39        13.77045
417.83        13.55158
418.28        13.56265
418.73        13.73321
419.17        13.96465
419.62        14.08858
420.07        14.06519
420.51        13.95157
420.96        13.80167
421.41        13.68081
421.85        13.60919
422.30          13.569
422.74        13.55826
423.19        13.60377
423.64        13.69445
424.08        13.83416
424.53        13.96536
424.98        14.00755
425.42        13.94402
425.87        13.80211
426.31        13.62776
426.76        13.50235
427.21        13.44041
427.65        13.41356
428.10        13.42987
428.54        13.47761
428.99         13.5484
429.44        13.70596
429.88        13.86614
430.33        13.80108
430.77        13.55921
431.22        13.41569
431.66        13.41908
432.11        13.49283
432.56        13.62042
433.00        13.85803
433.45        14.05721
433.89        14.00077
434.34        13.77432
434.78        13.52384
435.23        13.24482
435.67        13.82346
436.12        13.32798
436.57        13.20176
437.01        12.94491
437.46        12.83015
437.90        12.87423
438.35        12.95887
438.79        13.04253
439.24        13.11732
439.68        13.16454
440.13        13.07371
440.57        12.91877
441.02         13.0298
441.46        13.28464
441.91        13.27685
442.35        12.70498
442.80        12.47164
443.24        12.44835
443.69        12.36035
444.13        12.20541
444.58        12.12053
445.02        12.11409
445.47        12.18305
445.91        12.27873
446.36        12.29394
446.80        12.20672
447.24        12.06232
447.69        11.91446
448.13        11.81809
448.58        11.79563
449.02        11.82684
449.47        11.87266
449.91        11.86514
450.36        11.79528
450.80        11.68552
451.25        11.58415
451.69        11.55061
452.13        11.59997
452.58        11.69834
453.02        11.81279
453.47        11.89157
453.91        11.92017
454.36        11.91458
454.80        11.87543
455.24        11.80525
455.69        11.71993
456.13        11.61011
456.58        11.51679
457.02        11.49342
457.46        11.54484
457.91        11.62648
458.35        11.70881
458.79        11.77121
459.24        11.79988
459.68        11.80016
460.13          11.818
460.57         11.8088
461.01         11.7687
461.46        12.01183
461.90        12.06611
462.34        11.92958
462.79              12
463.23        11.87872
463.68        11.77329
464.12        11.70278
464.56        11.77417
465.01        11.89001
465.45        12.00518
465.89        12.06422
466.34        12.06021
466.78        11.97489
467.22        11.85857
467.67        11.87793
468.11        12.01227
468.55        12.01578
468.99        11.90862
469.44        11.91763
469.88        12.04921
470.32        12.17692
470.77        12.25193
471.21        12.26255
471.65        12.19905
472.10        12.06938
472.54        11.92652
472.98         11.8861
473.42        11.96789
473.87        12.10183
474.31        12.23779
474.75        12.37066
475.20        12.45653
475.64        12.38515
476.08        12.22555
476.52        12.19112
476.97         12.3021
477.41        12.46606
477.85        12.62227
478.29        12.71021
478.74        12.71058
479.18         12.6217
479.62        12.51666
480.06        12.51108
480.50        12.61018
480.95        12.71986
481.39        12.79356
481.83        12.82313
482.27        12.79795
482.72        12.71993
483.16         12.6367
483.60        12.62068
484.04        12.67602
484.48        12.87104
484.93        13.20859
485.37        13.30875
485.81        13.23672
486.25        13.82355
486.69        13.89954
487.14        13.54895
487.58        13.83787
488.02        14.34958
488.46         13.9946
488.90        14.00441
489.34        14.01256
489.79        14.12557
490.23        14.29609
490.67        14.45661
491.11        14.55888
491.55        14.49852
491.99         14.3237
492.43        14.25131
492.88        14.31303
493.32        14.36929
493.76        14.43444
494.20        14.58596
494.64        14.81941
495.08        15.13025
495.52         15.4531
495.96        15.63673
496.41        15.69201
496.85        15.75339
497.29        15.85318
497.73        15.99945
498.17        16.18097
498.61        16.30004
499.05        16.35961
499.49        16.48979
499.93        16.69567
500.37        16.84837
500.82        16.95982
501.26         17.1892
501.70        17.49511
502.14        17.63305
502.58        17.60844
503.02         17.6371
503.46        17.73078
503.90        17.76831
504.34         17.7505
504.78        17.73851
505.22        17.74062
505.66          17.749
506.10        17.76878
506.54        17.80352
506.98        17.85554
507.42        17.92805
507.86        18.02133
508.30         18.1332
508.74        18.25706
509.18        18.38397
509.62        18.50725
510.06        18.61802
510.50        18.71417
510.94        18.80306
511.38         18.8704
511.82        18.89476
512.26        18.87679
512.70        18.81979
513.14        18.77315
513.58        18.81156
514.02        18.93857
514.46        19.13309
514.90        19.32069
515.34        19.32476
515.78        19.14731
516.22        18.91377
516.66        18.73327
517.10        18.42728
517.54        18.02823
517.98        18.67772
518.42         18.6221
518.86        18.91728
519.30        19.01798
519.74        19.10476
520.18        19.16287
520.62        19.14668
521.06        19.07701
521.50        18.95004
521.93        18.79596
522.37        18.67602
522.81        18.60696
523.25        18.57832
523.69        18.58073
524.13        18.59502
524.57        18.60982
525.01        18.62745
525.45        18.63739
525.89        18.62216
526.32        18.57761
526.76        18.50874
527.20        18.42091
527.64        18.32946
528.08        18.23944
528.52        18.14399
528.96        18.05351
529.40        17.98169
529.83        17.92861
530.27        17.89838
530.71        17.85942
531.15         17.7614
531.59        17.60285
532.03        17.40498
532.46        17.22114
532.90        17.15023
533.34        17.20145
533.78        17.33733
534.22        17.49994
534.66        17.60036
535.09        17.60935
535.53        17.55865
535.97        17.46696
536.41        17.36324
536.85        17.26419
537.28        17.17046
537.72         17.1033
538.16        17.04379
538.60         17.0795
539.04        17.13363
539.47        17.20212
539.91        17.28181
540.35        17.37539
540.79        17.33628
541.22        17.40472
541.66        17.48193
542.10        17.65327
542.54        17.62346
542.97        17.84355
543.41        17.96392
543.85        18.10557
544.29        18.22983
544.72        18.32573
545.16        18.42922
545.60        18.53866
546.04        18.58849
546.47        18.63048
546.91        18.86518
547.35        19.24197
547.79        19.51264
548.22        19.64319
548.66        19.71361
549.10        19.76252
549.53        19.92565
549.97        20.20884
550.41         20.2512
550.84        20.42549
551.28        20.53196
551.72        20.70662
552.15        20.91659
552.59        21.16059
553.03        21.43331
553.46        21.68147
553.90        21.84527
554.34        21.91439
554.77        21.91095
555.21        21.88656
555.65        21.91261
556.08        22.00555
556.52        22.14138
556.96        22.29774
557.39        22.46807
557.83         22.6322
558.27        22.74032
558.70        22.79456
559.14        22.84329
559.57        22.88468
560.01        22.91794
560.45        22.94183
560.88        22.92698
561.32        22.92565
561.75        22.99625
562.19        23.20494
562.63        23.32345
563.06        23.36271
563.50        23.39639
563.93        23.44123
564.37        23.56607
564.80        23.66701
565.24        23.82785
565.68        23.97741
566.11        24.08932
566.55        24.17355
566.98         24.1946
567.42        24.17401
567.85        24.44997
568.29        24.40341
568.72         24.7642
569.16        25.24353
569.60         25.5634
570.03        25.64507
570.47        25.69817
570.90        25.66329
571.34        25.94618
571.77        25.69738
572.21        26.29448
572.64        26.45841
573.08        26.46496
573.51        26.52813
573.95        27.06545
574.38        27.28586
574.82        27.55988
