SpectraSmart Spectrum 2.9.0.0
--------- Device Information -----------
Spectrum Name :  反射率_0
Saving Time :  2024/04/20 00:17:35
Spectro-Module Model Name : SE2030-DUVN
Spectro-Module Serial Number : OS361AC55029948
Wavelength Start : 200
Wavelength End : 1025
Wavelength Unit : Wavelength(nm)
Spectrum Unit : Reflectance(%)
-----------Spectrum Setting ------------
Integration Time : 30ms
Average : 10
Boxcar : 0
Background removal :  enabled
linearity correction :  enabled
SC :  disabled
Intensity correction :  disabled
DWT denoise :  enabled
savitzky-golay :  disabled
FFT :  disabled
Running average :  disabled
Kalman :  disabled
High pass :  disabled
---------------BEGIN--------------------
Wavelength(nm)             Reflectance(%)
200.29               0
200.75        66.18746
201.21        69.38445
201.67        75.73866
202.13        83.83058
202.58        92.52834
203.04        102.0904
203.50        109.8398
203.96        110.0495
204.42        103.4908
204.88        94.32058
205.34        86.48243
205.80        81.72711
206.26        79.14099
206.72        77.67261
207.18        77.23302
207.64        77.65152
208.10          78.738
208.55        81.02181
209.01        82.52702
209.47        82.29226
209.93        80.65395
210.39        77.95282
210.85        75.48575
211.31        74.86781
211.77        76.22946
212.23        79.39416
212.69        83.35706
213.14         84.2597
213.60        80.70927
214.06        76.20733
214.52        72.71592
214.98        71.01696
215.44        70.70989
215.90        70.91812
216.36        72.25148
216.81        75.80715
217.27        81.03754
217.73        87.35511
218.19        92.00812
218.65        91.36539
219.11        84.97684
219.57         73.2877
220.02        59.31295
220.48        51.33289
220.94        52.53348
221.40        61.30234
221.86        73.16711
222.32        80.92825
222.77        82.56578
223.23        80.50249
223.69        77.01923
224.15        75.38024
224.61        76.12244
225.06        77.61382
225.52        79.11417
225.98         80.1823
226.44        80.72952
226.90        81.03922
227.36        81.07282
227.81         80.4958
228.27        79.61925
228.73        78.55986
229.19         77.4149
229.65        76.28275
230.10        75.20375
230.56        74.29047
231.02        73.74592
231.48        73.92233
231.93        74.66319
232.39        75.78333
232.85        76.75691
233.31        76.82534
233.77        75.84518
234.22         74.1068
234.68        71.93907
235.14        69.89186
235.60        68.29044
236.05        67.05185
236.51        66.32581
236.97        66.28861
237.43        66.97155
237.88        68.69296
238.34        71.00626
238.80        72.85021
239.26         73.3045
239.71        72.34489
240.17        70.45766
240.63        69.12714
241.08         68.8487
241.54        69.26324
242.00        69.82848
242.46        69.38256
242.91        67.34466
243.37        63.23098
243.83        57.72112
244.28        55.51297
244.74        60.50273
245.20        71.10318
245.66        80.52383
246.11        83.55914
246.57        79.77269
247.03        69.31306
247.48        54.47807
247.94        49.31464
248.40        56.36495
248.85        66.00896
249.31        73.31132
249.77        77.06827
250.22        78.29085
250.68        78.17391
251.14        77.33952
251.59        76.83805
252.05        77.38892
252.51         78.7852
252.96        80.10757
253.42        80.13049
253.88        78.76612
254.33        76.62178
254.79        75.68781
255.25        77.52029
255.70        81.56027
256.16        86.57654
256.62         90.6842
257.07        91.79809
257.53        90.20454
257.99        86.83314
258.44        82.63092
258.90        79.71563
259.35        77.93859
259.81        77.29937
260.27         76.8484
260.72         75.8161
261.18        74.50873
261.63        72.71005
262.09        71.28306
262.55        70.79018
263.00        71.07321
263.46        71.95018
263.91        72.43337
264.37        71.78254
264.83        69.98521
265.28        67.39299
265.74        65.03605
266.19         63.8009
266.65        63.89024
267.11        64.76335
267.56        65.74776
268.02        65.91964
268.47        65.07442
268.93        63.54708
269.38        61.69963
269.84        60.33687
270.30        59.66085
270.75        59.42774
271.21        59.32798
271.66        58.87693
272.12        57.95748
272.57        56.72635
273.03        55.44851
273.48        54.41353
273.94        53.76288
274.39          53.341
274.85         52.9958
275.31        52.43865
275.76        51.58435
276.22        50.55949
276.67         49.5121
277.13        48.80759
277.58        48.41666
278.04        48.27143
278.49        48.03961
278.95        47.37329
279.40        46.18649
279.86        44.73772
280.31        43.26115
280.77        42.26733
281.22        41.75158
281.68        41.59052
282.13        41.52042
282.59        41.22663
283.04        40.61788
283.50        39.86421
283.95        39.06381
284.41        38.41879
284.86        37.94719
285.32        37.61096
285.77        37.36574
286.22        37.23509
286.68        37.19826
287.13        37.21363
287.59        37.22831
288.04        37.10799
288.50        36.85649
288.95        36.46649
289.41        36.02549
289.86          35.588
290.32        35.23376
290.77        34.93813
291.22        34.72115
291.68         34.5725
292.13         34.4905
292.59        34.51068
293.04        34.65034
293.50        34.95557
293.95         35.4127
294.40        35.99038
294.86        36.64104
295.31        37.30289
295.77        37.94976
296.22        38.58281
296.68        39.19445
297.13        39.75705
297.58        40.27718
298.04        40.77083
298.49        41.25636
298.95        41.81161
299.40        42.43223
299.85        43.09245
300.31        43.77824
300.76        44.44951
301.21        45.09026
301.67        45.74186
302.12        46.32403
302.58        46.79794
303.03        47.13984
303.48        47.39295
303.94        47.69631
304.39        48.21413
304.84        48.97442
305.30        49.89791
305.75        50.79472
306.20        51.40894
306.66        51.70507
307.11        51.74551
307.57        51.67288
308.02        51.61259
308.47        51.64123
308.93        51.70938
309.38        51.80591
309.83        51.97968
310.29        52.21651
310.74        52.51191
311.19        52.74884
311.65        52.72884
312.10        52.42089
312.55        51.89125
313.00         51.3311
313.46        51.03787
313.91        51.05656
314.36        51.31283
314.82        51.62667
315.27        51.72979
315.72        51.53525
316.18        51.14483
316.63        50.67678
317.08        50.32974
317.53        50.15257
317.99        50.06802
318.44        50.00796
318.89        49.85294
319.35        49.57016
319.80        49.21261
320.25         48.8252
320.70        48.47379
321.16        48.17695
321.61        47.92029
322.06         47.6859
322.51        47.45354
322.97        47.20542
323.42        46.95755
323.87        46.70565
324.32        46.44939
324.78        46.17937
325.23        45.90868
325.68        45.61606
326.13        45.28048
326.59        44.90211
327.04        44.51777
327.49        44.16038
327.94        43.88925
328.39         43.7159
328.85        43.60075
329.30        43.55715
329.75        43.53095
330.20        43.49781
330.66        43.44575
331.11        43.37502
331.56        43.22459
332.01        42.98497
332.46        42.66036
332.92        42.29517
333.37        41.99862
333.82        41.79881
334.27        41.69304
334.72        41.62758
335.17        41.50352
335.63        41.28645
336.08        41.02069
336.53        40.78741
336.98        40.73949
337.43        40.90056
337.88        41.21767
338.34        41.52124
338.79        41.58676
339.24        41.34355
339.69        40.86207
340.14        40.32686
340.59        40.05079
341.05        40.10358
341.50        40.39386
341.95        40.75047
342.40        40.90784
342.85        40.80207
343.30         40.5331
343.75        40.20017
344.20        39.96206
344.66        39.86522
345.11        39.82349
345.56        39.83112
346.01        39.88175
346.46        39.94708
346.91        40.04377
347.36        40.06212
347.81        39.82157
348.26        39.31907
348.72        38.64439
349.17        37.96726
349.62        37.64453
350.07        37.75683
350.52        38.17693
350.97        38.72606
351.42        39.13544
351.87        39.31155
352.32        39.31792
352.77        39.17197
353.22        38.90741
353.67        38.56071
354.13        38.14218
354.58        37.68391
355.03        37.28801
355.48        36.99056
355.93        36.79183
356.38        36.68295
356.83        36.63288
357.28        36.61661
357.73        36.62183
358.18        36.62424
358.63        36.58848
359.08        36.49585
359.53        36.34814
359.98         36.1244
360.43        35.79765
360.88        35.37897
361.33        34.89019
361.78        34.40508
362.23        34.04379
362.68        33.83487
363.13        33.74086
363.58        33.69417
364.03        33.58476
364.48        33.37205
364.93        33.07715
365.38        32.71703
365.83         32.3287
366.28        31.93657
366.73        31.53893
367.18        31.14391
367.63        30.76365
368.08        30.40797
368.53        30.08596
368.98        29.81328
369.43        29.60317
369.88        29.45102
370.33        29.34814
370.78        29.25916
371.23        29.12924
371.68        28.94322
372.13        28.70794
372.58        28.46405
373.03        28.28579
373.48        28.18847
373.93        28.14664
374.38         28.1076
374.83        27.98857
375.28        27.77108
375.72        27.47479
376.17        27.16538
376.62        26.90696
377.07        26.72605
377.52        26.60232
377.97        26.51902
378.42        26.45037
378.87         26.3813
379.32        26.31492
379.77        26.24575
380.22        26.16267
380.67        26.06118
381.11        25.94505
381.56        25.79672
382.01        25.61296
382.46        25.39932
382.91        25.15949
383.36        24.92993
383.81        24.76077
384.26        24.66132
384.71         24.6279
385.15        24.60163
385.60        24.49913
386.05        24.30453
386.50        24.04008
386.95        23.79403
387.40        23.70628
387.85        23.79466
388.29        24.00084
388.74        24.21077
389.19         24.2473
389.64        24.07843
390.09        23.75275
390.54        23.38741
390.98        23.16331
391.43        23.14236
391.88        23.25227
392.33         23.3749
392.78        23.33916
393.23        23.12694
393.67        22.79752
394.12        22.49334
394.57        22.33186
395.02        22.33944
395.47         22.4679
395.91        22.65496
396.36        22.76683
396.81        22.76918
397.26         22.6923
397.71        22.58986
398.15        22.52608
398.60        22.54345
399.05        22.60347
399.50        22.65333
399.95        22.62017
400.39        22.49079
400.84         22.2851
401.29        22.07484
401.74        21.98972
402.18        22.06695
402.63        22.25971
403.08        22.45913
403.53        22.48825
403.97        22.31384
404.42        22.00414
404.87        21.68281
405.32        21.55424
405.76        21.66067
406.21        21.92958
406.66        22.24335
407.11        22.41879
407.55        22.40953
408.00        22.27906
408.45        22.09265
408.90        21.90768
409.34        21.78785
409.79          21.815
410.24        21.93279
410.68        21.96405
411.13        21.89635
411.58        21.82628
412.03         21.7784
412.47         21.7607
412.92        21.77724
413.37        21.81379
413.81        21.87462
414.26        21.98508
414.71        22.13422
415.15        22.32286
415.60        22.47435
416.05        22.49439
416.49        22.36456
416.94        22.11981
417.39         21.8501
417.83         21.7012
418.28        21.71489
418.73        21.84053
419.17        22.00527
419.62         22.0844
420.07        22.05058
420.51          21.948
420.96        21.82295
421.41        21.72293
421.85        21.66135
422.30        21.63328
422.74        21.63995
423.19        21.72137
423.64        21.86643
424.08        22.07718
424.53        22.28281
424.98        22.39025
425.42        22.37769
425.87        22.27224
426.31        22.12579
426.76        22.03135
427.21        22.00454
427.65        22.01031
428.10        22.05366
428.54        22.12189
428.99        22.21066
429.44        22.39322
429.88        22.56297
430.33        22.47694
430.77         22.1761
431.22        21.93532
431.66        21.84933
432.11        21.94728
432.56        22.21183
433.00         22.6452
433.45        22.99832
433.89        22.94359
434.34         22.6212
434.78        22.26043
435.23        21.86273
435.67        22.92197
436.12        22.23781
436.57        22.18785
437.01        21.92132
437.46        21.86316
437.90        22.02917
438.35        22.22632
438.79        22.37576
439.24        22.44915
439.68        22.42774
440.13        22.14453
440.57        21.77044
441.02        21.93058
441.46        22.43339
441.91        22.56499
442.35        21.77898
442.80        21.56776
443.24        21.70943
443.69        21.73351
444.13        21.60585
444.58        21.51425
445.02         21.4719
445.47        21.48492
445.91         21.5282
446.36        21.51147
446.80        21.42202
447.24        21.31736
447.69        21.23104
448.13        21.16864
448.58        21.14607
449.02        21.15326
449.47        21.17724
449.91        21.18894
450.36        21.18485
450.80        21.16715
451.25        21.14995
451.69        21.13364
452.13         21.1277
452.58        21.12649
453.02        21.12927
453.47        21.14028
453.91        21.15939
454.36        21.18223
454.80         21.2043
455.24         21.2141
455.69        21.21585
456.13        21.19161
456.58        21.15998
457.02        21.13877
457.46        21.12967
457.91        21.07936
458.35        21.00226
458.79        20.97702
459.24         21.0022
459.68         21.0622
460.13        21.18079
460.57        21.19364
461.01        21.06869
461.46        21.40249
461.90         21.3938
462.34        21.12225
462.79        21.30456
463.23        21.20738
463.68        21.14401
464.12        21.06768
464.56        21.14772
465.01         21.2466
465.45        21.32809
465.89        21.35911
466.34        21.33883
466.78        21.20654
467.22        21.03431
467.67        21.08947
468.11        21.32577
468.55        21.32353
468.99        21.10562
469.44        21.05242
469.88        21.17717
470.32         21.2631
470.77         21.2793
471.21        21.28494
471.65        21.27697
472.10        21.23869
472.54        21.19601
472.98        21.23312
473.42        21.35526
473.87         21.4754
474.31        21.56297
474.75        21.70562
475.20        21.84875
475.64        21.76841
476.08        21.54565
476.52        21.49545
476.97         21.6393
477.41        21.83405
477.85        22.00303
478.29        22.08601
478.74        22.06318
479.18        21.92039
479.62        21.75858
480.06        21.73867
480.50        21.86279
480.95        21.98357
481.39        22.05329
481.83        22.10232
482.27         22.1222
482.72        22.10321
483.16        22.08041
483.60        22.10572
484.04        22.17945
484.48        22.36509
484.93        22.69625
485.37        22.76989
485.81        22.82969
486.25        23.39523
486.69        24.12927
487.14        23.54518
487.58        23.02256
488.02        23.77426
488.46         23.4556
488.90        23.69043
489.34        23.56734
489.79        23.67903
490.23        23.96499
490.67        24.14207
491.11        24.20139
491.55        24.17055
491.99         24.0867
492.43        24.05017
492.88        24.08581
493.32        24.12215
493.76        24.18767
494.20        24.34587
494.64        24.59534
495.08        24.95993
495.52        25.35641
495.96        25.54972
496.41        25.57503
496.85        25.68834
497.29        25.90351
497.73        26.12788
498.17        26.32291
498.61        26.36864
499.05        26.30532
499.49        26.38749
499.93        26.63899
500.37        26.84453
500.82        26.99391
501.26        27.28814
501.70        27.65319
502.14        27.72249
502.58        27.54764
503.02        27.52782
503.46        27.69159
503.90        27.82628
504.34        27.89443
504.78        27.93085
505.22        27.92835
505.66        27.88968
506.10         27.8434
506.54        27.82936
506.98        27.86355
507.42        27.94198
507.86        28.05534
508.30        28.18582
508.74         28.3216
509.18        28.45751
509.62        28.59764
510.06        28.74854
510.50        28.90771
510.94         29.0745
511.38        29.20911
511.82        29.25035
512.26        29.19291
512.70        29.05599
513.14        28.92187
513.58        28.91598
514.02        29.05525
514.46        29.30498
514.90        29.57095
515.34        29.63154
515.78        29.50381
516.22        29.28684
516.66        29.09601
517.10        28.79138
517.54        28.41061
517.98        28.94722
518.42        28.87385
518.86        29.12221
519.30        29.21761
519.74         29.3164
520.18        29.40416
520.62        29.43661
521.06         29.4268
521.50        29.36859
521.93        29.27751
522.37         29.1911
522.81        29.12181
523.25        29.06683
523.69        29.02844
524.13        29.00734
524.57        28.99939
525.01        29.00125
525.45        29.00573
525.89        28.99966
526.32        28.97661
526.76         28.9416
527.20        28.88426
527.64        28.79395
528.08        28.67212
528.52         28.5206
528.96         28.3699
529.40        28.26564
529.83        28.21397
530.27        28.21023
530.71        28.20724
531.15        28.13171
531.59        27.97417
532.03        27.76237
532.46         27.5527
532.90        27.45301
533.34        27.47519
533.78        27.58035
534.22        27.71185
534.66        27.78322
535.09        27.76557
535.53         27.6949
535.97        27.59209
536.41        27.48661
536.85        27.39551
537.28        27.32489
537.72        27.29285
538.16        27.24546
538.60        27.31646
539.04         27.3827
539.47        27.45777
539.91        27.57303
540.35         27.7386
540.79        27.71101
541.22        27.84578
541.66        27.94238
542.10        28.12974
542.54        27.95515
542.97         28.1709
543.41        28.27532
543.85        28.47228
544.29        28.68149
544.72        28.85468
545.16         29.0013
545.60        29.10555
546.04        29.08067
546.47        29.02705
546.91        29.28457
547.35        29.78659
547.79        30.14376
548.22        30.29774
548.66        30.36522
549.10        30.40044
549.53        30.61375
549.97        31.01969
550.41        31.07833
550.84        31.36156
551.28        31.55323
551.72        31.83708
552.15        32.12226
552.59        32.40356
553.03         32.6884
553.46         32.9277
553.90        33.08351
554.34        33.14859
554.77        33.14025
555.21        33.11428
555.65         33.1448
556.08        33.24814
556.52        33.40163
556.96         33.5778
557.39        33.77291
557.83        33.96263
558.27        34.06986
558.70        34.11064
559.14        34.18064
559.57        34.27551
560.01        34.38569
560.45        34.48662
560.88        34.48616
561.32        34.44972
561.75        34.51512
562.19        34.79535
562.63        34.88277
563.06        34.84544
563.50        34.98505
563.93           35.26
564.37        35.49825
564.80        35.52223
565.24        35.59873
565.68          35.678
566.11        35.76966
566.55        35.90739
566.98        35.98323
567.42        35.98569
567.85        36.44096
568.29        36.36882
568.72        36.68962
569.16        37.05484
569.60        37.35282
570.03        37.51411
570.47        37.64754
570.90         37.5829
571.34          38.092
571.77        37.96661
572.21        38.31357
572.64        38.60415
573.08        38.81446
573.51        38.95994
573.95        39.52348
574.38        39.81321
574.82         40.0601
