SpectraSmart Spectrum 2.9.0.0
--------- Device Information -----------
Spectrum Name :  反射率_0
Saving Time :  2024/04/20 00:28:47
Spectro-Module Model Name : SE2030-DUVN
Spectro-Module Serial Number : OS361AC55029948
Wavelength Start : 200
Wavelength End : 1025
Wavelength Unit : Wavelength(nm)
Spectrum Unit : Reflectance(%)
-----------Spectrum Setting ------------
Integration Time : 30ms
Average : 10
Boxcar : 0
Background removal :  enabled
linearity correction :  enabled
SC :  disabled
Intensity correction :  disabled
DWT denoise :  enabled
savitzky-golay :  disabled
FFT :  disabled
Running average :  disabled
Kalman :  disabled
High pass :  disabled
---------------BEGIN--------------------
Wavelength(nm)             Reflectance(%)
200.29               0
200.75        61.26218
201.21        59.71872
201.67        59.45522
202.13        61.89954
202.58        67.74037
203.04        77.21813
203.50        87.53733
203.96        91.07919
204.42        86.84417
204.88        79.26646
205.34        72.30422
205.80         67.8325
206.26        65.14821
206.72        63.06529
207.18        61.37448
207.64        60.53759
208.10        61.15786
208.55        63.57959
209.01        65.79618
209.47        66.77098
209.93        66.54247
210.39        65.40044
210.85        63.83049
211.31        62.34028
211.77        60.90638
212.23         59.3206
212.69        57.49099
213.14        56.10413
213.60        55.54663
214.06        56.11287
214.52         57.3871
214.98        59.31237
215.44        61.87872
215.90        64.88484
216.36        68.41782
216.81        71.95062
217.27        74.59927
217.73        76.57573
218.19        76.69996
218.65         73.3245
219.11        66.32275
219.57        55.62132
220.02        43.91442
220.48        38.52679
220.94        41.90871
221.40        52.71379
221.86        65.51363
222.32        71.81781
222.77        69.74687
223.23        62.20628
223.69          53.659
224.15        50.54776
224.61        53.21714
225.06        58.34161
225.52        63.06038
225.98        65.03954
226.44        64.22467
226.90        61.74466
227.36        58.53452
227.81         56.1232
228.27        55.39761
228.73         55.6203
229.19        56.32649
229.65         57.0043
230.10        57.45572
230.56        57.92387
231.02        58.36147
231.48        58.72312
231.93        58.95528
232.39        59.02507
232.85        58.94146
233.31        58.78758
233.77         58.5844
234.22        58.36477
234.68        58.01823
235.14        57.25609
235.60        56.13311
236.05        54.83407
236.51        53.80856
236.97        53.70718
237.43        54.78236
237.88        57.25763
238.34        60.83205
238.80        64.37907
239.26        66.66398
239.71        67.42248
240.17        66.87616
240.63        66.34288
241.08        66.32224
241.54        66.44447
242.00         66.0916
242.46         63.9442
242.91        59.19838
243.37        50.89554
243.83        39.49587
244.28        31.69896
244.74        34.61597
245.20        47.44576
245.66        60.79174
246.11        66.19596
246.57        62.94786
247.03        52.01149
247.48        36.23029
247.94        31.53284
248.40        40.37006
248.85        51.52221
249.31        60.06197
249.77        65.46561
250.22        68.89948
250.68        71.69328
251.14        73.97507
251.59        75.06795
252.05        74.69524
252.51        72.94125
252.96        69.91268
253.42        66.52495
253.88        63.70256
254.33        61.76987
254.79        62.03263
255.25        65.27702
255.70        70.77534
256.16        77.34444
256.62        83.25542
257.07        86.62711
257.53        87.48682
257.99        86.41237
258.44        83.73582
258.90        80.88214
259.35        78.08577
259.81        76.09186
260.27         74.4064
260.72        72.56725
261.18        70.82089
261.63        68.77495
262.09        67.31454
262.55        67.06669
263.00        67.79136
263.46        69.22077
263.91        70.13474
264.37        69.49818
264.83        67.33054
265.28        64.12077
265.74        61.12286
266.19        59.55522
266.65        59.63745
267.11        60.68693
267.56        61.87049
268.02        62.02955
268.47        60.92083
268.93        58.98191
269.38        56.63351
269.84        54.78463
270.30         53.7058
270.75        53.12499
271.21        52.80972
271.66        52.39299
272.12         51.7417
272.57        50.97267
273.03        50.16876
273.48        49.33521
273.94        48.55497
274.39        47.76858
274.85        46.99743
275.31        46.21908
275.76        45.40815
276.22         44.6035
276.67        43.83669
277.13        43.28881
277.58        42.89722
278.04        42.64706
278.49        42.31385
278.95        41.67997
279.40        40.68138
279.86        39.51171
280.31        38.29841
280.77        37.39102
281.22        36.77845
281.68        36.39781
282.13        36.11707
282.59        35.80064
283.04        35.39285
283.50        34.98948
283.95        34.57822
284.41        34.19207
284.86        33.81829
285.32        33.46918
285.77        33.18374
286.22        33.10437
286.68         33.2316
287.13        33.47997
287.59         33.7273
288.04         33.7554
288.50        33.55079
288.95         33.1426
289.41        32.67184
289.86        32.27467
290.32         32.0482
290.77        31.94366
291.22        31.93101
291.68        31.92667
292.13        31.91952
292.59        31.97193
293.04        32.15271
293.50        32.58236
293.95        33.26205
294.40        34.13054
294.86        35.09474
295.31        36.02425
295.77        36.87464
296.22        37.66934
296.68        38.42735
297.13        39.16331
297.58        39.89585
298.04        40.62371
298.49        41.35363
298.95         42.1472
299.40        42.99615
299.85        43.88591
300.31        44.80014
300.76        45.69251
301.21        46.54584
301.67        47.39576
302.12        48.17866
302.58        48.88685
303.03        49.49432
303.48        50.03386
303.94        50.60289
304.39        51.29876
304.84        52.14209
305.30        53.07909
305.75        53.96947
306.20        54.63742
306.66        55.06482
307.11        55.28396
307.57        55.40205
308.02        55.48492
308.47        55.59637
308.93         55.7116
309.38        55.83229
309.83        56.02985
310.29        56.30023
310.74        56.62782
311.19         56.9057
311.65        56.95144
312.10        56.73227
312.55        56.31179
313.00        55.85514
313.46        55.61922
313.91        55.63848
314.36        55.84333
314.82        56.08492
315.27        56.15011
315.72        55.96358
316.18        55.61705
316.63        55.18181
317.08         54.7851
317.53         54.4693
317.99        54.18671
318.44        53.93649
318.89          53.707
319.35        53.48892
319.80        53.29499
320.25        53.10631
320.70        52.88842
321.16        52.62364
321.61        52.32175
322.06          51.986
322.51        51.63367
322.97        51.26601
323.42        50.89435
323.87        50.51464
324.32         50.1296
324.78         49.7342
325.23        49.34954
325.68        48.97658
326.13        48.62502
326.59        48.29506
327.04        48.01058
327.49        47.75412
327.94        47.50666
328.39        47.25797
328.85        46.98129
329.30        46.73835
329.75        46.56117
330.20         46.4537
330.66        46.38151
331.11        46.30797
331.56        46.10528
332.01        45.74963
332.46        45.27687
332.92        44.75957
333.37        44.35503
333.82        44.10802
334.27        43.99395
334.72        43.96114
335.17        43.91702
335.63        43.81167
336.08        43.68077
336.53        43.55252
336.98        43.49408
337.43        43.51572
337.88        43.59789
338.34        43.62674
338.79        43.47221
339.24        43.09603
339.69        42.54089
340.14        41.99466
340.59        41.77025
341.05        41.91857
341.50         42.3442
341.95        42.80788
342.40        42.93851
342.85        42.65742
343.30        42.09525
343.75        41.43532
344.20        40.97952
344.66         40.8173
345.11        40.82794
345.56        40.94714
346.01        41.06989
346.46        41.13688
346.91        41.19129
347.36        41.15913
347.81        40.91383
348.26        40.46015
348.72        39.86087
349.17        39.24279
349.62        38.89833
350.07        38.89835
350.52        39.14819
350.97        39.51699
351.42        39.80276
351.87        39.93047
352.32        39.94437
352.77        39.84364
353.22        39.63137
353.67        39.33024
354.13        38.95786
354.58        38.54103
355.03        38.17428
355.48        37.89076
355.93        37.68574
356.38        37.55771
356.83        37.49045
357.28         37.4643
357.73        37.46935
358.18        37.46938
358.63          37.409
359.08        37.26736
359.53        37.05026
359.98        36.76835
360.43        36.44106
360.88        36.08437
361.33        35.70718
361.78        35.32864
362.23        34.98192
362.68        34.67994
363.13        34.41233
363.58        34.18593
364.03        34.00307
364.48        33.85001
364.93        33.72311
365.38        33.56225
365.83        33.27396
366.28        32.84961
366.73        32.32132
367.18        31.79236
367.63        31.42481
368.08        31.24999
368.53        31.21778
368.98        31.22706
369.43        31.11631
369.88        30.84651
370.33        30.46996
370.78        30.05594
371.23        29.72429
371.68        29.51694
372.13        29.39256
372.58         29.3257
373.03        29.27691
373.48        29.22042
373.93        29.16415
374.38         29.0861
374.83        28.94796
375.28        28.74148
375.72        28.46284
376.17        28.15436
376.62        27.85014
377.07        27.57404
377.52        27.32668
377.97        27.11817
378.42        26.95916
378.87        26.84623
379.32        26.77307
379.77        26.72476
380.22        26.67408
380.67        26.61093
381.11        26.54533
381.56        26.45354
382.01        26.32242
382.46        26.15123
382.91        25.93385
383.36        25.71837
383.81        25.57834
384.26         25.5216
384.71        25.53604
385.15        25.52872
385.60          25.363
386.05         25.0232
386.50        24.56358
386.95        24.12358
387.40        23.92254
387.85        23.99863
388.29        24.26323
388.74        24.57952
389.19        24.73753
389.64        24.68801
390.09        24.48579
390.54        24.21909
390.98         24.0232
391.43        23.95514
391.88        23.95407
392.33          23.949
392.78        23.84048
393.23        23.62244
393.67        23.33321
394.12        23.07389
394.57        22.90016
395.02        22.82696
395.47         22.8245
395.91        22.86945
396.36         22.8977
396.81        22.89605
397.26        22.87266
397.71        22.83811
398.15        22.79363
398.60        22.76972
399.05        22.74978
399.50        22.71579
399.95        22.64305
400.39        22.52832
400.84        22.37622
401.29        22.22799
401.74         22.1624
402.18        22.20057
402.63        22.30834
403.08        22.41457
403.53         22.3976
403.97        22.23567
404.42        21.98446
404.87        21.72085
405.32        21.57488
405.76        21.57769
406.21        21.68203
406.66        21.83728
407.11        21.96394
407.55        22.03405
408.00         22.0758
408.45        22.07932
408.90        21.96976
409.34        21.77404
409.79        21.62045
410.24         21.5163
410.68        21.37874
411.13        21.22271
411.58        21.11623
412.03        21.06331
412.47        21.03971
412.92        21.03812
413.37        21.05907
413.81        21.11217
414.26        21.22657
414.71        21.39034
415.15        21.59414
415.60        21.75576
416.05        21.77634
416.49        21.63396
416.94        21.36502
417.39        21.05673
417.83        20.85019
418.28        20.79088
418.73        20.83522
419.17        20.92205
419.62        20.94349
420.07         20.8753
420.51        20.75323
420.96        20.62137
421.41        20.52314
421.85        20.46787
422.30        20.45317
422.74        20.46082
423.19        20.50007
423.64        20.55708
424.08        20.63807
424.53        20.71368
424.98        20.76536
425.42        20.78855
425.87        20.78882
426.31        20.75705
426.76        20.69035
427.21        20.58174
427.65        20.42486
428.10        20.27992
428.54        20.22133
428.99        20.26977
429.44        20.49072
429.88        20.73809
430.33        20.64834
430.77        20.28148
431.22        20.06305
431.66        20.06006
432.11        20.14219
432.56         20.2859
433.00        20.57815
433.45        20.81797
433.89        20.71881
434.34        20.42013
434.78        20.12434
435.23        19.80925
435.67        20.79518
436.12         20.1707
436.57        20.10126
437.01        19.81873
437.46        19.71577
437.90        19.81189
438.35        19.93069
438.79        20.01188
439.24        20.04773
439.68        20.02358
440.13        19.78535
440.57        19.47266
441.02        19.62288
441.46         20.0577
441.91        20.14353
442.35        19.40095
442.80        19.17211
443.24        19.25929
443.69        19.24343
444.13        19.09304
444.58        18.97329
445.02         18.8978
445.47          18.876
445.91        18.89164
446.36        18.87475
446.80        18.81224
447.24        18.74454
447.69        18.69495
448.13        18.65865
448.58        18.64502
449.02         18.6497
449.47        18.64839
449.91        18.59539
450.36        18.49222
450.80        18.35255
451.25        18.22634
451.69        18.17142
452.13        18.20445
452.58        18.29716
453.02        18.41235
453.47         18.4947
453.91        18.52714
454.36         18.5227
454.80        18.48698
455.24        18.42969
455.69        18.36654
456.13        18.27593
456.58        18.18914
457.02        18.14355
457.46        18.14216
457.91        18.13536
458.35        18.11189
458.79        18.09938
459.24        18.09017
459.68        18.08094
460.13        18.11977
460.57        18.10873
461.01        18.02997
461.46        18.37949
461.90        18.44251
462.34        18.23872
462.79        18.37702
463.23        18.23724
463.68        18.11983
464.12         18.0337
464.56        18.13487
465.01        18.28544
465.45        18.42306
465.89        18.47585
466.34        18.43666
466.78        18.27057
467.22         18.0617
467.67         18.0743
468.11        18.27827
468.55        18.30052
468.99        18.14948
469.44        18.13523
469.88        18.26184
470.32         18.3476
470.77        18.35857
471.21        18.33544
471.65        18.27525
472.10        18.16675
472.54        18.04878
472.98        18.02295
473.42        18.10198
473.87         18.2069
474.31        18.29564
474.75        18.41397
475.20        18.51094
475.64        18.40712
476.08        18.19025
476.52        18.15485
476.97        18.32326
477.41        18.56249
477.85        18.78868
478.29        18.92066
478.74        18.93057
479.18        18.81271
479.62        18.66136
480.06         18.6278
480.50         18.7187
480.95        18.80342
481.39        18.84057
481.83        18.85702
482.27        18.84533
482.72         18.7976
483.16        18.74829
483.60         18.7492
484.04        18.79846
484.48        18.96146
484.93        19.25716
485.37        19.31857
485.81        19.31359
486.25        19.87422
486.69        20.21735
487.14        19.88178
487.58        19.43856
488.02        20.30704
488.46        19.89338
488.90        20.06194
489.34        19.93488
489.79        20.06554
490.23        20.39694
490.67        20.59859
491.11        20.66077
491.55        20.66118
491.99        20.63141
492.43         20.6229
492.88        20.65562
493.32        20.67848
493.76        20.71643
494.20        20.83547
494.64         21.0404
495.08         21.3185
495.52        21.61625
495.96        21.83223
496.41         21.9652
496.85        22.06787
497.29        22.16575
497.73        22.34003
498.17         22.5659
498.61        22.64652
499.05         22.6105
499.49        22.71383
499.93        22.97513
500.37        23.19646
500.82        23.36327
501.26        23.64355
501.70        23.97132
502.14        24.03149
502.58        23.87311
503.02        23.84795
503.46        23.98432
503.90        24.09986
504.34        24.16053
504.78        24.19277
505.22        24.19027
505.66        24.15595
506.10        24.12239
506.54        24.13609
506.98        24.21087
507.42        24.33781
507.86          24.491
508.30        24.62707
508.74        24.72967
509.18        24.80229
509.62        24.86826
510.06         24.9653
510.50        25.10042
510.94        25.26562
511.38        25.41041
511.82        25.45506
512.26        25.38754
512.70         25.2317
513.14        25.07539
513.58        25.05252
514.02        25.18226
514.46        25.42673
514.90        25.68409
515.34        25.72573
515.78        25.55827
516.22        25.30033
516.66        25.08034
517.10         24.7678
517.54        24.40221
517.98         25.0211
518.42         24.9977
518.86        25.29227
519.30         25.3968
519.74        25.48544
520.18        25.53894
520.62        25.50529
521.06        25.40377
521.50        25.23066
521.93          25.034
522.37        24.90411
522.81        24.86189
523.25        24.88907
523.69        24.94381
524.13        24.95625
524.57        24.90632
525.01        24.81144
525.45        24.70186
525.89        24.62564
526.32        24.59301
526.76        24.58941
527.20        24.57827
527.64        24.50762
528.08        24.36789
528.52        24.17685
528.96        23.98344
529.40        23.85901
529.83        23.81762
530.27        23.84495
530.71        23.88166
531.15        23.83641
531.59        23.69345
532.03        23.48324
532.46        23.27456
532.90        23.19269
533.34        23.25132
533.78        23.40442
534.22        23.57314
534.66        23.63766
535.09        23.56615
535.53        23.40712
535.97        23.21136
536.41        23.05608
536.85        22.96885
537.28        22.93725
537.72        22.95516
538.16        22.94175
538.60        22.99912
539.04        23.03773
539.47        23.07475
539.91        23.14401
540.35        23.25891
540.79        23.21031
541.22        23.30669
541.66         23.3977
542.10        23.59224
542.54        23.50483
542.97        23.74649
543.41        23.86169
543.85        24.01589
544.29        24.15399
544.72        24.25638
545.16        24.36346
545.60        24.47066
546.04        24.49396
546.47        24.50759
546.91        24.78272
547.35        25.25551
547.79        25.59925
548.22        25.76127
548.66        25.83647
549.10         25.8719
549.53        26.04612
549.97        26.37692
550.41        26.41425
550.84         26.6481
551.28        26.81082
551.72        27.05638
552.15        27.30318
552.59        27.54572
553.03        27.79186
553.46        28.00472
553.90        28.15756
554.34        28.24455
554.77        28.27683
555.21        28.29334
555.65        28.34311
556.08        28.43701
556.52        28.56056
556.96        28.69908
557.39        28.86446
557.83        29.03884
558.27        29.14984
558.70        29.20596
559.14        29.28079
559.57          29.369
560.01        29.46531
560.45        29.54606
560.88        29.53772
561.32        29.49962
561.75        29.52054
562.19        29.70822
562.63        29.79865
563.06        29.82042
563.50        29.87848
563.93        29.96699
564.37        30.11498
564.80        30.18012
565.24        30.29277
565.68        30.39402
566.11        30.49161
566.55        30.60684
566.98        30.68487
567.42        30.71021
567.85        31.04516
568.29         30.8904
568.72         31.1974
569.16        31.66241
569.60         31.9784
570.03        32.09122
570.47        32.27361
570.90        32.38413
571.34        32.60949
571.77        32.38124
572.21        32.76146
572.64        33.20681
573.08        33.23623
573.51         33.4432
573.95        33.52221
574.38        34.04472
574.82         34.3173
