SpectraSmart Spectrum 2.9.0.0
--------- Device Information -----------
Spectrum Name :  反射率_0
Saving Time :  2024/04/20 00:24:50
Spectro-Module Model Name : SE2030-DUVN
Spectro-Module Serial Number : OS361AC55029948
Wavelength Start : 200
Wavelength End : 1025
Wavelength Unit : Wavelength(nm)
Spectrum Unit : Reflectance(%)
-----------Spectrum Setting ------------
Integration Time : 30ms
Average : 10
Boxcar : 0
Background removal :  enabled
linearity correction :  enabled
SC :  disabled
Intensity correction :  disabled
DWT denoise :  enabled
savitzky-golay :  disabled
FFT :  disabled
Running average :  disabled
Kalman :  disabled
High pass :  disabled
---------------BEGIN--------------------
Wavelength(nm)             Reflectance(%)
200.29               0
200.75        49.06828
201.21        48.80755
201.67        51.07077
202.13        56.73466
202.58        65.92614
203.04        79.11015
203.50        92.07385
203.96        94.58683
204.42        86.29769
204.88        73.74367
205.34        62.62278
205.80        55.35116
206.26        50.62505
206.72        46.64673
207.18        42.85026
207.64        39.84769
208.10        39.17831
208.55        41.66226
209.01        44.95654
209.47         47.4646
209.93        48.93287
210.39        49.56261
210.85        49.48131
211.31        48.91595
211.77        47.91565
212.23        46.36374
212.69        44.41423
213.14        43.42282
213.60        43.74871
214.06        45.07904
214.52        46.78271
214.98        48.72766
215.44        50.97691
215.90        53.48663
216.36        56.13965
216.81        58.17826
217.27        58.88433
217.73        58.50058
218.19        56.58953
218.65        52.39397
219.11        45.79384
219.57         36.6842
220.02        26.46127
220.48        19.78101
220.94        18.38259
221.40        21.98218
221.86        27.82085
222.32        31.27616
222.77          31.148
223.23        28.68134
223.69        26.32627
224.15         27.5463
224.61        31.82738
225.06        36.94239
225.52        40.66478
225.98        41.31784
226.44        39.03261
226.90        34.83133
227.36        29.71535
227.81        25.57083
228.27        23.63081
228.73        23.24555
229.19        24.20393
229.65         26.2224
230.10        28.81338
230.56        31.67044
231.02        34.23875
231.48        35.81093
231.93        36.32625
232.39        36.07568
232.85        35.21947
233.31          34.044
233.77        32.73907
234.22        31.24623
234.68         29.9645
235.14        29.46089
235.60        29.88585
236.05        31.17581
236.51        32.86901
236.97        34.23386
237.43        35.14536
237.88        35.82277
238.34         36.5905
238.80        38.42112
239.26         41.4724
239.71        45.04067
240.17        48.09218
240.63        49.90031
241.08        50.48288
241.54        50.11682
242.00        48.83647
242.46        46.46241
242.91        42.66719
243.37        36.38183
243.83        28.34914
244.28        24.66312
244.74        30.83568
245.20        45.47512
245.66        58.54822
246.11        61.52271
246.57        53.56847
247.03        34.38905
247.48        8.909163
247.94        2.758667
248.40        18.61436
248.85        38.16135
249.31        52.26399
249.77        59.03658
250.22        60.59689
250.68        59.17607
251.14        55.96878
251.59        53.32453
252.05        52.91226
252.51        54.16866
252.96        55.97535
253.42        56.68647
253.88        55.91528
254.33         54.4602
254.79        54.24454
255.25        56.81076
255.70         61.6375
256.16        67.40987
256.62        72.04495
257.07        73.26882
257.53        71.35011
257.99        67.33527
258.44        62.65463
258.90        59.85154
259.35        58.69532
259.81         58.7006
260.27        58.57818
260.72        57.24915
261.18        55.02583
261.63         51.9911
262.09        49.31422
262.55        48.09424
263.00        48.28426
263.46        49.43653
263.91        50.31609
264.37        49.73741
264.83        47.71305
265.28        44.75067
265.74        42.09431
266.19        41.04046
266.65        41.72495
267.11        43.43245
267.56        45.18563
268.02        45.59909
268.47        44.43357
268.93        42.18412
269.38        39.46341
269.84        37.51054
270.30         36.6743
270.75        36.58635
271.21        36.80914
271.66        36.68511
272.12        36.01666
272.57        35.03951
273.03        33.98529
273.48        33.10401
273.94        32.52131
274.39        32.09616
274.85         31.7329
275.31        31.28433
275.76        30.69927
276.22        30.05542
276.67         29.4308
277.13        29.03107
277.58        28.82498
278.04        28.76395
278.49        28.64732
278.95         28.2541
279.40        27.53615
279.86          26.665
280.31        25.76547
280.77        25.14299
281.22        24.79299
281.68        24.63763
282.13        24.57224
282.59        24.47347
283.04        24.29585
283.50        24.11835
283.95        23.90417
284.41         23.6262
284.86        23.28373
285.32        22.90487
285.77        22.59675
286.22        22.58997
286.68        22.88888
287.13        23.37815
287.59        23.86798
288.04        24.06687
288.50        23.93983
288.95        23.55895
289.41        23.08328
289.86        22.68545
290.32        22.47688
290.77        22.40121
291.22        22.45119
291.68        22.57987
292.13        22.77537
292.59        23.07167
293.04        23.48227
293.50         24.0336
293.95        24.70374
294.40        25.44776
294.86        26.21109
295.31        26.92919
295.77        27.58166
296.22        28.18774
296.68        28.74523
297.13        29.23055
297.58         29.6681
298.04        30.08231
298.49        30.54502
298.95        31.20448
299.40         32.0631
299.85        33.06309
300.31        34.09962
300.76        35.00631
301.21        35.72966
301.67        36.33261
302.12        36.81561
302.58        37.24696
303.03        37.63354
303.48        37.98471
303.94         38.3631
304.39        38.82377
304.84        39.38355
305.30        40.01616
305.75        40.64169
306.20        41.15778
306.66        41.55419
307.11        41.83978
307.57        42.05806
308.02        42.19883
308.47        42.29945
308.93        42.35438
309.38        42.40111
309.83        42.55442
310.29        42.81702
310.74        43.15295
311.19        43.43763
311.65         43.4692
312.10        43.20862
312.55        42.72544
313.00         42.1769
313.46        41.80329
313.91        41.64713
314.36        41.65583
314.82        41.70689
315.27        41.62624
315.72         41.3569
316.18        40.97224
316.63        40.55547
317.08        40.23965
317.53        40.05201
317.99        39.93455
318.44        39.82383
318.89        39.61192
319.35        39.27066
319.80        38.83935
320.25        38.36964
320.70        37.94247
321.16        37.57782
321.61        37.25719
322.06        36.94476
322.51        36.58736
322.97        36.16477
323.42        35.70406
323.87        35.22913
324.32         34.7826
324.78        34.37082
325.23        33.99071
325.68         33.6108
326.13        33.18714
326.59        32.71441
327.04        32.23657
327.49        31.78663
327.94        31.41726
328.39        31.14035
328.85         30.9176
329.30        30.76951
329.75        30.68326
330.20         30.6375
330.66        30.60369
331.11        30.54304
331.56        30.33967
332.01        29.96768
332.46        29.45153
332.92        28.85659
333.37        28.31117
333.82        27.86958
334.27        27.52835
334.72         27.2622
335.17        27.01893
335.63        26.77277
336.08        26.54105
336.53         26.3704
336.98         26.3425
337.43        26.45643
337.88        26.68105
338.34        26.84249
338.79        26.70984
339.24        26.22535
339.69        25.45555
340.14        24.65673
340.59        24.26395
341.05        24.36356
341.50        24.82873
341.95        25.37302
342.40         25.5474
342.85        25.25028
343.30        24.63918
343.75        23.91811
344.20        23.41991
344.66        23.24312
345.11        23.24994
345.56        23.36972
346.01        23.49187
346.46          23.554
346.91        23.60573
347.36        23.56795
347.81        23.30348
348.26        22.82018
348.72        22.18991
349.17        21.55342
349.62         21.2322
350.07        21.30304
350.52         21.6591
350.97        22.15451
351.42         22.5661
351.87        22.81008
352.32        22.93332
352.77        22.92887
353.22        22.79141
353.67        22.54131
354.13        22.19367
354.58        21.79133
355.03        21.44656
355.48        21.19933
355.93        21.04536
356.38        20.97063
356.83        20.93805
357.28        20.92494
357.73        20.92686
358.18        20.93619
358.63        20.94043
359.08        20.92764
359.53        20.89593
359.98        20.80832
360.43         20.6138
360.88        20.31865
361.33        19.94888
361.78        19.59286
362.23        19.39485
362.68        19.37931
363.13        19.48916
363.58        19.63483
364.03        19.67546
364.48        19.56945
364.93        19.36252
365.38        19.07475
365.83        18.74567
366.28        18.41084
366.73        18.06474
367.18        17.76682
367.63        17.61065
368.08        17.60094
368.53         17.7039
368.98        17.83729
369.43        17.86558
369.88        17.75841
370.33        17.56384
370.78        17.31808
371.23        17.08962
371.68        16.91249
372.13        16.75757
372.58        16.67206
373.03        16.73503
373.48        16.93714
373.93        17.24277
374.38        17.52068
374.83        17.56973
375.28        17.35319
375.72        16.92376
376.17         16.4254
376.62        16.05632
377.07        15.88526
377.52        15.85994
377.97        15.92183
378.42        15.97518
378.87        15.98421
379.32        15.97648
379.77        15.96778
380.22        15.97582
380.67        16.00249
381.11        16.03506
381.56         16.0347
382.01        15.96294
382.46        15.81206
382.91        15.59114
383.36        15.36104
383.81        15.20991
384.26        15.15615
384.71        15.18903
385.15        15.22032
385.60        15.11429
386.05        14.85336
386.50        14.48073
386.95        14.13664
387.40        14.03992
387.85        14.22029
388.29        14.59325
388.74        14.97854
389.19        15.12596
389.64        14.98896
390.09        14.64233
390.54        14.23987
390.98        14.02305
391.43        14.06274
391.88        14.26559
392.33        14.48818
392.78        14.52614
393.23        14.35116
393.67        14.03751
394.12        13.72825
394.57        13.56621
395.02        13.57968
395.47        13.71395
395.91        13.88577
396.36        13.93734
396.81        13.83116
397.26        13.61682
397.71        13.38116
398.15        13.23731
398.60        13.22753
399.05        13.30534
399.50        13.39676
399.95        13.39739
400.39        13.28532
400.84        13.09172
401.29        12.89791
401.74        12.84979
402.18        12.98581
402.63        13.24598
403.08        13.51271
403.53        13.60267
403.97        13.47772
404.42        13.20472
404.87         12.8981
405.32        12.74661
405.76        12.79476
406.21        12.97776
406.66        13.19806
407.11        13.30296
407.55        13.25441
408.00        13.10777
408.45        12.92035
408.90        12.75837
409.34        12.66847
409.79        12.68059
410.24        12.75518
410.68        12.78064
411.13        12.74445
411.58        12.71307
412.03        12.67913
412.47        12.61082
412.92        12.51038
413.37        12.37877
413.81         12.2767
414.26        12.31121
414.71        12.48828
415.15        12.78382
415.60        13.06859
416.05        13.15084
416.49        12.98467
416.94        12.63572
417.39        12.24008
417.83        12.01998
418.28        12.03739
418.73        12.21552
419.17        12.45107
419.62        12.56937
420.07        12.53016
420.51        12.39534
420.96        12.22455
421.41        12.09115
421.85        12.01823
422.30        11.98545
422.74        11.98548
423.19        12.03544
423.64        12.12225
424.08        12.24965
424.53        12.36868
424.98         12.4122
425.42        12.36491
425.87        12.24925
426.31        12.09512
426.76        11.95999
427.21        11.85469
427.65        11.75858
428.10         11.6991
428.54        11.69967
428.99        11.76079
429.44        11.92716
429.88        12.10262
430.33        12.05307
430.77        11.81485
431.22        11.63887
431.66        11.58373
432.11        11.60979
432.56        11.71129
433.00        11.93187
433.45        12.12836
433.89        12.08556
434.34        11.87082
434.78        11.62057
435.23          11.355
435.67         11.8657
436.12        11.49936
436.57        11.48054
437.01        11.34883
437.46         11.2942
437.90        11.31775
438.35        11.32891
438.79         11.3157
439.24        11.31073
439.68        11.31095
440.13        11.21372
440.57         11.0699
441.02        11.14085
441.46        11.31675
441.91        11.26014
442.35        10.73511
442.80        10.52891
443.24        10.53196
443.69        10.50467
444.13        10.42122
444.58        10.36329
445.02        10.33017
445.47        10.32978
445.91        10.34521
446.36        10.32625
446.80        10.26244
447.24         10.1774
447.69        10.09412
448.13        10.02271
448.58        9.975679
449.02        9.951845
449.47        9.932538
449.91        9.882848
450.36        9.803045
450.80        9.700836
451.25        9.621135
451.69        9.620832
452.13        9.708301
452.58        9.851583
453.02        9.998193
453.47        10.06304
453.91        10.02998
454.36        9.926888
454.80        9.788292
455.24        9.676057
455.69        9.619007
456.13         9.58787
456.58        9.592219
457.02        9.640209
457.46        9.723379
457.91        9.814682
458.35        9.888386
458.79        9.923525
459.24        9.912894
459.68        9.861177
460.13        9.823078
460.57        9.787046
461.01        9.757051
461.46         9.98674
461.90        10.07091
462.34         9.98039
462.79        10.04153
463.23        9.926642
463.68        9.820849
464.12        9.757671
464.56        9.831571
465.01        9.953801
465.45        10.07513
465.89         10.1332
466.34        10.12028
466.78        10.02697
467.22        9.908576
467.67        9.925071
468.11        10.06405
468.55        10.11395
468.99        10.07428
469.44        10.11032
469.88        10.22189
470.32        10.30814
470.77        10.34417
471.21         10.3476
471.65         10.3153
472.10        10.24591
472.54        10.16563
472.98        10.14502
473.42        10.19564
473.87        10.26905
474.31        10.34148
474.75        10.43377
475.20        10.51557
475.64        10.48575
476.08        10.39118
476.52        10.39684
476.97        10.51468
477.41        10.66962
477.85        10.81471
478.29        10.90605
478.74        10.92808
479.18        10.87486
479.62        10.80031
480.06        10.79256
480.50         10.8551
480.95        10.91244
481.39        10.93892
481.83        10.94711
482.27        10.93509
482.72        10.90375
483.16        10.87802
483.60         10.9042
484.04        10.98802
484.48        11.15194
484.93         11.4148
485.37        11.57717
485.81        11.66594
486.25        12.08147
486.69        12.26829
487.14        11.85373
487.58        11.92128
488.02        12.69235
488.46        12.27207
488.90         12.3029
489.34         12.1694
489.79        12.34327
490.23        12.74284
490.67         12.9571
491.11        12.96493
491.55        12.93917
491.99        12.91799
492.43        12.90781
492.88        12.93183
493.32        12.95784
493.76        13.01614
494.20        13.17876
494.64        13.44912
495.08        13.79219
495.52        14.14865
495.96           14.44
496.41        14.64217
496.85        14.74722
497.29        14.79111
497.73        14.90673
498.17        15.09215
498.61        15.18206
499.05        15.19492
499.49        15.31275
499.93        15.54677
500.37        15.76961
500.82        15.96838
501.26        16.23382
501.70        16.52786
502.14        16.67917
502.58         16.6957
503.02        16.74523
503.46        16.84122
503.90        16.89015
504.34        16.89578
504.78        16.90913
505.22        16.93734
505.66        16.97656
506.10         17.0221
506.54        17.06065
506.98        17.09303
507.42        17.12827
507.86         17.1822
508.30        17.27865
508.74        17.41706
509.18        17.57984
509.62        17.74833
510.06         17.8941
510.50        18.00857
510.94        18.10554
511.38        18.17304
511.82        18.19337
512.26        18.17044
512.70        18.10622
513.14        18.05564
513.58        18.10331
514.02        18.25365
514.46        18.48167
514.90        18.70524
515.34        18.73557
515.78        18.56817
516.22        18.33263
516.66        18.13934
517.10        17.81101
517.54         17.3824
517.98        18.00516
518.42        17.91444
518.86        18.17901
519.30         18.2518
519.74        18.31658
520.18        18.36021
520.62        18.33817
521.06         18.2704
521.50        18.15008
521.93        18.00534
522.37        17.89447
522.81        17.83147
523.25        17.80551
523.69        17.80143
524.13        17.79188
524.57        17.76575
525.01        17.72915
525.45         17.6838
525.89        17.63125
526.32        17.57314
526.76        17.51138
527.20        17.44057
527.64        17.35814
528.08        17.26351
528.52        17.15225
528.96        17.04648
529.40        16.97775
529.83        16.94887
530.27        16.95889
530.71        16.95483
531.15        16.85362
531.59        16.64836
532.03        16.36882
532.46          16.102
532.90        15.99947
533.34        16.07885
533.78        16.28521
534.22        16.51797
534.66         16.6215
535.09        16.55581
535.53        16.37873
535.97        16.15195
536.41        15.97189
536.85        15.87365
537.28        15.83472
537.72        15.85133
538.16         15.8682
538.60        15.95158
539.04        16.04091
539.47        16.13327
539.91         16.2263
540.35        16.32551
540.79        16.29105
541.22        16.35432
541.66         16.4344
542.10        16.61422
542.54        16.61236
542.97        16.85271
543.41        17.00244
543.85        17.17343
544.29        17.33154
544.72         17.4581
545.16        17.57468
545.60        17.68026
546.04        17.71703
546.47        17.75228
546.91         18.0058
547.35        18.43489
547.79         18.7922
548.22        19.02279
548.66        19.17274
549.10         19.2726
549.53        19.46261
549.97        19.76228
550.41        19.84013
550.84        20.06582
551.28        20.23643
551.72          20.472
552.15         20.7189
552.59         20.9725
553.03        21.23707
553.46         21.4756
553.90        21.65238
554.34        21.76098
554.77        21.81255
555.21        21.84827
555.65        21.91945
556.08        22.03567
556.52        22.18697
556.96        22.34938
557.39        22.48317
557.83         22.6207
558.27        22.67501
558.70        22.68393
559.14        22.72736
559.57        22.80869
560.01        22.91721
560.45        23.02345
560.88        23.05419
561.32        23.05224
561.75        23.08921
562.19        23.25669
562.63        23.36556
563.06        23.43595
563.50        23.52842
563.93        23.63749
564.37        23.79812
564.80        23.89776
565.24        24.03324
565.68        24.15331
566.11        24.26348
566.55        24.38093
566.98        24.45443
567.42        24.48797
567.85        24.80764
568.29        24.77339
568.72        25.11289
569.16        25.55589
569.60        25.86929
570.03        26.01007
570.47        26.12244
570.90        26.12344
571.34        26.48969
571.77        26.37339
572.21        26.78995
572.64        27.05588
573.08        27.11362
573.51        27.34047
573.95        27.74936
574.38         28.0221
574.82        28.15463
