SpectraSmart Spectrum 2.9.0.0
--------- Device Information -----------
Spectrum Name :  反射率_0
Saving Time :  2024/04/20 00:14:49
Spectro-Module Model Name : SE2030-DUVN
Spectro-Module Serial Number : OS361AC55029948
Wavelength Start : 200
Wavelength End : 1025
Wavelength Unit : Wavelength(nm)
Spectrum Unit : Reflectance(%)
-----------Spectrum Setting ------------
Integration Time : 30ms
Average : 10
Boxcar : 0
Background removal :  enabled
linearity correction :  enabled
SC :  disabled
Intensity correction :  disabled
DWT denoise :  enabled
savitzky-golay :  disabled
FFT :  disabled
Running average :  disabled
Kalman :  disabled
High pass :  disabled
---------------BEGIN--------------------
Wavelength(nm)             Reflectance(%)
200.29               0
200.75        57.03199
201.21        57.02183
201.67        58.73165
202.13        61.87367
202.58        66.16386
203.04        71.87601
203.50        77.52348
203.96        79.14255
204.42        76.35826
204.88        71.47123
205.34        66.73816
205.80        63.03455
206.26        59.72315
206.72        55.92282
207.18        50.98332
207.64        45.86688
208.10        43.19374
208.55        43.81886
209.01        46.58789
209.47        50.81174
209.93        55.58398
210.39        60.41734
210.85        64.00041
211.31          64.984
211.77        63.16306
212.23        58.50966
212.69        51.35907
213.14        45.81089
213.60        44.60065
214.06        46.55682
214.52        49.29425
214.98        51.29146
215.44        52.52847
215.90        53.27055
216.36        54.05793
216.81        55.65989
217.27        57.92471
217.73        60.51538
218.19        61.59517
218.65         58.6785
219.11        51.38073
219.57        39.86567
220.02        26.90836
220.48         20.1506
220.94        22.23865
221.40         31.7453
221.86        43.36629
222.32        48.76086
222.77        46.10333
223.23        38.34966
223.69        29.85643
224.15        26.85464
224.61        29.60702
225.06        34.80791
225.52        39.59181
225.98        41.85572
226.44         41.5237
226.90        39.67006
227.36        36.99231
227.81        34.57559
228.27         33.3021
228.73        32.76498
229.19        32.83158
229.65        33.37391
230.10          34.209
230.56        35.21699
231.02        36.36726
231.48        37.61568
231.93         38.8504
232.39        40.03814
232.85        40.81638
233.31        40.64607
233.77        39.48919
234.22        37.53757
234.68        35.36449
235.14        33.89322
235.60         33.4607
236.05        33.89116
236.51        34.83375
236.97        35.70099
237.43        36.37608
237.88        37.17777
238.34        38.25081
238.80        39.97031
239.26        42.19838
239.71         44.3069
240.17        45.92684
240.63        47.31368
241.08        48.64814
241.54        50.02272
242.00         50.6749
242.46        49.01579
242.91        44.13911
243.37        34.70221
243.83        21.88352
244.28        15.52264
244.74        24.75989
245.20        47.13252
245.66        68.16077
246.11        76.20895
246.57        70.70937
247.03        51.91323
247.48        24.94366
247.94        16.90365
248.40        31.82406
248.85         50.9804
249.31        64.50033
249.77        69.60719
250.22        68.32669
250.68        62.93476
251.14        55.20916
251.59        49.53395
252.05        48.81172
252.51         52.0815
252.96        57.05544
253.42        59.66908
253.88        58.75005
254.33        56.02625
254.79        54.13612
255.25        55.33079
255.70        59.23456
256.16        64.19524
256.62        68.27493
257.07        69.42384
257.53        67.80006
257.99        64.34505
258.44        60.11684
258.90        57.19648
259.35        55.49955
259.81        54.81648
260.27        54.15296
260.72        52.64922
261.18        50.54532
261.63        47.83396
262.09        45.49147
262.55        44.39286
263.00        44.47631
263.46        45.36188
263.91        46.02159
264.37        45.47786
264.83        43.73303
265.28          41.204
265.74        38.90242
266.19        37.83054
266.65        38.12904
267.11        39.24459
267.56        40.46075
268.02        40.73582
268.47        39.88879
268.93         38.2874
269.38        36.36312
269.84        35.03316
270.30         34.5287
270.75        34.57235
271.21        34.81052
271.66        34.72399
272.12        34.16198
272.57        33.30508
273.03        32.38263
273.48        31.65227
273.94         31.2338
274.39        31.00398
274.85        30.83456
275.31        30.52428
275.76        30.01618
276.22        29.39531
276.67        28.78929
277.13        28.47832
277.58        28.43538
278.04        28.58042
278.49        28.63882
278.95        28.28607
279.40        27.46426
279.86         26.3871
280.31        25.26424
280.77        24.51585
281.22        24.16052
281.68        24.08957
282.13        24.12639
282.59        24.03874
283.04        23.76576
283.50        23.42368
283.95        23.06137
284.41        22.77301
284.86         22.5705
285.32        22.42986
285.77        22.35803
286.22        22.43539
286.68        22.64008
287.13        22.91466
287.59        23.15888
288.04        23.20928
288.50        23.05691
288.95        22.72996
289.41        22.33235
289.86         21.9526
290.32        21.67915
290.77        21.48758
291.22         21.4005
291.68         21.4128
292.13        21.52207
292.59         21.7398
293.04         22.0679
293.50        22.51627
293.95        23.06062
294.40        23.67175
294.86         24.2897
295.31        24.83838
295.77        25.30145
296.22        25.70008
296.68        26.07094
297.13        26.45421
297.58         26.8811
298.04        27.35094
298.49        27.87147
298.95        28.48941
299.40        29.18548
299.85        29.93409
300.31        30.68576
300.76         31.3623
301.21        31.93724
301.67        32.45217
302.12        32.87727
302.58        33.22878
303.03        33.50237
303.48        33.71438
303.94        33.95969
304.39        34.34624
304.84        34.88917
305.30        35.53628
305.75        36.14642
306.20        36.52079
306.66        36.64299
307.11        36.57631
307.57        36.43811
308.02        36.33453
308.47        36.33038
308.93        36.37841
309.38        36.49337
309.83         36.7472
310.29        37.11568
310.74         37.5734
311.19        37.95902
311.65        38.01282
312.10        37.69443
312.55        37.09192
313.00        36.41645
313.46        35.99827
313.91        35.90222
314.36        36.04721
314.82        36.28299
315.27        36.38117
315.72        36.26176
316.18        36.01306
316.63        35.70702
317.08        35.45806
317.53        35.29726
317.99        35.16809
318.44        35.04935
318.89        34.90597
319.35        34.72562
319.80        34.53198
320.25        34.31973
320.70         34.0751
321.16        33.79595
321.61        33.48569
322.06         33.1721
322.51        32.90747
322.97        32.69477
323.42        32.52624
323.87        32.35132
324.32        32.09146
324.78        31.72609
325.23        31.29236
325.68        30.83376
326.13        30.43014
326.59        30.11188
327.04         29.8801
327.49        29.71542
327.94        29.58739
328.39        29.47843
328.85        29.37541
329.30        29.30985
329.75        29.28829
330.20         29.3008
330.66        29.31241
331.11         29.2911
331.56        29.13751
332.01        28.83416
332.46         28.4098
332.92         27.9368
333.37        27.54677
333.82        27.29085
334.27        27.15984
334.72        27.10963
335.17        27.05688
335.63         26.9617
336.08        26.84136
336.53        26.74671
336.98        26.77386
337.43        26.92805
337.88        27.17452
338.34        27.34555
338.79        27.21908
339.24         26.7436
339.69        25.99506
340.14        25.22593
340.59        24.85855
341.05        24.98114
341.50        25.47306
341.95        26.06934
342.40        26.35453
342.85        26.22886
343.30        25.83166
343.75        25.33274
344.20        25.01189
344.66        24.94578
345.11        25.00281
345.56        25.12727
346.01         25.2351
346.46        25.27787
346.91        25.30878
347.36        25.23899
347.81        24.91523
348.26        24.34861
348.72        23.61818
349.17        22.91154
349.62        22.62229
350.07        22.83185
350.52         23.4024
350.97        24.10579
351.42        24.59707
351.87        24.77186
352.32        24.71852
352.77        24.50541
353.22          24.249
353.67        24.00465
354.13        23.75107
354.58         23.4857
355.03        23.25024
355.48        23.06016
355.93        22.93034
356.38        22.86475
356.83        22.85287
357.28        22.87749
357.73         22.9208
358.18        22.95408
358.63        22.93459
359.08         22.8501
359.53        22.71909
359.98        22.53615
360.43        22.29517
360.88        22.01105
361.33        21.69051
361.78        21.40806
362.23        21.28348
362.68        21.32875
363.13        21.49633
363.58         21.6749
364.03         21.6915
364.48        21.50289
364.93        21.15729
365.38        20.72854
365.83        20.34949
366.28        20.07295
366.73        19.86727
367.18        19.71243
367.63        19.57405
368.08         19.4362
368.53        19.31482
368.98        19.20936
369.43        19.10804
369.88        19.01064
370.33        18.92318
370.78         18.8336
371.23        18.72989
371.68        18.61329
372.13        18.47628
372.58        18.37454
373.03        18.40109
373.48        18.55759
373.93        18.80425
374.38        19.01856
374.83        19.01556
375.28        18.76518
375.72        18.32141
376.17        17.83302
376.62        17.50201
377.07        17.39107
377.52        17.43857
377.97        17.56936
378.42        17.66291
378.87        17.67755
379.32        17.65067
379.77        17.59978
380.22         17.5468
380.67        17.49966
381.11        17.44402
381.56        17.36689
382.01        17.27334
382.46        17.16173
382.91         17.0291
383.36        16.89108
383.81        16.76402
384.26         16.6544
384.71        16.57656
385.15        16.48801
385.60        16.32554
386.05        16.08785
386.50        15.79204
386.95         15.5473
387.40        15.52371
387.85        15.73403
388.29        16.10726
388.74        16.47353
389.19        16.59436
389.64        16.42653
390.09        16.03656
390.54        15.58016
390.98        15.30468
391.43        15.28581
391.88        15.43598
392.33         15.6075
392.78        15.58653
393.23        15.34772
393.67        14.97122
394.12        14.61533
394.57        14.44075
395.02        14.47666
395.47        14.66003
395.91        14.89304
396.36        14.98998
396.81         14.9033
397.26        14.68973
397.71        14.44275
398.15         14.2866
398.60        14.26912
399.05        14.33844
399.50        14.42444
399.95        14.42914
400.39        14.33047
400.84        14.15873
401.29        13.98499
401.74        13.93602
402.18         14.0459
402.63        14.26057
403.08        14.47652
403.53        14.53147
403.97        14.39267
404.42        14.12254
404.87         13.8264
405.32        13.67743
405.76        13.71738
406.21        13.88839
406.66        14.10094
407.11        14.21507
407.55        14.19404
408.00        14.08431
408.45         13.9388
408.90        13.81267
409.34        13.74838
409.79        13.78774
410.24        13.87725
410.68        13.87948
411.13        13.78323
411.58        13.66213
412.03        13.54732
412.47        13.47191
412.92        13.44863
413.37        13.45656
413.81        13.49767
414.26        13.58836
414.71        13.71481
415.15        13.87979
415.60        14.00512
416.05        13.98774
416.49        13.80885
416.94        13.50787
417.39         13.1842
417.83        13.00061
418.28        13.00199
418.73        13.13272
419.17        13.31134
419.62        13.39531
420.07        13.35217
420.51        13.22884
420.96        13.07269
421.41        12.94006
421.85         12.8498
422.30        12.79161
422.74        12.76251
423.19        12.78497
423.64        12.84835
424.08        12.95375
424.53        13.05839
424.98        13.10729
425.42        13.08703
425.87        13.01754
426.31        12.91346
426.76        12.80862
427.21        12.70917
427.65        12.59976
428.10         12.5255
428.54         12.5394
428.99        12.64719
429.44        12.88531
429.88        13.13489
430.33        13.12179
430.77        12.88108
431.22        12.69465
431.66        12.63444
432.11        12.66882
432.56        12.79424
433.00        13.05149
433.45        13.28205
433.89        13.24539
434.34        13.01261
434.78        12.73822
435.23         12.4363
435.67        12.95973
436.12        12.50185
436.57        12.40595
437.01        12.19577
437.46        12.11721
437.90        12.17969
438.35        12.27353
438.79        12.35492
439.24        12.40937
439.68         12.4206
440.13        12.28961
440.57        12.09517
441.02        12.15936
441.46         12.3714
441.91        12.34921
442.35        11.81638
442.80        11.61562
443.24        11.62533
443.69        11.59039
444.13        11.49075
444.58        11.42734
445.02        11.40318
445.47        11.42145
445.91        11.46232
446.36        11.46883
446.80         11.4271
447.24         11.3636
447.69        11.29707
448.13        11.22938
448.58        11.17261
449.02        11.12711
449.47        11.08243
449.91        11.01663
450.36         10.9343
450.80        10.84194
451.25        10.77679
451.69        10.78148
452.13        10.86344
452.58        10.99665
453.02        11.14036
453.47        11.22889
453.91        11.24757
454.36        11.21317
454.80        11.14565
455.24        11.08303
455.69        11.04426
456.13        11.00439
456.58        10.97654
457.02        10.97336
457.46        10.99364
457.91        11.01355
458.35        11.01854
458.79         11.0075
459.24        10.97731
459.68        10.92686
460.13        10.91396
460.57        10.92074
461.01        10.94264
461.46        11.26345
461.90        11.41042
462.34         11.3256
462.79        11.37531
463.23        11.19403
463.68        11.00967
464.12        10.89565
464.56        10.96807
465.01        11.11843
465.45        11.27892
465.89        11.36182
466.34        11.35296
466.78        11.24689
467.22        11.10812
467.67        11.11886
468.11        11.26643
468.55        11.31225
468.99        11.25445
469.44        11.27647
469.88        11.37899
470.32        11.45261
470.77        11.47606
471.21        11.47664
471.65        11.45263
472.10        11.39851
472.54        11.33847
472.98        11.34155
473.42        11.41611
473.87        11.50868
474.31        11.59167
474.75        11.68949
475.20        11.76839
475.64        11.71468
476.08        11.58237
476.52        11.55746
476.97        11.65457
477.41        11.79149
477.85        11.91783
478.29        11.98707
478.74        11.98361
479.18        11.90182
479.62        11.80307
480.06        11.78562
480.50        11.85321
480.95         11.9229
481.39        11.96052
481.83        11.97163
482.27        11.95086
482.72        11.89629
483.16        11.84435
483.60        11.86211
484.04         11.9629
484.48        12.15689
484.93        12.43907
485.37        12.60181
485.81        12.70077
486.25        12.97168
486.69        13.20198
487.14        12.80388
487.58        12.95592
488.02        13.65123
488.46         13.1621
488.90        13.24122
489.34        13.30102
489.79        13.44701
490.23        13.62756
490.67        13.80373
491.11        13.93721
491.55         13.9056
491.99        13.75387
492.43        13.69085
492.88        13.74889
493.32        13.79894
493.76        13.85556
494.20        14.00187
494.64        14.23714
495.08        14.52806
495.52        14.82743
495.96        15.07411
496.41        15.24987
496.85        15.34225
497.29        15.38239
497.73          15.497
498.17        15.67908
498.61        15.75829
499.05         15.7543
499.49        15.85901
499.93        16.08505
500.37        16.29189
500.82        16.46246
501.26        16.70634
501.70        16.97421
502.14        17.04339
502.58        16.95233
503.02        16.95927
503.46         17.0849
503.90        17.19471
504.34         17.2583
504.78        17.28444
505.22        17.26847
505.66        17.22207
506.10        17.17121
506.54        17.15221
506.98        17.18031
507.42        17.24846
507.86        17.35619
508.30        17.50108
508.74        17.67046
509.18         17.8522
509.62        18.02686
510.06        18.16422
510.50        18.25661
510.94         18.3176
511.38        18.33627
511.82        18.29925
512.26        18.21514
512.70        18.08829
513.14        17.98453
513.58        18.00335
514.02        18.15099
514.46        18.39866
514.90        18.64936
515.34        18.68886
515.78        18.50731
516.22         18.2431
516.66        18.01913
517.10        17.67921
517.54        17.26285
517.98          17.912
518.42        17.85597
518.86        18.15976
519.30        18.27099
519.74        18.37684
520.18        18.44858
520.62         18.4167
521.06        18.30064
521.50        18.10268
521.93          17.884
522.37        17.75625
522.81        17.74497
523.25        17.82341
523.69        17.94094
524.13        18.01476
524.57        18.01813
525.01         17.9695
525.45        17.89589
525.89        17.84092
526.32        17.81467
526.76         17.8035
527.20        17.77495
527.64        17.68417
528.08        17.52627
528.52        17.32074
528.96        17.11913
529.40        16.99573
529.83        16.96472
530.27        17.00776
530.71        17.06558
531.15        17.04454
531.59        16.92693
532.03        16.74437
532.46        16.55674
532.90        16.47382
533.34        16.50895
533.78        16.61874
534.22         16.7457
534.66         16.8034
535.09        16.76571
535.53        16.67037
535.97        16.53857
536.41        16.40001
536.85        16.27458
537.28        16.16429
537.72        16.09678
538.16        16.06559
538.60        16.15148
539.04        16.27301
539.47        16.41225
539.91        16.54613
540.35        16.67055
540.79        16.64919
541.22         16.7133
541.66        16.77054
542.10        16.90713
542.54        16.84163
542.97        17.01709
543.41        17.11752
543.85        17.26235
544.29        17.41109
544.72        17.54144
545.16        17.66801
545.60        17.78434
546.04        17.83272
546.47        17.87064
546.91        18.10343
547.35        18.48589
547.79        18.77471
548.22        18.93028
548.66        19.02071
549.10        19.08137
549.53        19.24586
549.97        19.52541
550.41         19.5793
550.84        19.76896
551.28        19.89862
551.72         20.0926
552.15        20.30626
552.59        20.53466
553.03        20.78474
553.46        21.01553
553.90        21.16336
554.34        21.21644
554.77        21.27725
555.21        21.24057
555.65        21.28797
556.08        21.38728
556.52        21.52224
556.96         21.6668
557.39        21.81064
557.83        21.93712
558.27        21.99933
558.70          22.012
559.14        22.04083
559.57        22.08824
560.01        22.14869
560.45        22.20896
560.88        22.22132
561.32        22.23074
561.75        22.29746
562.19        22.49488
562.63        22.61613
563.06        22.67478
563.50        22.73818
563.93        22.80968
564.37        22.93675
564.80        23.01544
565.24        23.13353
565.68        23.24173
566.11        23.34432
566.55        23.45564
566.98        23.53099
567.42        23.56595
567.85         23.8508
568.29        23.77268
568.72        24.05657
569.16        24.44785
569.60        24.70935
570.03        24.79974
570.47          24.887
570.90        24.88594
571.34         25.1881
571.77        24.96736
572.21        25.39833
572.64        25.51791
573.08        25.55708
573.51        25.74131
573.95        26.33632
574.38         26.3878
574.82        26.56256
