SpectraSmart Spectrum 2.9.0.0
--------- Device Information -----------
Spectrum Name :  反射率_0
Saving Time :  2024/04/20 00:54:51
Spectro-Module Model Name : SE2030-DUVN
Spectro-Module Serial Number : OS361AC55029948
Wavelength Start : 200
Wavelength End : 1025
Wavelength Unit : Wavelength(nm)
Spectrum Unit : Reflectance(%)
-----------Spectrum Setting ------------
Integration Time : 30ms
Average : 10
Boxcar : 0
Background removal :  enabled
linearity correction :  enabled
SC :  disabled
Intensity correction :  disabled
DWT denoise :  enabled
savitzky-golay :  disabled
FFT :  disabled
Running average :  disabled
Kalman :  disabled
High pass :  disabled
---------------BEGIN--------------------
Wavelength(nm)             Reflectance(%)
200.29               0
200.75        52.75564
201.21         55.4738
201.67        61.17088
202.13        68.97707
202.58        77.92768
203.04        88.40827
203.50        96.72901
203.96        95.26289
204.42        85.28663
204.88        72.55274
205.34        62.00158
205.80        55.52229
206.26        51.82554
206.72        49.65953
207.18        48.59672
207.64        47.94257
208.10        47.59518
208.55         48.3653
209.01        49.63213
209.47        51.69165
209.93        54.16962
210.39        56.45718
210.85        57.86086
211.31        57.73932
211.77        55.91189
212.23        52.30046
212.69        47.14386
213.14        43.31755
213.60        42.60432
214.06        44.28863
214.52        46.56499
214.98        48.33298
215.44        49.64154
215.90        50.67328
216.36        51.97877
216.81        54.31473
217.27        57.41972
217.73         60.8429
218.19        62.91618
218.65        61.47965
219.11        56.26472
219.57        47.49678
220.02        37.32703
220.48        31.93713
220.94        33.46121
221.40        40.79733
221.86        50.07029
222.32        55.17986
222.77        54.56284
223.23        50.18433
223.69        44.89869
224.15        42.81474
224.61         44.2019
225.06        47.06074
225.52        49.39739
225.98         49.6296
226.44        47.73442
226.90        44.49877
227.36        40.93004
227.81        38.75157
228.27        38.79802
228.73        40.23809
229.19        42.18549
229.65        43.64484
230.10        44.37693
230.56        44.65347
231.02        44.78774
231.48        45.16496
231.93        45.77319
232.39        46.47611
232.85        46.85043
233.31        46.29176
233.77        44.75449
234.22        42.48202
234.68        40.13243
235.14        38.74302
235.60        38.65047
236.05        39.61116
236.51        41.09798
236.97        42.28725
237.43        42.98876
237.88        43.52656
238.34        44.10154
238.80        45.46792
239.26        47.75073
239.71        50.31263
240.17        52.49189
240.63        54.10514
241.08        55.21259
241.54        55.93528
242.00         55.8885
242.46        54.12747
242.91        50.06366
243.37         42.6565
243.83        32.60027
244.28        26.90025
244.74        32.34916
245.20        47.50321
245.66        62.26981
246.11        68.25063
246.57        64.89729
247.03        52.74728
247.48        34.74751
247.94         28.4418
248.40        37.05696
248.85        48.68696
249.31         57.1901
249.77         61.1297
250.22        61.67125
250.68         60.2416
251.14        57.54215
251.59        54.94332
252.05        53.66354
252.51        53.55066
252.96        53.86934
253.42        53.61726
253.88         52.6567
254.33        51.46937
254.79        51.88223
255.25        55.40608
255.70        61.38403
256.16        68.42429
256.62         74.1319
257.07        75.86871
257.53        73.97031
257.99        69.68314
258.44        64.69564
258.90        61.88656
259.35        60.95046
259.81        61.20081
260.27        61.27038
260.72        60.01903
261.18        57.79215
261.63        54.74618
262.09         51.9857
262.55        50.50941
263.00        50.31654
263.46        51.01657
263.91        51.57886
264.37        51.07386
264.83        49.46126
265.28        47.10381
265.74        44.98808
266.19        44.04465
266.65        44.40617
267.11         45.5379
267.56          46.676
268.02        46.72626
268.47        45.51029
268.93        43.41669
269.38        41.00408
269.84        39.41482
270.30        38.93115
270.75        39.20761
271.21        39.72817
271.66        39.71575
272.12        38.97078
272.57        37.75748
273.03        36.42873
273.48        35.43578
273.94        34.94749
274.39        34.75248
274.85        34.65972
275.31        34.37669
275.76        33.81335
276.22        33.09737
276.67        32.34583
277.13        31.82488
277.58        31.52447
278.04        31.38859
278.49          31.196
278.95        30.70989
279.40         29.8772
279.86        28.87662
280.31        27.87412
280.77        27.23485
281.22        26.95062
281.68        26.92791
282.13        26.96989
282.59        26.82375
283.04        26.43006
283.50        25.91526
283.95        25.36918
284.41        24.95358
284.86         24.6905
285.32        24.54317
285.77        24.47881
286.22        24.51613
286.68        24.62656
287.13        24.77782
287.59        24.91001
288.04        24.91122
288.50        24.78276
288.95        24.52926
289.41        24.22805
289.86        23.92611
290.32        23.69723
290.77        23.52529
291.22        23.44431
291.68        23.46624
292.13        23.59453
292.59        23.84091
293.04         24.1985
293.50        24.66666
293.95        25.22276
294.40         25.8452
294.86        26.50042
295.31        27.15093
295.77        27.78477
296.22        28.40781
296.68        29.01626
297.13        29.58535
297.58        30.12599
298.04        30.65129
298.49          31.201
298.95        31.87695
299.40         32.6741
299.85        33.55365
300.31         34.4401
300.76        35.21192
301.21        35.83847
301.67        36.38209
302.12        36.84694
302.58        37.30371
303.03         37.7544
303.48         38.2007
303.94        38.69962
304.39        39.29695
304.84         39.9964
305.30        40.76385
305.75        41.49197
306.20        42.04036
306.66        42.39951
307.11        42.59921
307.57        42.71986
308.02         42.8067
308.47        42.91351
308.93        43.01833
309.38        43.15385
309.83        43.42466
310.29        43.82452
310.74        44.32312
311.19        44.76776
311.65        44.90986
312.10        44.70569
312.55        44.23746
313.00        43.70933
313.46        43.43975
313.91        43.48318
314.36        43.75548
314.82        44.08279
315.27        44.20592
315.72         44.0373
316.18        43.67492
316.63        43.22341
317.08        42.85122
317.53        42.60637
317.99        42.42987
318.44        42.27029
318.89        42.03826
319.35        41.71276
319.80        41.33266
320.25         40.9532
320.70         40.6559
321.16        40.45101
321.61        40.31134
322.06        40.16699
322.51        39.91354
322.97         39.5168
323.42        39.01496
323.87         38.4643
324.32        37.96473
324.78        37.54264
325.23        37.18908
325.68        36.85304
326.13        36.45465
326.59        35.97982
327.04        35.48597
327.49          35.033
327.94        34.71646
328.39        34.55382
328.85        34.48632
329.30        34.49441
329.75         34.4907
330.20        34.43301
330.66        34.31654
331.11        34.14121
331.56        33.85254
332.01        33.44738
332.46        32.93398
332.92        32.37339
333.37         31.8884
333.82         31.5252
334.27        31.28846
334.72        31.13147
335.17        30.96176
335.63        30.74238
336.08        30.49602
336.53        30.30125
336.98        30.30095
337.43        30.50678
337.88        30.86814
338.34        31.16866
338.79        31.11008
339.24        30.61773
339.69        29.78084
340.14        28.89205
340.59        28.44703
341.05        28.55268
341.50        29.06422
341.95        29.67337
342.40        29.89829
342.85        29.62727
343.30        29.02817
343.75        28.31479
344.20        27.83423
344.66        27.68751
345.11        27.72843
345.56        27.87416
346.01         27.9977
346.46        28.03366
346.91        28.03875
347.36        27.94754
347.81        27.64204
348.26        27.13552
348.72         26.4954
349.17        25.85353
349.62         25.5156
350.07        25.55383
350.52        25.86491
350.97        26.31599
351.42        26.70154
351.87        26.94177
352.32        27.08235
352.77        27.09553
353.22         26.9436
353.67        26.64309
354.13        26.21754
354.58        25.74827
355.03        25.40982
355.48        25.24896
355.93        25.23855
356.38        25.30636
356.83        25.32461
357.28        25.25191
357.73        25.11305
358.18        24.95667
358.63        24.86428
359.08        24.85131
359.53        24.88667
359.98        24.89312
360.43        24.75856
360.88        24.47057
361.33        24.07335
361.78        23.67502
362.23        23.44915
362.68        23.42987
363.13        23.55114
363.58        23.70452
364.03        23.72358
364.48        23.56109
364.93         23.2671
365.38        22.89303
365.83        22.53018
366.28        22.22154
366.73        21.94498
367.18        21.70616
367.63        21.51327
368.08         21.3622
368.53        21.25835
368.98        21.18153
369.43        21.08987
369.88        20.97481
370.33         20.8492
370.78        20.72116
371.23        20.61074
371.68        20.52694
372.13        20.45531
372.58        20.41733
373.03         20.4507
373.48        20.54688
373.93        20.68185
374.38        20.78568
374.83        20.75386
375.28        20.56692
375.72        20.24943
376.17        19.88778
376.62        19.58206
377.07        19.37544
377.52        19.24911
377.97        19.18192
378.42        19.13699
378.87        19.09592
379.32        19.06285
379.77         19.0455
380.22        19.05116
380.67        19.07582
381.11        19.11764
381.56         19.1224
382.01        19.02365
382.46        18.81379
382.91        18.51133
383.36        18.21297
383.81        18.06385
384.26        18.08837
384.71        18.25053
385.15        18.42117
385.60        18.40381
386.05        18.16272
386.50        17.76063
386.95        17.35109
387.40        17.17678
387.85        17.28009
388.29        17.56787
388.74         17.8775
389.19         17.9765
389.64        17.81983
390.09        17.48343
390.54        17.09576
390.98        16.85425
391.43        16.82704
391.88        16.93431
392.33        17.07315
392.78        17.09851
393.23        16.98462
393.67        16.77613
394.12        16.57521
394.57        16.46128
395.02        16.45323
395.47        16.51958
395.91        16.60744
396.36        16.61042
396.81        16.51134
397.26        16.34053
397.71        16.17366
398.15        16.10709
398.60        16.17426
399.05        16.32775
399.50        16.48075
399.95        16.50993
400.39        16.39143
400.84        16.16016
401.29         15.9072
401.74        15.79983
402.18        15.88736
402.63         16.1081
403.08        16.34664
403.53        16.41854
403.97        16.28507
404.42        16.01771
404.87        15.72617
405.32        15.59006
405.76        15.65087
406.21        15.84312
406.66        16.07574
407.11        16.20856
407.55        16.20368
408.00        16.11074
408.45        15.97229
408.90        15.82029
409.34         15.7001
409.79        15.67334
410.24         15.7086
410.68        15.69272
411.13        15.61987
411.58        15.55762
412.03        15.51546
412.47        15.48538
412.92        15.46743
413.37        15.45383
413.81        15.45952
414.26        15.52263
414.71        15.63608
415.15        15.79406
415.60        15.91885
416.05        15.91011
416.49        15.74815
416.94        15.47496
417.39        15.17802
417.83        14.99881
418.28        14.98034
418.73        15.07349
419.17        15.21902
419.62        15.31028
420.07        15.32068
420.51         15.2848
420.96        15.22555
421.41        15.15942
421.85        15.09433
422.30        15.03213
422.74        14.98944
423.19        15.02136
423.64        15.12411
424.08        15.29038
424.53        15.45569
424.98        15.53074
425.42        15.49165
425.87        15.36697
426.31        15.19727
426.76        15.05412
427.21        14.95234
427.65        14.86992
428.10        14.82369
428.54         14.8174
428.99        14.85225
429.44        14.99413
429.88        15.16225
430.33        15.12427
430.77        14.92651
431.22        14.86158
431.66         14.9568
432.11        15.08177
432.56        15.20734
433.00        15.40892
433.45         15.5457
433.89        15.42869
434.34        15.17395
434.78        14.92649
435.23        14.67026
435.67        15.37817
436.12        14.89585
436.57        14.82902
437.01        14.60713
437.46        14.51364
437.90        14.56168
438.35         14.6221
438.79        14.65712
439.24        14.67427
439.68        14.66236
440.13         14.5007
440.57        14.28175
441.02        14.38238
441.46        14.66992
441.91        14.69389
442.35        14.10922
442.80         13.8998
443.24        13.92148
443.69        13.86811
444.13        13.73805
444.58        13.68667
445.02        13.72328
445.47        13.84236
445.91        13.98429
446.36         14.0213
446.80        13.92871
447.24        13.76053
447.69        13.58709
448.13        13.48627
448.58        13.48477
449.02        13.55335
449.47        13.63643
449.91        13.63845
450.36        13.54476
450.80        13.38906
451.25        13.23156
451.69         13.1484
452.13        13.16222
452.58         13.2351
453.02        13.33616
453.47        13.41766
453.91        13.46387
454.36        13.49012
454.80        13.48713
455.24        13.43963
455.69        13.35781
456.13        13.23188
456.58        13.11452
457.02        13.07696
457.46        13.12741
457.91        13.21484
458.35         13.2968
458.79        13.33808
459.24        13.32396
459.68        13.26795
460.13        13.24012
460.57        13.22068
461.01        13.20799
461.46        13.54349
461.90        13.67353
462.34        13.56029
462.79         13.6463
463.23        13.48889
463.68        13.33277
464.12        13.21805
464.56         13.2741
465.01        13.38671
465.45        13.50761
465.89        13.57939
466.34        13.59229
466.78        13.52319
467.22         13.4216
467.67        13.46222
468.11        13.61877
468.55         13.6187
468.99        13.48531
469.44        13.47775
469.88        13.60611
470.32        13.72529
470.77        13.79671
471.21        13.83203
471.65        13.82188
472.10        13.76611
472.54        13.69335
472.98        13.68211
473.42        13.74537
473.87        13.82221
474.31        13.89025
474.75        13.99776
475.20        14.10709
475.64        14.07469
476.08        13.95687
476.52        13.96403
476.97        14.10919
477.41        14.29672
477.85        14.46122
478.29        14.53928
478.74        14.51431
479.18        14.38464
479.62         14.2381
480.06        14.21391
480.50        14.31981
480.95        14.44751
481.39          14.548
481.83        14.61403
482.27        14.63397
482.72        14.61258
483.16        14.58192
483.60        14.59703
484.04        14.66584
484.48         14.8226
484.93        15.11129
485.37        15.24393
485.81         15.3029
486.25        15.80352
486.69        16.39082
487.14        15.67181
487.58        15.63667
488.02        16.64799
488.46        16.04744
488.90        16.20756
489.34        16.14528
489.79        16.26654
490.23        16.51009
490.67        16.72852
491.11         16.8851
491.55        16.86687
491.99        16.72633
492.43        16.69401
492.88        16.80243
493.32        16.89952
493.76        16.99422
494.20        17.17671
494.64        17.44529
495.08        17.76222
495.52        18.08194
495.96        18.35024
496.41        18.55082
496.85        18.66369
497.29         18.7211
497.73        18.86634
498.17        19.08716
498.61         19.1796
499.05        19.16934
499.49        19.29241
499.93        19.56503
500.37        19.81437
500.82         20.0198
501.26        20.31409
501.70        20.63786
502.14        20.72145
502.58        20.61196
503.02         20.6229
503.46        20.78043
503.90        20.92235
504.34        21.01183
504.78        21.06059
505.22        21.06088
505.66        21.02107
506.10        20.97442
506.54        20.96858
506.98        21.02032
507.42        21.12165
507.86        21.25451
508.30        21.38791
508.74        21.50696
509.18        21.61062
509.62         21.7121
510.06        21.83251
510.50        21.97438
510.94        22.13497
511.38        22.26873
511.82        22.30442
512.26        22.23439
512.70        22.08046
513.14         21.9331
513.58        21.93124
514.02        22.09321
514.46        22.37742
514.90        22.67605
515.34          22.754
515.78        22.60595
516.22        22.36277
516.66        22.15091
517.10        21.82921
517.54        21.43981
517.98        22.06539
518.42        22.02348
518.86        22.32525
519.30        22.44513
519.74         22.5577
520.18        22.64124
520.62        22.63808
521.06        22.56512
521.50        22.42161
521.93        22.24354
522.37        22.10252
522.81        22.01927
523.25        21.98131
523.69        21.97608
524.13        21.97944
524.57        21.97812
525.01        21.97488
525.45        21.96387
525.89        21.93419
526.32        21.88307
526.76        21.81577
527.20        21.72679
527.64         21.6145
528.08        21.48293
528.52        21.33093
528.96         21.1911
529.40        21.11074
529.83         21.0944
530.27        21.13561
530.71        21.17328
531.15         21.1108
531.59        20.93561
532.03        20.68147
532.46        20.42852
532.90        20.32071
533.34         20.3758
533.78        20.53959
534.22         20.7306
534.66        20.82341
535.09        20.78214
535.53        20.65855
535.97        20.48698
536.41        20.31875
536.85        20.18115
537.28        20.06921
537.72        20.01224
538.16        19.99541
538.60        20.11593
539.04        20.27607
539.47        20.44831
539.91        20.59622
540.35        20.71578
540.79        20.64109
541.22        20.67481
541.66        20.72738
542.10        20.90992
542.54        20.86728
542.97        21.12926
543.41        21.27391
543.85        21.44112
544.29         21.5865
544.72        21.70035
545.16        21.82909
545.60        21.97095
546.04        22.04749
546.47        22.10789
546.91        22.37503
547.35        22.78961
547.79        23.05283
548.22        23.15058
548.66        23.24546
549.10        23.37296
549.53        23.61572
549.97        23.97275
550.41        24.06013
550.84        24.31487
551.28         24.4665
551.72        24.67301
552.15        24.90679
552.59        25.17034
553.03        25.45563
553.46        25.71188
553.90        25.88998
554.34        25.97924
554.77        25.99792
555.21        25.99715
555.65        26.04427
556.08        26.15384
556.52        26.30565
556.96        26.46805
557.39        26.62478
557.83        26.75488
558.27        26.80151
558.70        26.79471
559.14         26.8349
559.57        26.92402
560.01        27.04806
560.45        27.16534
560.88        27.17094
561.32        27.11325
561.75        27.10415
562.19        27.25995
562.63        27.32523
563.06         27.3514
563.50        27.51042
563.93        27.75972
564.37        27.99229
564.80        28.06005
565.24        28.14804
565.68        28.22162
566.11        28.29872
566.55        28.40664
566.98        28.48539
567.42        28.51636
567.85         28.8316
568.29        28.68791
568.72        28.97348
569.16         29.3947
569.60        29.67172
570.03        29.77102
570.47        29.87995
570.90        29.86206
571.34        30.19205
571.77        30.20923
572.21        30.40667
572.64        30.54386
573.08        31.15051
573.51        30.77678
573.95        31.66253
574.38        31.76314
574.82        32.03848
