SpectraSmart Spectrum 2.9.0.0
--------- Device Information -----------
Spectrum Name :  反射率_0
Saving Time :  2024/04/20 00:54:15
Spectro-Module Model Name : SE2030-DUVN
Spectro-Module Serial Number : OS361AC55029948
Wavelength Start : 200
Wavelength End : 1025
Wavelength Unit : Wavelength(nm)
Spectrum Unit : Reflectance(%)
-----------Spectrum Setting ------------
Integration Time : 30ms
Average : 10
Boxcar : 0
Background removal :  enabled
linearity correction :  enabled
SC :  disabled
Intensity correction :  disabled
DWT denoise :  enabled
savitzky-golay :  disabled
FFT :  disabled
Running average :  disabled
Kalman :  disabled
High pass :  disabled
---------------BEGIN--------------------
Wavelength(nm)             Reflectance(%)
200.29               0
200.75        56.50912
201.21        57.41408
201.67        60.35421
202.13        64.69065
202.58         69.8176
203.04        76.17254
203.50        81.74053
203.96        81.73409
204.42        76.59558
204.88         69.6374
205.34        63.70579
205.80        59.99389
206.26        57.78245
206.72        56.14385
207.18        55.05093
207.64        55.08195
208.10         56.5362
208.55        59.37294
209.01        61.22061
209.47        60.90631
209.93        58.79724
210.39        55.61652
210.85        52.32238
211.31        49.83522
211.77        48.16816
212.23        46.94457
212.69        46.34562
213.14        47.10661
213.60        48.66973
214.06        50.71208
214.52        52.63513
214.98          54.449
215.44         56.3254
215.90        58.12859
216.36        59.98093
216.81        61.78377
217.27        63.06594
217.73        63.91733
218.19         63.3847
218.65        60.03834
219.11         53.6393
219.57         44.1506
220.02        33.39746
220.48        26.92995
220.94        26.72098
221.40        32.11642
221.86        39.41574
222.32        42.64229
222.77        40.47987
223.23        34.91249
223.69        29.48222
224.15        29.16172
224.61         33.6379
225.06        39.96434
225.52        45.25718
225.98         47.3097
226.44        46.21883
226.90         43.1456
227.36        39.24458
227.81        36.51092
228.27        35.98206
228.73        36.78331
229.19        38.31989
229.65         39.9239
230.10         41.2924
230.56        42.55241
231.02        43.61179
231.48        44.33375
231.93        44.68989
232.39        44.71536
232.85        44.38724
233.31        43.72586
233.77        42.79076
234.22        41.61615
234.68        40.41412
235.14        39.44512
235.60        38.85316
236.05        38.67023
236.51        38.82378
236.97        39.13782
237.43        39.63506
237.88        40.56484
238.34        42.05282
238.80        44.35296
239.26        47.20641
239.71        50.04096
240.17          52.465
240.63        54.79948
241.08        57.23307
241.54          59.664
242.00         61.3614
242.46        60.90175
242.91        57.51758
243.37        50.12346
243.83        39.45316
244.28         32.9795
244.74        37.95349
245.20        53.12177
245.66        67.63587
246.11        71.91918
246.57        65.03857
247.03        47.21423
247.48        23.19375
247.94        17.24744
248.40        32.10448
248.85         50.3881
249.31        63.54499
249.77        69.72891
250.22        70.87714
250.68        68.97414
251.14         65.2755
251.59        62.39706
252.05        62.02573
252.51        63.62544
252.96        65.39115
253.42         64.4848
253.88        60.73055
254.33        55.90306
254.79        53.12229
255.25        55.00463
255.70        60.80122
256.16        68.37862
256.62        75.02754
257.07        77.81212
257.53        76.85654
257.99        73.47179
258.44        68.86868
258.90         65.4131
259.35        63.19323
259.81        62.07369
260.27        61.17284
260.72        59.74505
261.18        57.99024
261.63        55.76682
262.09         53.9119
262.55        53.05109
263.00        53.08253
263.46         53.7709
263.91         54.1526
264.37        53.37755
264.83        51.46259
265.28        48.78727
265.74        46.38639
266.19        45.26086
266.65        45.55328
267.11        46.68147
267.56        47.90529
268.02        48.16496
268.47        47.25905
268.93        45.56897
269.38        43.49182
269.84        41.89544
270.30        41.02888
270.75        40.65132
271.21        40.50917
271.66        40.21602
272.12        39.64094
272.57        38.90863
273.03        38.16496
273.48        37.52911
273.94        37.07629
274.39        36.70708
274.85        36.32201
275.31        35.75183
275.76        34.95658
276.22        34.02602
276.67        33.09543
277.13        32.46988
277.58        32.13758
278.04        32.03824
278.49        31.91503
278.95        31.47038
279.40        30.63841
279.86        29.61899
280.31        28.58772
280.77        27.92958
281.22        27.64199
281.68        27.61942
282.13        27.68146
282.59        27.60307
283.04        27.32134
283.50        26.95474
283.95        26.54775
284.41        26.19753
284.86        25.91911
285.32        25.70001
285.77        25.56177
286.22        25.60815
286.68        25.82467
287.13        26.14496
287.59        26.45844
288.04         26.5792
288.50        26.49397
288.95        26.23013
289.41        25.89982
289.86         25.6004
290.32        25.42226
290.77        25.33637
291.22        25.35081
291.68        25.44068
292.13        25.60295
292.59        25.86296
293.04        26.25203
293.50        26.82767
293.95        27.57354
294.40        28.44868
294.86        29.36206
295.31        30.18757
295.77        30.89541
296.22        31.51613
296.68        32.11126
297.13        32.76212
297.58        33.50401
298.04        34.31827
298.49        35.17072
298.95        36.05236
299.40         36.9299
299.85        37.79475
300.31        38.64601
300.76        39.47101
301.21        40.25942
301.67        41.03865
302.12        41.72511
302.58        42.27037
303.03        42.65773
303.48        42.93948
303.94        43.27051
304.39        43.83868
304.84        44.67623
305.30        45.69825
305.75         46.7042
306.20        47.41599
306.66        47.79235
307.11         47.9057
307.57        47.90608
308.02        47.93549
308.47        48.07319
308.93        48.26258
309.38        48.48772
309.83        48.78891
310.29        49.14429
310.74        49.54462
311.19        49.87269
311.65         49.9311
312.10        49.68681
312.55        49.20616
313.00        48.66152
313.46        48.32215
313.91        48.23462
314.36         48.3371
314.82        48.49368
315.27        48.50734
315.72        48.30748
316.18        47.97297
316.63        47.57724
317.08        47.24502
317.53        47.00712
317.99        46.81031
318.44        46.61267
318.89        46.34056
319.35        45.97702
319.80        45.55671
320.25        45.11908
320.70        44.72273
321.16        44.37896
321.61        44.07581
322.06        43.78054
322.51        43.44623
322.97        43.05186
323.42        42.61986
323.87        42.16734
324.32        41.73018
324.78        41.31092
325.23        40.91193
325.68        40.50368
326.13        40.04753
326.59         39.5401
327.04        39.02714
327.49        38.54089
327.94         38.1349
328.39        37.81957
328.85        37.55253
329.30        37.35999
329.75        37.22574
330.20        37.13148
330.66        37.05619
331.11        36.95963
331.56        36.71672
332.01        36.30512
332.46        35.75274
332.92        35.14972
333.37        34.67459
333.82        34.38443
334.27        34.25614
334.72         34.2178
335.17        34.13712
335.63        33.95975
336.08        33.72665
336.53         33.5055
336.98        33.42469
337.43         33.5014
337.88        33.68578
338.34        33.81609
338.79        33.68318
339.24        33.22812
339.69         32.5222
340.14        31.77507
340.59        31.33825
341.05        31.29103
341.50        31.53883
341.95        31.87436
342.40         31.9703
342.85        31.74787
343.30         31.3205
343.75        30.82464
344.20        30.48327
344.66        30.35552
345.11        30.33069
345.56        30.36255
346.01        30.38142
346.46        30.34597
346.91        30.29984
347.36        30.16389
347.81        29.80181
348.26         29.2246
348.72        28.50807
349.17        27.81666
349.62        27.50315
350.07        27.64134
350.52        28.10522
350.97         28.7004
351.42        29.13213
351.87        29.30561
352.32        29.29533
352.77        29.13377
353.22         28.8811
353.67        28.57997
354.13         28.2248
354.58        27.85242
355.03        27.56845
355.48        27.39944
355.93        27.33952
356.38        27.34467
356.83        27.32842
357.28        27.26138
357.73        27.15644
358.18        27.03483
358.63         26.9372
359.08        26.87008
359.53         26.8134
359.98        26.73203
360.43        26.57574
360.88        26.34039
361.33        26.05134
361.78        25.75565
362.23        25.52942
362.68        25.39056
363.13        25.30815
363.58        25.25031
364.03        25.16615
364.48        25.03476
364.93         24.8731
365.38        24.66727
365.83        24.39772
366.28        24.07595
366.73        23.71379
367.18         23.3716
367.63        23.14342
368.08        23.04332
368.53        23.04118
368.98        23.07301
369.43        23.03393
369.88        22.89948
370.33        22.70681
370.78        22.48824
371.23        22.30229
371.68        22.17348
372.13        22.07462
372.58        22.02376
373.03        22.05433
373.48         22.1518
373.93        22.29359
374.38          22.401
374.83        22.35295
375.28        22.12878
375.72        21.76157
376.17        21.34347
376.62        20.98594
377.07        20.73973
377.52        20.58304
377.97        20.51031
378.42        20.50736
378.87         20.5531
379.32        20.64007
379.77        20.74017
380.22         20.8084
380.67        20.82909
381.11        20.81148
381.56        20.73259
382.01        20.58168
382.46        20.36706
382.91        20.09378
383.36         19.8269
383.81        19.66173
384.26        19.61537
384.71        19.67269
385.15        19.74243
385.60        19.68516
386.05        19.47487
386.50        19.15192
386.95        18.83435
387.40        18.70932
387.85        18.80595
388.29        19.05134
388.74        19.30514
389.19        19.36358
389.64        19.18857
390.09        18.84104
390.54         18.4496
390.98        18.21317
391.43        18.19663
391.88        18.32236
392.33         18.4675
392.78        18.45588
393.23        18.26494
393.67        17.95522
394.12        17.66257
394.57        17.50961
395.02        17.52137
395.47        17.64962
395.91        17.82081
396.36         17.8884
396.81        17.81881
397.26        17.65365
397.71        17.47001
398.15        17.36715
398.60        17.38632
399.05        17.47878
399.50        17.57474
399.95        17.57604
400.39        17.46268
400.84        17.26521
401.29        17.05485
401.74        16.96166
402.18        17.02436
402.63        17.19015
403.08        17.36774
403.53        17.40989
403.97        17.28433
404.42        17.04999
404.87        16.79103
405.32        16.64694
405.76        16.65162
406.21        16.75592
406.66        16.89466
407.11        16.96593
407.55         16.9426
408.00        16.86351
408.45        16.75606
408.90         16.6237
409.34        16.50185
409.79        16.46296
410.24        16.48317
410.68        16.45629
411.13        16.37984
411.58        16.32136
412.03         16.2809
412.47        16.23528
412.92        16.18421
413.37        16.12691
413.81        16.10045
414.26        16.17603
414.71        16.35108
415.15         16.6082
415.60        16.84002
416.05        16.89701
416.49        16.74413
416.94        16.43454
417.39        16.07909
417.83        15.85863
418.28        15.82744
418.73        15.92482
419.17        16.07472
419.62        16.14503
420.07        16.10449
420.51        15.99962
420.96        15.87082
421.41        15.75901
421.85        15.67805
422.30        15.62216
422.74         15.5935
423.19        15.62663
423.64        15.71284
424.08        15.85158
424.53        15.99049
424.98        16.06169
425.42         16.0481
425.87        15.97166
426.31        15.85912
426.76        15.76293
427.21        15.69174
427.65        15.62542
428.10        15.59303
428.54        15.61715
428.99         15.7013
429.44        15.90904
429.88        16.13334
430.33        16.09833
430.77        15.85201
431.22        15.71541
431.66        15.74796
432.11        15.86085
432.56        16.03444
433.00        16.33773
433.45        16.57987
433.89        16.47599
434.34          16.132
434.78        15.73684
435.23        15.32983
435.67        15.99722
436.12        15.50928
436.57        15.51241
437.01        15.37878
437.46        15.34933
437.90        15.42088
438.35         15.4768
438.79        15.49051
439.24        15.49008
439.68        15.47302
440.13        15.30262
440.57         15.0818
441.02        15.22092
441.46         15.5778
441.91        15.66646
442.35        15.09833
442.80        14.89854
443.24        14.91233
443.69         14.8222
444.13        14.63043
444.58         14.5104
445.02        14.47921
445.47        14.52767
445.91        14.61491
446.36        14.64065
446.80        14.58205
447.24        14.48771
447.69        14.38934
448.13        14.30214
448.58        14.24385
449.02        14.20504
449.47        14.17737
449.91        14.14279
450.36        14.10239
450.80        14.06021
451.25        14.03374
451.69        14.03261
452.13        14.06127
452.58        14.10468
453.02        14.15094
453.47         14.1816
453.91        14.19239
454.36        14.18845
454.80        14.16456
455.24        14.11346
455.69        14.04538
456.13        13.95036
456.58        13.86791
457.02        13.84754
457.46         13.8929
457.91        13.95513
458.35        14.00528
458.79        14.03253
459.24        14.02544
459.68        13.99014
460.13        13.98318
460.57        13.95665
461.01        13.90569
461.46        14.20304
461.90        14.28469
462.34        14.14088
462.79        14.23953
463.23        14.10767
463.68        13.99269
464.12        13.92235
464.56        14.02241
465.01        14.17521
465.45        14.31996
465.89        14.38341
466.34        14.35675
466.78        14.22004
467.22        14.04426
467.67        14.04354
468.11        14.19861
468.55        14.21818
468.99        14.11076
469.44        14.12002
469.88        14.24947
470.32        14.35638
470.77        14.41012
471.21        14.43728
471.65        14.43296
472.10        14.39081
472.54        14.33735
472.98        14.35025
473.42        14.43922
473.87        14.53926
474.31        14.62617
474.75         14.7501
475.20        14.87153
475.64        14.84143
476.08        14.71395
476.52        14.70295
476.97        14.82399
477.41        14.98039
477.85        15.12175
478.29        15.21091
478.74        15.23394
479.18        15.17647
479.62        15.10661
480.06        15.13463
480.50        15.26063
480.95        15.38317
481.39        15.46158
481.83        15.50466
482.27        15.50735
482.72         15.4719
483.16        15.43722
483.60        15.45934
484.04        15.54696
484.48        15.74775
484.93         16.0743
485.37        16.19446
485.81        16.27948
486.25        16.72706
486.69        17.46561
487.14         16.9041
487.58        16.59376
488.02        17.29599
488.46        16.95945
488.90        17.16597
489.34        17.11163
489.79        17.27472
490.23        17.58877
490.67          17.806
491.11        17.91276
491.55        17.93443
491.99        17.90883
492.43        17.92574
492.88        18.00982
493.32        18.09935
493.76        18.20455
494.20        18.37431
494.64        18.60938
495.08         18.8859
495.52        19.17674
495.96        19.45448
496.41        19.70769
496.85        19.90639
497.29        20.05436
497.73        20.25715
498.17        20.48766
498.61        20.53635
499.05        20.46457
499.49         20.5671
499.93        20.87028
500.37        21.21971
500.82         21.5483
501.26        21.82157
501.70        22.01347
502.14        22.10256
502.58        22.12215
503.02        22.16361
503.46        22.24828
503.90        22.34246
504.34        22.42193
504.78        22.45647
505.22         22.4414
505.66        22.40149
506.10        22.37195
506.54        22.37618
506.98        22.42355
507.42        22.55371
507.86         22.7649
508.30        22.79919
508.74        23.04584
509.18        23.17728
509.62         23.3137
510.06        23.44741
510.50        23.57933
510.94        23.70413
511.38        23.79474
511.82        23.82219
512.26        23.78458
512.70        23.69382
513.14          23.603
513.58        23.59051
514.02        23.66556
514.46        23.80868
514.90        23.96172
515.34        23.96756
515.78        23.84287
516.22        23.68869
516.66        23.58764
517.10        23.33213
517.54        22.94391
517.98        23.50659
518.42        23.39572
518.86        23.64542
519.30        23.75297
519.74        23.87605
520.18        23.98166
520.62        23.99674
521.06        23.93232
521.50        23.79396
521.93        23.62314
522.37        23.49815
522.81        23.43947
523.25        23.42892
523.69        23.44501
524.13        23.45125
524.57        23.43342
525.01        23.40151
525.45        23.35749
525.89        23.30311
526.32        23.23959
526.76        23.16639
527.20        23.08167
527.64          22.989
528.08        22.88998
528.52        22.78286
528.96        22.68021
529.40        22.59808
529.83        22.53808
530.27        22.50424
530.71        22.46673
531.15        22.37989
531.59        22.24122
532.03        22.06737
532.46        21.90664
532.90        21.85246
533.34        21.90978
533.78        22.04171
534.22        22.18664
534.66        22.25023
535.09        22.20502
535.53        22.08969
535.97        21.93337
536.41        21.78015
536.85        21.65305
537.28        21.55328
537.72        21.50084
538.16        21.46025
538.60        21.53572
539.04         21.6284
539.47        21.73544
539.91        21.85913
540.35        22.00308
540.79        21.98016
541.22        22.08349
541.66        22.17212
542.10          22.354
542.54        22.26315
542.97        22.49306
543.41        22.63687
543.85        22.85337
544.29        23.08063
544.72         23.2794
545.16        23.45671
545.60        23.60065
546.04        23.64004
546.47        23.65507
546.91         23.9227
547.35        24.38719
547.79        24.72687
548.22        24.89542
548.66        24.99188
549.10        25.06163
549.53          25.278
549.97        25.64532
550.41        25.70128
550.84        25.91797
551.28        26.04307
551.72        26.24749
552.15        26.48598
552.59        26.76146
553.03          27.072
553.46        27.36083
553.90        27.57079
554.34        27.68839
554.77        27.73081
555.21        27.75343
555.65        27.83236
556.08        27.98031
556.52        28.16941
556.96        28.36004
557.39         28.5263
557.83        28.64614
558.27        28.66771
558.70        28.62414
559.14         28.6244
559.57        28.67638
560.01        28.76475
560.45         28.8666
560.88        28.90674
561.32        28.93581
561.75        29.04579
562.19        29.32203
562.63        29.45626
563.06        29.47707
563.50        29.52854
563.93        29.61784
564.37        29.76752
564.80         29.8433
565.24        29.98624
565.68        30.12691
566.11         30.2482
566.55        30.36628
566.98        30.43194
567.42        30.44354
567.85        30.78206
568.29         30.6607
568.72        31.01518
569.16        31.51762
569.60        31.85597
570.03        31.98399
570.47        32.10087
570.90        32.08475
571.34        32.47609
571.77        32.40148
572.21        32.74756
572.64        33.00405
573.08        33.29185
573.51        33.35409
573.95        33.83068
574.38        34.17139
574.82        34.40778
