SpectraSmart Spectrum 2.9.0.0
--------- Device Information -----------
Spectrum Name :  反射率_0
Saving Time :  2024/04/20 00:46:15
Spectro-Module Model Name : SE2030-DUVN
Spectro-Module Serial Number : OS361AC55029948
Wavelength Start : 200
Wavelength End : 1025
Wavelength Unit : Wavelength(nm)
Spectrum Unit : Reflectance(%)
-----------Spectrum Setting ------------
Integration Time : 30ms
Average : 10
Boxcar : 0
Background removal :  enabled
linearity correction :  enabled
SC :  disabled
Intensity correction :  disabled
DWT denoise :  enabled
savitzky-golay :  disabled
FFT :  disabled
Running average :  disabled
Kalman :  disabled
High pass :  disabled
---------------BEGIN--------------------
Wavelength(nm)             Reflectance(%)
200.29               0
200.75        55.50692
201.21         60.3799
201.67        68.56035
202.13        76.81973
202.58        82.95174
203.04        87.25479
203.50        88.58379
203.96        85.60391
204.42        80.19012
204.88        74.22212
205.34        69.41691
205.80        66.24689
206.26        64.02624
206.72        62.23905
207.18        61.07859
207.64        61.65978
208.10        64.49592
208.55        68.73958
209.01        71.88469
209.47        73.03268
209.93        72.49874
210.39        70.84052
210.85         68.5403
211.31        65.98641
211.77        63.04644
212.23        59.14333
212.69        54.83582
213.14        53.26043
213.60        55.18969
214.06        59.19746
214.52        62.77877
214.98        64.59985
215.44        64.97347
215.90        64.13548
216.36        63.15551
216.81        64.28012
217.27        67.90015
217.73        73.15459
218.19         77.4734
218.65        77.51874
219.11        72.75909
219.57        63.61625
220.02        52.75356
220.48        47.35766
220.94        49.89923
221.40        58.90587
221.86        69.47735
222.32        74.03712
222.77        70.96135
223.23        63.06904
223.69        54.63017
224.15        51.66804
224.61         54.4227
225.06        59.70955
225.52        64.59939
225.98         66.6953
226.44          65.948
226.90        63.42094
227.36        60.24467
227.81        58.27468
228.27        58.37315
228.73        59.64484
229.19        61.14058
229.65        61.80612
230.10        61.51206
230.56        60.78596
231.02        60.13292
231.48        60.17978
231.93        60.90371
232.39        62.05137
232.85        63.07779
233.31        63.21953
233.77        62.33335
234.22        60.67366
234.68        58.76682
235.14        57.45336
235.60        57.01901
236.05        57.23782
236.51        57.74981
236.97        57.96477
237.43        57.69658
237.88        57.21795
238.34        56.48203
238.80        56.05529
239.26        56.25581
239.71        56.86022
240.17        57.68446
240.63         58.9433
241.08        60.67437
241.54        62.83369
242.00        64.70296
242.46        64.83379
242.91        62.52527
243.37        56.90185
243.83        48.51633
244.28        43.44863
244.74        47.39462
245.20         59.0654
245.66        70.17438
246.11        73.48641
246.57        68.20351
247.03         54.7272
247.48        35.92834
247.94        29.31338
248.40        38.06157
248.85        49.94002
249.31        58.89545
249.77        63.69786
250.22        65.56467
250.68        66.02099
251.14        65.38594
251.59        63.90215
252.05        62.09417
252.51        59.85071
252.96        57.54834
253.42        56.30595
253.88        56.42732
254.33        57.60574
254.79        60.06283
255.25        63.60677
255.70        67.76428
256.16        72.08846
256.62        75.53139
257.07        76.94094
257.53        76.55407
257.99        74.78725
258.44        72.17925
258.90        70.26845
259.35        68.89329
259.81        68.27048
260.27        67.65084
260.72        66.40099
261.18        64.80241
261.63        62.64133
262.09        60.79888
262.55        59.93095
263.00        59.93629
263.46        60.62202
263.91        60.96215
264.37        60.07514
264.83        57.97598
265.28        55.05872
265.74        52.46326
266.19        51.29472
266.65        51.70964
267.11        53.07634
267.56        54.52213
268.02        54.82264
268.47        53.74627
268.93        51.71894
269.38        49.29008
269.84        47.58833
270.30        46.91649
270.75        46.94624
271.21        47.21224
271.66        47.00894
272.12        46.15718
272.57        44.88845
273.03        43.57218
273.48        42.66743
273.94        42.32521
274.39        42.31807
274.85        42.35488
275.31        41.98383
275.76        41.10836
276.22        39.92571
276.67        38.70419
277.13        37.95526
277.58        37.69504
278.04        37.77991
278.49        37.84201
278.95         37.4512
279.40         36.5082
279.86        35.28433
280.31        34.00643
280.77        33.14219
281.22        32.70443
281.68        32.56591
282.13        32.52835
282.59        32.35738
283.04        31.97655
283.50        31.51305
283.95        31.00327
284.41        30.53805
284.86         30.1276
285.32         29.7693
285.77        29.47698
286.22         29.3524
286.68        29.38934
287.13        29.51952
287.59        29.66481
288.04        29.67573
288.50        29.53988
288.95        29.26718
289.41        28.92067
289.86        28.51881
290.32        28.14084
290.77        27.78279
291.22        27.50925
291.68         27.3804
292.13        27.40716
292.59        27.58588
293.04        27.90288
293.50        28.34781
293.95        28.88932
294.40        29.51676
294.86        30.16792
295.31        30.75743
295.77        31.27356
296.22        31.73797
296.68        32.21339
297.13         32.7849
297.58        33.48239
298.04        34.27997
298.49        35.13611
298.95        36.02763
299.40        36.91302
299.85        37.78767
300.31        38.62774
300.76        39.38896
301.21        40.06563
301.67        40.69961
302.12        41.26398
302.58         41.7935
303.03         42.2816
303.48        42.75068
303.94        43.29079
304.39        43.98904
304.84        44.85463
305.30        45.83316
305.75        46.77225
306.20        47.47054
306.66          47.903
307.11        48.11022
307.57        48.20983
308.02        48.29683
308.47        48.43933
308.93        48.60361
309.38        48.78569
309.83        49.04069
310.29        49.35707
310.74        49.72155
311.19        50.02925
311.65        50.10438
312.10        49.91208
312.55        49.50628
313.00        49.03892
313.46        48.74657
313.91        48.66678
314.36        48.75097
314.82        48.86432
315.27        48.81232
315.72        48.53802
316.18        48.12891
316.63        47.68881
317.08        47.38877
317.53        47.26305
317.99        47.23558
318.44        47.23538
318.89         47.1383
319.35         46.9034
319.80        46.57594
320.25        46.17904
320.70        45.74959
321.16        45.30634
321.61         44.8485
322.06        44.39857
322.51         44.0012
322.97        43.65867
323.42        43.37238
323.87        43.11037
324.32        42.82169
324.78        42.48029
325.23        42.11057
325.68        41.70674
326.13        41.27212
326.59        40.81837
327.04        40.37651
327.49        39.96601
327.94        39.62578
328.39        39.36042
328.85        39.12972
329.30        38.97618
329.75        38.90418
330.20        38.89758
330.66        38.93026
331.11        38.92455
331.56        38.69583
332.01        38.21358
332.46        37.52214
332.92        36.77472
333.37        36.26089
333.82        36.06436
334.27        36.13236
334.72         36.3191
335.17        36.36061
335.63         36.1653
336.08        35.81916
336.53         35.4504
336.98        35.29067
337.43        35.39234
337.88        35.66987
338.34         35.9434
338.79        35.97741
339.24        35.69325
339.69        35.16975
340.14        34.58464
340.59        34.23267
341.05        34.18243
341.50        34.35119
341.95         34.5748
342.40        34.59919
342.85        34.36365
343.30        33.96215
343.75        33.50811
344.20        33.18186
344.66        33.03367
345.11        32.97885
345.56         32.9776
346.01        32.96657
346.46        32.91332
346.91        32.85481
347.36        32.73968
347.81        32.47874
348.26        32.07977
348.72         31.5935
349.17        31.12467
349.62        30.92419
350.07        31.04194
350.52        31.39073
350.97        31.82021
351.42        32.10369
351.87        32.17266
352.32        32.08178
352.77        31.88166
353.22        31.65989
353.67        31.45321
354.13        31.24893
354.58        31.02514
355.03        30.79182
355.48        30.56067
355.93        30.35771
356.38        30.19989
356.83         30.1015
357.28        30.05767
357.73        30.04362
358.18        30.04964
358.63        30.06399
359.08         30.0676
359.53        30.05712
359.98        29.97921
360.43        29.75455
360.88        29.38381
361.33         28.9024
361.78        28.40901
362.23        28.06726
362.68        27.91567
363.13        27.89993
363.58        27.93976
364.03        27.90537
364.48        27.75394
364.93        27.52361
365.38        27.22703
365.83        26.89175
366.28        26.54204
366.73        26.16862
367.18        25.81587
367.63        25.55505
368.08        25.39603
368.53        25.32631
368.98        25.28379
369.43        25.16217
369.88        24.94154
370.33        24.65662
370.78        24.36493
371.23        24.16899
371.68        24.09748
372.13        24.10702
372.58        24.16693
373.03        24.22883
373.48        24.25871
373.93        24.26128
374.38        24.20128
374.83        24.02417
375.28        23.72926
375.72        23.33081
376.17        22.90911
376.62        22.55563
377.07        22.31219
377.52        22.16567
377.97        22.10505
378.42        22.10518
378.87        22.14298
379.32         22.2098
379.77        22.28604
380.22        22.34252
380.67        22.36609
381.11        22.36167
381.56        22.29568
382.01        22.14047
382.46        21.90047
382.91        21.58677
383.36        21.27629
383.81        21.08144
384.26        21.02421
384.71         21.0865
385.15         21.1663
385.60        21.10828
386.05        20.88342
386.50         20.5368
386.95         20.2011
387.40        20.08642
387.85        20.22283
388.29        20.52454
388.74        20.83214
389.19         20.9131
389.64        20.72473
390.09        20.33911
390.54        19.89999
390.98        19.62923
391.43        19.60271
391.88        19.73851
392.33        19.90778
392.78        19.92667
393.23        19.76628
393.67          19.481
394.12        19.21587
394.57        19.10218
395.02        19.16546
395.47        19.35939
395.91        19.57974
396.36        19.62607
396.81        19.46031
397.26        19.14313
397.71        18.82059
398.15        18.69069
398.60        18.80596
399.05        19.08033
399.50        19.36488
399.95        19.44789
400.39        19.28709
400.84        18.94428
401.29        18.55616
401.74        18.37119
402.18        18.46429
402.63          18.747
403.08        19.06176
403.53        19.16047
403.97        18.98958
404.42         18.6447
404.87        18.26712
405.32        18.08469
405.76        18.15187
406.21        18.38612
406.66        18.67275
407.11        18.83733
407.55        18.83099
408.00        18.71172
408.45        18.53696
408.90        18.35773
409.34        18.22842
409.79        18.21667
410.24        18.26611
410.68         18.2151
411.13        18.05502
411.58        17.87574
412.03        17.72125
412.47        17.63895
412.92         17.6433
413.37        17.70775
413.81        17.81571
414.26        17.95698
414.71        18.10995
415.15        18.28327
415.60        18.40749
416.05         18.3996
416.49        18.24522
416.94        17.97351
417.39        17.67675
417.83        17.50628
418.28        17.50475
418.73        17.62444
419.17        17.78308
419.62        17.83791
420.07        17.75918
420.51        17.59314
420.96         17.4041
421.41        17.27209
421.85        17.21443
422.30        17.21223
422.74        17.23564
423.19        17.27134
423.64        17.30171
424.08        17.34503
424.53        17.37203
424.98        17.36026
425.42        17.31132
425.87        17.23251
426.31         17.1455
426.76         17.0945
427.21        17.07822
427.65        17.07618
428.10        17.09508
428.54        17.11878
428.99        17.14524
429.44        17.25755
429.88        17.37156
430.33         17.2387
430.77         16.9245
431.22        16.76367
431.66        16.80076
432.11        16.91122
432.56        17.06672
433.00        17.34671
433.45        17.57399
433.89        17.49132
434.34        17.21336
434.78        16.91548
435.23        16.59154
435.67        17.35919
436.12        16.79108
436.57        16.69475
437.01        16.42999
437.46        16.32219
437.90        16.38664
438.35        16.47732
438.79        16.54538
439.24        16.58629
439.68        16.58461
440.13        16.40804
440.57        16.16224
441.02        16.27774
441.46        16.60553
441.91         16.6309
442.35        15.97058
442.80        15.74701
443.24        15.79817
443.69        15.77509
444.13        15.65747
444.58        15.59138
445.02         15.5832
445.47        15.63405
445.91        15.70589
446.36        15.70201
446.80        15.60423
447.24        15.45975
447.69        15.31271
448.13        15.19646
448.58          15.132
449.02        15.10813
449.47        15.09796
449.91        15.05116
450.36        14.96449
450.80        14.85331
451.25        14.76142
451.69        14.73855
452.13        14.79681
452.58        14.90671
453.02        15.03119
453.47        15.11435
453.91        15.14176
454.36        15.12896
454.80        15.08576
455.24        15.03038
455.69         14.9792
456.13        14.90955
456.58        14.85118
457.02        14.83993
457.46        14.87734
457.91        14.92225
458.35        14.94829
458.79        14.95032
459.24        14.91971
459.68        14.85944
460.13        14.83928
460.57        14.82514
461.01        14.81004
461.46        15.18516
461.90        15.32487
462.34         15.1804
462.79         15.2473
463.23        15.03039
463.68         14.8199
464.12        14.69063
464.56        14.79003
465.01        14.98131
465.45        15.18276
465.89        15.29308
466.34        15.29562
466.78        15.17383
467.22        15.00893
467.67        15.03793
468.11        15.24065
468.55         15.2989
468.99        15.20727
469.44         15.2092
469.88        15.30677
470.32        15.35509
470.77        15.34157
471.21        15.32476
471.65        15.30705
472.10        15.27225
472.54        15.23749
472.98        15.26507
473.42        15.35892
473.87        15.45843
474.31        15.53697
474.75        15.64691
475.20        15.74794
475.64        15.67991
476.08        15.51378
476.52        15.49654
476.97        15.64605
477.41        15.85423
477.85        16.04504
478.29         16.1407
478.74        16.11996
479.18        15.98241
479.62        15.82591
480.06        15.80655
480.50        15.93153
480.95        16.07607
481.39        16.18507
481.83        16.25111
482.27        16.26297
482.72        16.22755
483.16        16.17345
483.60        16.16351
484.04        16.21246
484.48        16.31011
484.93        16.51045
485.37        16.68041
485.81        16.91015
486.25        17.31474
486.69        17.78524
487.14         17.2258
487.58        16.99721
488.02        17.96654
488.46        17.51943
488.90        17.72443
489.34        17.63468
489.79        17.74116
490.23         17.9922
490.67        18.16731
491.11        18.24709
491.55        18.19531
491.99         18.0635
492.43        18.02605
492.88         18.1137
493.32        18.20934
493.76        18.31964
494.20        18.51139
494.64        18.77921
495.08        19.09268
495.52         19.3985
495.96        19.63132
496.41        19.77647
496.85        19.81626
497.29        19.80371
497.73        19.91896
498.17        20.15447
498.61        20.28724
499.05        20.32349
499.49        20.47814
499.93        20.75707
500.37        20.98361
500.82        21.15189
501.26        21.42742
501.70        21.75353
502.14        21.83899
502.58        21.71801
503.02        21.69702
503.46        21.80042
503.90        21.86844
504.34        21.88561
504.78        21.89919
505.22        21.90956
505.66        21.91443
506.10        21.92736
506.54        21.96386
506.98        22.03045
507.42        22.12705
507.86        22.24718
508.30        22.37911
508.74        22.51337
509.18        22.64174
509.62         22.7677
510.06        22.89867
510.50        23.03308
510.94        23.17146
511.38        23.27861
511.82        23.29932
512.26         23.2297
512.70        23.08855
513.14        22.95057
513.58        22.92931
514.02        23.04025
514.46        23.25164
514.90         23.4808
515.34        23.53161
515.78        23.40878
516.22        23.22646
516.66        23.08449
517.10        22.80214
517.54        22.40913
517.98        22.98614
518.42        22.88834
518.86        23.14298
519.30        23.23956
519.74        23.34347
520.18        23.42369
520.62        23.40844
521.06        23.31172
521.50        23.13975
521.93        22.93979
522.37        22.79946
522.81        22.74211
523.25        22.74809
523.69        22.79085
524.13        22.82599
524.57        22.83488
525.01        22.82547
525.45        22.80292
525.89        22.77377
526.32        22.74067
526.76        22.70534
527.20        22.65224
527.64        22.56404
528.08        22.44123
528.52        22.28646
528.96        22.14657
529.40        22.09068
529.83        22.12534
530.27        22.23553
530.71        22.33757
531.15        22.29999
531.59        22.10353
532.03        21.79434
532.46        21.47669
532.90        21.33263
533.34        21.39052
533.78        21.58622
534.22        21.82124
534.66        21.94352
535.09        21.90964
535.53        21.77871
535.97        21.59818
536.41        21.43952
536.85        21.33293
537.28        21.26521
537.72        21.24752
538.16        21.23422
538.60         21.3238
539.04        21.42397
539.47        21.52969
539.91        21.63862
540.35         21.7553
540.79        21.69553
541.22        21.75996
541.66        21.82692
542.10        22.00598
542.54        21.93266
542.97        22.17647
543.41         22.3124
543.85        22.49187
544.29        22.66072
544.72        22.79742
545.16        22.93497
545.60        23.06606
546.04        23.11189
546.47        23.13413
546.91        23.37672
547.35        23.78074
547.79        24.04591
548.22        24.14319
548.66        24.18994
549.10        24.23565
549.53        24.43877
549.97        24.80349
550.41        24.88308
550.84        25.12869
551.28        25.29318
551.72         25.5246
552.15        25.75137
552.59        25.97194
553.03        26.19407
553.46        26.38335
553.90        26.51534
554.34        26.58654
554.77         26.6076
555.21        26.62344
555.65        26.69244
556.08        26.82251
556.52        26.99136
556.96        27.16704
557.39        27.33366
557.83        27.46936
558.27        27.51709
558.70        27.49696
559.14        27.49739
559.57        27.52322
560.01        27.56595
560.45        27.61251
560.88        27.60818
561.32        27.60775
561.75        27.68586
562.19        27.92393
562.63        28.05167
563.06        28.08468
563.50        28.10722
563.93        28.13701
564.37        28.26534
564.80        28.36304
565.24        28.50793
565.68        28.63314
566.11        28.75367
566.55        28.88428
566.98        28.96318
567.42        28.98513
567.85        29.31359
568.29        29.19888
568.72           29.53
569.16        30.00039
569.60        30.33095
570.03        30.47379
570.47        30.61004
570.90        30.61733
571.34        31.02826
571.77        30.83481
572.21        31.26611
572.64        31.39475
573.08        31.59164
573.51        31.56146
573.95        32.36982
574.38         32.3755
574.82        32.65213
