SpectraSmart Spectrum 2.9.0.0
--------- Device Information -----------
Spectrum Name :  反射率_0
Saving Time :  2024/04/20 00:57:51
Spectro-Module Model Name : SE2030-DUVN
Spectro-Module Serial Number : OS361AC55029948
Wavelength Start : 200
Wavelength End : 1025
Wavelength Unit : Wavelength(nm)
Spectrum Unit : Reflectance(%)
-----------Spectrum Setting ------------
Integration Time : 30ms
Average : 10
Boxcar : 0
Background removal :  enabled
linearity correction :  enabled
SC :  disabled
Intensity correction :  disabled
DWT denoise :  enabled
savitzky-golay :  disabled
FFT :  disabled
Running average :  disabled
Kalman :  disabled
High pass :  disabled
---------------BEGIN--------------------
Wavelength(nm)             Reflectance(%)
200.29               0
200.75        57.69904
201.21        58.55688
201.67        61.07382
202.13        64.85103
202.58        69.48627
203.04        75.22826
203.50        80.35128
203.96        80.72264
204.42        76.53947
204.88        70.58733
205.34        65.32448
205.80        61.69761
206.26        59.01345
206.72        56.38641
207.18        53.42023
207.64        50.69905
208.10        49.58661
208.55        50.62802
209.01        52.32791
209.47        53.88148
209.93        55.03869
210.39        55.99723
210.85        56.39624
211.31         55.8257
211.77        54.19118
212.23        51.22436
212.69          47.706
213.14        47.04293
213.60        49.77465
214.06        54.07817
214.52        57.62934
214.98        59.32928
215.44         59.4881
215.90        58.30474
216.36        56.62897
216.81        56.37398
217.27        58.02999
217.73        61.01852
218.19        63.11509
218.65        61.20642
219.11        54.75723
219.57        44.25293
220.02        32.28217
220.48        25.98668
220.94        27.87751
221.40        36.46859
221.86        47.21821
222.32        53.07555
222.77        52.24612
223.23        47.05682
223.69        40.66946
224.15         37.6795
224.61        38.50631
225.06        40.94066
225.52         42.9848
225.98        43.09831
226.44        41.19927
226.90        38.11069
227.36        34.54889
227.81        31.76369
228.27        30.61731
228.73        30.54167
229.19        31.27435
229.65        32.50987
230.10        33.97031
230.56        35.57837
231.02        37.05617
231.48         38.0551
231.93        38.53221
232.39        38.58636
232.85        38.35763
233.31          38.102
233.77        37.89781
234.22        37.67384
234.68        37.41471
235.14        36.98107
235.60        36.40372
236.05        35.83622
236.51        35.42743
236.97        35.33429
237.43        35.68855
237.88        36.67393
238.34        38.38828
238.80        40.88711
239.26        43.76337
239.71        46.48158
240.17         48.7443
240.63        50.98896
241.08        53.42781
241.54        55.94225
242.00        57.64392
242.46        56.81478
242.91        52.56793
243.37        43.76709
243.83        31.36552
244.28        24.34551
244.74        31.26678
245.20        49.97761
245.66        68.15307
246.11        75.65498
246.57        71.87537
247.03        57.64841
247.48         35.8996
247.94        26.29961
248.40        34.01537
248.85        45.99364
249.31        55.23687
249.77        60.03273
250.22         61.5615
250.68        61.42203
251.14        60.29021
251.59        59.14677
252.05         58.8145
252.51        59.03971
252.96        58.92638
253.42        57.47272
253.88        54.82019
254.33        51.75713
254.79        50.53246
255.25        52.95688
255.70        58.38805
256.16        65.35256
256.62        71.31226
257.07        73.45874
257.53        72.04214
257.99        68.27319
258.44         63.8605
258.90        61.65519
259.35        61.26235
259.81        61.96553
260.27        62.32957
260.72        61.17577
261.18        58.90803
261.63        55.71365
262.09        52.83149
262.55         51.4355
263.00        51.49498
263.46        52.51863
263.91        53.31153
264.37        52.75992
264.83        50.84442
265.28        48.05029
265.74        45.48716
266.19        44.24453
266.65        44.48804
267.11        45.60962
267.56        46.82787
268.02        47.03105
268.47        46.01689
268.93        44.18477
269.38        42.01184
269.84         40.4941
270.30        39.89246
270.75        39.90868
271.21        40.15654
271.66        40.05915
272.12        39.45407
272.57         38.5351
273.03        37.55644
273.48        36.80926
273.94        36.41531
274.39        36.21614
274.85        36.05875
275.31        35.70118
275.76        35.07453
276.22        34.28745
276.67         33.4714
277.13        32.92226
277.58        32.62864
278.04        32.53095
278.49        32.37672
278.95          31.882
279.40         30.9887
279.86        29.89872
280.31        28.80427
280.77        28.11174
281.22        27.81928
281.68         27.8176
282.13        27.90189
282.59        27.80805
283.04        27.47159
283.50        27.02978
283.95        26.55482
284.41         26.1863
284.86        25.94223
285.32        25.78308
285.77        25.71514
286.22        25.82027
286.68        26.07094
287.13        26.40952
287.59        26.70125
288.04        26.72268
288.50        26.46694
288.95         25.9809
289.41        25.43719
289.86        25.02986
290.32        24.86835
290.77        24.89127
291.22        25.05031
291.68        25.23349
292.13        25.41323
292.59        25.63834
293.04        25.96179
293.50        26.47685
293.95        27.17652
294.40        28.00082
294.86        28.85304
295.31        29.60166
295.77        30.21457
296.22        30.73166
296.68         31.2063
297.13        31.70436
297.58        32.26298
298.04        32.86781
298.49        33.51545
298.95        34.24347
299.40        35.02438
299.85        35.83402
300.31        36.62715
300.76        37.32469
301.21        37.90603
301.67         38.4241
302.12        38.84138
302.58        39.17146
303.03        39.41458
303.48        39.60162
303.94        39.85915
304.39        40.33533
304.84        41.05069
305.30         41.9332
305.75        42.80236
306.20        43.40651
306.66        43.70761
307.11        43.76696
307.57        43.71436
308.02        43.66929
308.47        43.70488
308.93        43.77477
309.38        43.87882
309.83        44.07431
310.29        44.34678
310.74        44.68675
311.19        44.97345
311.65        45.00549
312.10        44.74779
312.55        44.26211
313.00        43.72435
313.46        43.40963
313.91        43.36133
314.36         43.5134
314.82        43.70597
315.27        43.70242
315.72        43.43074
316.18        42.98671
316.63         42.4852
317.08        42.10993
317.53        41.90464
317.99        41.79755
318.44        41.71959
318.89        41.55188
319.35        41.25918
319.80        40.88567
320.25          40.474
320.70        40.08874
321.16        39.74636
321.61         39.4307
322.06        39.11559
322.51        38.76705
322.97        38.37011
323.42        37.94741
323.87        37.51718
324.32        37.11232
324.78        36.73553
325.23        36.38903
325.68        36.04181
326.13        35.65018
326.59        35.20922
327.04         34.7622
327.49        34.34377
327.94        34.01223
328.39        33.77873
328.85        33.59908
329.30        33.49134
329.75        33.43279
330.20        33.39899
330.66        33.36681
331.11        33.29364
331.56         33.0557
332.01        32.63029
332.46        32.04495
332.92        31.39049
333.37        30.84097
333.82        30.45959
334.27        30.23272
334.72        30.09657
335.17        29.93071
335.63        29.68808
336.08        29.40322
336.53         29.1588
336.98        29.10134
337.43        29.24772
337.88         29.5465
338.34        29.79229
338.79        29.70445
339.24        29.21229
339.69        28.40222
340.14        27.55361
340.59        27.13799
341.05        27.25373
341.50        27.75887
341.95        28.35544
342.40        28.57991
342.85        28.32169
343.30        27.73857
343.75        27.02916
344.20        26.51792
344.66        26.30165
345.11        26.24578
345.56        26.28199
346.01        26.30401
346.46        26.25949
346.91        26.20826
347.36        26.08474
347.81        25.76939
348.26        25.27184
348.72        24.65277
349.17        24.05332
349.62        23.79218
350.07        23.93709
350.52        24.38072
350.97        24.94199
351.42        25.34683
351.87         25.5097
352.32        25.49393
352.77        25.35378
353.22         25.1836
353.67        25.02099
354.13        24.84566
354.58        24.63316
355.03        24.39061
355.48        24.13124
355.93        23.88536
356.38        23.68093
356.83        23.54659
357.28        23.48286
357.73        23.46692
358.18        23.48129
358.63        23.49768
359.08        23.49793
359.53        23.48874
359.98        23.43212
360.43        23.27364
360.88        23.01365
361.33        22.66697
361.78         22.3202
362.23        22.11762
362.68        22.08434
363.13         22.1721
363.58        22.27435
364.03        22.22306
364.48        21.97845
364.93        21.59367
365.38        21.14869
365.83        20.78182
366.28        20.54502
366.73        20.40212
367.18        20.32026
367.63        20.24606
368.08        20.15707
368.53        20.07064
368.98         19.9929
369.43        19.92527
369.88        19.87002
370.33        19.82714
370.78        19.77777
371.23        19.69937
371.68        19.58869
372.13        19.44095
372.58        19.31456
373.03        19.30678
373.48        19.42392
373.93        19.62991
374.38         19.8029
374.83        19.75774
375.28         19.4653
375.72        18.97928
376.17        18.45942
376.62        18.12392
377.07        18.03687
377.52        18.13232
377.97        18.30966
378.42        18.41021
378.87        18.38559
379.32        18.28203
379.77        18.15229
380.22        18.07166
380.67        18.05754
381.11        18.08271
381.56        18.09043
382.01        18.01169
382.46        17.83211
382.91        17.57688
383.36        17.31894
383.81         17.1621
384.26        17.12727
384.71        17.19144
385.15         17.2619
385.60        17.20039
386.05        16.98253
386.50         16.6501
386.95         16.3269
387.40        16.20714
387.85        16.32015
388.29        16.59188
388.74        16.87024
389.19        16.93936
389.64        16.76038
390.09        16.40037
390.54        15.99714
390.98        15.76514
391.43        15.77055
391.88        15.92849
392.33        16.11146
392.78        16.13708
393.23        15.97851
393.67        15.69862
394.12        15.42425
394.57         15.2722
395.02        15.26737
395.47         15.3635
395.91         15.4961
396.36        15.53822
396.81        15.46175
397.26        15.30525
397.71        15.13617
398.15        15.03925
398.60        15.05111
399.05        15.13036
399.50         15.2155
399.95        15.22087
400.39        15.12729
400.84         14.9585
401.29        14.77974
401.74         14.7102
402.18         14.7842
402.63        14.95538
403.08        15.12848
403.53        15.15058
403.97        14.99263
404.42        14.71501
404.87        14.42301
405.32        14.28999
405.76        14.35335
406.21        14.55024
406.66        14.78474
407.11        14.90721
407.55        14.87855
408.00        14.75053
408.45        14.57205
408.90        14.39227
409.34        14.26063
409.79        14.22689
410.24        14.26084
410.68        14.25696
411.13        14.20688
411.58        14.17393
412.03        14.15763
412.47        14.13453
412.92        14.10169
413.37         14.0556
413.81        14.02518
414.26        14.06962
414.71         14.1884
415.15        14.37213
415.60        14.53257
416.05        14.55036
416.49        14.39887
416.94        14.12154
417.39        13.81929
417.83        13.65582
418.28        13.67568
418.73        13.82145
419.17        14.00533
419.62        14.07706
420.07        14.00598
420.51        13.84475
420.96        13.65633
421.41        13.51996
421.85        13.45767
422.30        13.45043
422.74        13.48097
423.19        13.55124
423.64        13.64552
424.08        13.77266
424.53        13.89121
424.98        13.95022
425.42        13.93764
425.87        13.86657
426.31        13.76057
426.76        13.66929
427.21        13.59877
427.65        13.53027
428.10        13.48399
428.54        13.47008
428.99        13.49206
429.44          13.611
429.88        13.74266
430.33        13.65928
430.77        13.40767
431.22        13.26102
431.66        13.26767
432.11        13.35177
432.56        13.49615
433.00        13.75615
433.45        13.97805
433.89        13.93402
434.34        13.70662
434.78        13.44471
435.23        13.15518
435.67         13.7349
436.12        13.26747
436.57        13.18075
437.01        12.96744
437.46        12.88291
437.90        12.93867
438.35        13.02166
438.79        13.09401
439.24        13.15388
439.68        13.18685
440.13        13.08198
440.57        12.91736
441.02        13.02957
441.46        13.29625
441.91        13.30614
442.35         12.7526
442.80        12.53546
443.24        12.52459
443.69        12.44648
444.13        12.29037
444.58        12.18126
445.02        12.12857
445.47        12.13445
445.91        12.17199
446.36        12.16881
446.80        12.10973
447.24        12.02964
447.69        11.95681
448.13        11.90628
448.58        11.89106
449.02        11.90151
449.47        11.91871
449.91        11.90819
450.36        11.86718
450.80        11.80359
451.25        11.74747
451.69        11.73073
452.13         11.7632
452.58        11.82523
453.02        11.89386
453.47        11.93095
453.91        11.92889
454.36        11.89893
454.80        11.85029
455.24        11.80028
455.69        11.76174
456.13         11.7156
456.58        11.68059
457.02        11.67753
457.46        11.70624
457.91        11.73529
458.35        11.74842
458.79        11.74591
459.24        11.72315
459.68        11.68011
460.13        11.67153
460.57        11.66749
461.01        11.66298
461.46        11.96535
461.90        12.08365
462.34        11.97783
462.79        12.03912
463.23        11.87509
463.68        11.71494
464.12        11.61587
464.56        11.69456
465.01        11.84212
465.45        11.99392
465.89        12.06773
466.34        12.05124
466.78         11.9346
467.22        11.78388
467.67        11.78896
468.11        11.93544
468.55        11.97262
468.99        11.90038
469.44        11.91455
469.88        12.01613
470.32        12.08888
470.77        12.11017
471.21        12.10803
471.65        12.08074
472.10        12.02311
472.54        11.96059
472.98          11.965
473.42        12.04538
473.87        12.14566
474.31        12.23859
474.75         12.3537
475.20         12.4552
475.64        12.42036
476.08         12.3025
476.52        12.29337
476.97        12.40809
477.41        12.56248
477.85         12.7034
478.29         12.7824
478.74        12.78393
479.18        12.70037
479.62        12.60343
480.06         12.6074
480.50        12.71608
480.95        12.83821
481.39        12.92292
481.83        12.95193
482.27        12.91749
482.72        12.83157
483.16        12.74844
483.60        12.75151
484.04         12.8538
484.48        13.08899
484.93        13.45088
485.37        13.62749
485.81         13.7028
486.25        14.18048
486.69        14.52475
487.14        14.08045
487.58        14.01111
488.02        14.63202
488.46        14.42348
488.90        14.52877
489.34        14.39337
489.79        14.51132
490.23        14.83478
490.67        15.08293
491.11        15.20519
491.55        15.17506
491.99        15.04032
492.43        14.99411
492.88        15.06837
493.32        15.12251
493.76        15.18944
494.20        15.37732
494.64        15.68446
495.08        16.11152
495.52        16.56336
495.96         16.7973
496.41        16.83579
496.85        16.92832
497.29        17.10259
497.73        17.27564
498.17        17.43392
498.61        17.52535
499.05        17.56902
499.49        17.70366
499.93         17.9399
500.37        18.14272
500.82        18.30836
501.26        18.58087
501.70        18.91041
502.14        19.03867
502.58        18.99141
503.02        19.03379
503.46        19.18376
503.90        19.29861
504.34        19.35551
504.78        19.38315
505.22        19.38199
505.66        19.35744
506.10        19.33508
506.54        19.35092
506.98        19.41751
507.42        19.52732
507.86        19.67359
508.30        19.84271
508.74        20.02048
509.18        20.19987
509.62        20.36637
510.06        20.49836
510.50        20.59211
510.94        20.65826
511.38         20.6918
511.82        20.68845
512.26        20.65544
512.70        20.59331
513.14        20.55058
513.58        20.59868
514.02        20.73891
514.46        20.95185
514.90        21.15873
515.34        21.17332
515.78        21.00036
516.22        20.75886
516.66        20.56285
517.10        20.24814
517.54         19.8491
517.98        20.47962
518.42        20.42036
518.86        20.69583
519.30        20.77266
519.74         20.8329
520.18        20.86724
520.62        20.83888
521.06        20.76888
521.50        20.64662
521.93        20.50252
522.37        20.39799
522.81        20.34704
523.25        20.34108
523.69          20.353
524.13         20.3362
524.57        20.27848
525.01        20.19114
525.45        20.10024
525.89        20.04716
526.32        20.03801
526.76        20.05847
527.20        20.07055
527.64        20.01925
528.08        19.89295
528.52        19.70843
528.96         19.5099
529.40        19.36332
529.83        19.28341
530.27        19.25694
530.71        19.23734
531.15        19.15149
531.59        18.98965
532.03        18.78218
532.46        18.58383
532.90        18.49461
533.34        18.52468
533.78        18.63317
534.22         18.7665
534.66        18.84407
535.09        18.83811
535.53        18.78091
535.97        18.68395
536.41        18.56305
536.85        18.43484
537.28        18.30717
537.72        18.21449
538.16        18.15557
538.60        18.22571
539.04        18.33182
539.47        18.45973
539.91        18.59248
540.35        18.72704
540.79        18.71004
541.22        18.79323
541.66        18.85911
542.10        19.00229
542.54        18.91106
542.97        19.09333
543.41        19.21044
543.85        19.39909
544.29        19.60634
544.72        19.79691
545.16        19.97262
545.60        20.12234
546.04        20.18625
546.47          20.232
546.91        20.49605
547.35        20.92987
547.79        21.25562
548.22          21.434
548.66        21.55187
549.10        21.64953
549.53        21.87752
549.97        22.23719
550.41        22.32051
550.84        22.53596
551.28        22.66704
551.72         22.8706
552.15        23.12103
552.59        23.42087
553.03        23.76068
553.46        24.07923
553.90        24.30941
554.34        24.43556
554.77        24.47808
555.21        24.49138
555.65        24.54961
556.08        24.66963
556.52        24.83154
556.96        25.00292
557.39        25.16003
557.83        25.28742
558.27        25.34724
558.70        25.36986
559.14        25.44512
559.57        25.57262
560.01        25.73536
560.45        25.90225
560.88          25.978
561.32        26.00418
561.75        26.10493
562.19        26.35397
562.63        26.40127
563.06        26.31443
563.50        26.37451
563.93        26.57223
564.37        26.78431
564.80        26.86734
565.24        26.99467
565.68        27.11271
566.11         27.2002
566.55        27.27333
566.98        27.30763
567.42        27.33355
567.85        27.54226
568.29          27.642
568.72          28.014
569.16         28.4721
569.60        28.91877
570.03        28.99881
570.47        29.15205
570.90        29.20196
571.34        29.43259
571.77        29.43604
572.21        29.71871
572.64        30.07557
573.08        30.08129
573.51        30.24465
573.95        30.92004
574.38        30.99717
574.82        31.22215
