SpectraSmart Spectrum 2.9.0.0
--------- Device Information -----------
Spectrum Name :  反射率_0
Saving Time :  2024/04/19 23:52:31
Spectro-Module Model Name : SE2030-DUVN
Spectro-Module Serial Number : OS361AC55029948
Wavelength Start : 200
Wavelength End : 1025
Wavelength Unit : Wavelength(nm)
Spectrum Unit : Reflectance(%)
-----------Spectrum Setting ------------
Integration Time : 30ms
Average : 10
Boxcar : 0
Background removal :  enabled
linearity correction :  enabled
SC :  disabled
Intensity correction :  disabled
DWT denoise :  enabled
savitzky-golay :  disabled
FFT :  disabled
Running average :  disabled
Kalman :  disabled
High pass :  disabled
---------------BEGIN--------------------
Wavelength(nm)             Reflectance(%)
200.29               0
200.75        59.99358
201.21        61.16923
201.67        64.70806
202.13         70.9034
202.58         79.5164
203.04        90.70368
203.50        100.7029
203.96        101.0291
204.42        92.23232
204.88        80.37737
205.34         70.2543
205.80        63.67268
206.26        59.41214
206.72         55.8739
207.18        53.18015
207.64        53.36834
208.10        57.66851
208.55        65.03437
209.01        71.02122
209.47        73.00186
209.93        71.56853
210.39        67.87347
210.85        63.52202
211.31        60.18504
211.77        57.94106
212.23        56.12928
212.69        54.72399
213.14        54.29645
213.60        54.70799
214.06        56.17144
214.52        57.82325
214.98        59.27505
215.44        60.61064
215.90        61.61547
216.36        62.83274
216.81        65.12747
217.27        68.21567
217.73        71.81274
218.19        73.85709
218.65        71.51983
219.11        64.42918
219.57        52.85154
220.02        39.79154
220.48        33.32334
220.94        36.29826
221.40        47.11911
221.86        60.32328
222.32        67.37625
222.77        66.23988
223.23        59.77581
223.69        52.04175
224.15        48.90429
224.61        50.79239
225.06        54.75068
225.52        58.29787
225.98        59.42554
226.44        58.06933
226.90         55.2617
227.36        51.81387
227.81        49.08954
228.27        47.97211
228.73        47.79349
229.19        48.28849
229.65        49.16489
230.10        50.15548
230.56        51.31979
231.02        52.33056
231.48        52.77988
231.93        52.63782
232.39        52.05294
232.85        51.29405
233.31        50.84554
233.77        50.81311
234.22        51.04332
234.68        51.33858
235.14        51.24126
235.60        50.67751
236.05        49.88075
236.51        49.10628
236.97        48.68431
237.43        48.76985
237.88         49.4621
238.34         50.7559
238.80        52.72953
239.26        55.04544
239.71        57.36579
240.17        59.23616
240.63        60.74731
241.08        62.06031
241.54        63.10645
242.00        63.47932
242.46        62.31887
242.91        59.12883
243.37        53.03047
243.83        44.84584
244.28        41.02107
244.74        47.26203
245.20        61.77598
245.66        75.28799
246.11         80.4151
246.57        76.73029
247.03        64.70286
247.48        46.82034
247.94        39.55247
248.40        46.63137
248.85        56.91505
249.31          64.812
249.77        69.00574
250.22        70.49362
250.68        70.66998
251.14        69.70788
251.59        67.60577
252.05         64.8353
252.51        61.45448
252.96        57.99398
253.42        55.84474
253.88        55.44156
254.33        56.36126
254.79        58.90158
255.25        62.94134
255.70         67.8205
256.16        72.91183
256.62         76.7142
257.07        77.57244
257.53        75.82652
257.99        72.22462
258.44        67.89511
258.90        65.10228
259.35        63.65798
259.81        63.32867
260.27        62.99292
260.72        61.69967
261.18        59.74599
261.63        57.10913
262.09        54.82974
262.55        53.80864
263.00        53.97068
263.46        54.96615
263.91        55.68256
264.37        55.11092
264.83        53.25972
265.28        50.57613
265.74        48.18716
266.19        47.20246
266.65         47.7681
267.11        49.23441
267.56        50.78291
268.02        51.26276
268.47        50.45268
268.93        48.76999
269.38        46.64532
269.84        45.00215
270.30         44.1119
270.75        43.71694
271.21        43.56044
271.66        43.24718
272.12        42.64756
272.57        41.89838
273.03        41.14626
273.48        40.50202
273.94        40.04353
274.39        39.66685
274.85        39.28402
275.31        38.74028
275.76        37.98743
276.22        37.10079
276.67        36.19505
277.13        35.55247
277.58        35.15712
278.04        34.97496
278.49          34.744
278.95        34.16706
279.40        33.18742
279.86        32.01299
280.31        30.86595
280.77        30.20445
281.22        30.01954
281.68         30.1748
282.13        30.40663
282.59        30.37203
283.04        29.98462
283.50        29.40625
283.95        28.74787
284.41         28.2115
284.86        27.83113
285.32        27.55915
285.77        27.37626
286.22        27.32763
286.68        27.38916
287.13         27.5253
287.59        27.64497
288.04        27.57986
288.50        27.32559
288.95        26.89915
289.41        26.42532
289.86        26.02529
290.32        25.78787
290.77        25.67184
291.22        25.65516
291.68        25.66569
292.13        25.69081
292.59        25.77275
293.04        25.96058
293.50        26.34143
293.95        26.91029
294.40         27.6156
294.86        28.37151
295.31        29.06038
295.77        29.64821
296.22        30.16255
296.68        30.64095
297.13        31.12519
297.58        31.64418
298.04        32.19213
298.49        32.76403
298.95         33.3955
299.40        34.06707
299.85        34.75942
300.31        35.45392
300.76        36.11266
301.21        36.71764
301.67        37.30286
302.12        37.79757
302.58        38.16438
303.03        38.38878
303.48        38.51136
303.94        38.67299
304.39        39.04643
304.84        39.66146
305.30        40.44285
305.75        41.20358
306.20        41.68151
306.66        41.84086
307.11        41.75266
307.57        41.56976
308.02        41.44506
308.47        41.45451
308.93        41.54031
309.38         41.6685
309.83        41.84328
310.29        42.03786
310.74        42.25492
311.19        42.41137
311.65        42.36638
312.10        42.09879
312.55        41.65504
313.00        41.16386
313.46        40.82639
313.91        40.67501
314.36        40.66892
314.82        40.71157
315.27        40.66897
315.72        40.48822
316.18        40.22163
316.63        39.91563
317.08        39.65024
317.53        39.44249
317.99        39.25428
318.44        39.05186
318.89        38.77548
319.35        38.41601
319.80        38.00378
320.25        37.58111
320.70        37.21176
321.16        36.90967
321.61        36.66191
322.06        36.43705
322.51        36.18736
322.97        35.88907
323.42        35.55884
323.87         35.2065
324.32        34.85566
324.78        34.50809
325.23        34.16854
325.68        33.81204
326.13        33.40643
326.59        32.95394
327.04        32.49643
327.49        32.08022
327.94        31.77881
328.39        31.60635
328.85        31.51995
329.30        31.51394
329.75         31.5254
330.20        31.51888
330.66        31.47949
331.11        31.39611
331.56        31.19998
332.01         30.8809
332.46        30.45072
332.92        29.96413
333.37        29.53085
333.82        29.19588
334.27        28.96313
334.72        28.80289
335.17        28.65386
335.63        28.48718
336.08        28.31784
336.53        28.20083
336.98         28.2367
337.43        28.42857
337.88        28.74081
338.34        28.98631
338.79        28.91332
339.24        28.45933
339.69        27.69788
340.14        26.90085
340.59        26.52736
341.05        26.67214
341.50        27.20485
341.95        27.82232
342.40         28.0509
342.85        27.78386
343.30        27.18156
343.75        26.47315
344.20         26.0325
344.66         25.9609
345.11         26.1041
345.56        26.34299
346.01        26.49126
346.46        26.47543
346.91         26.3762
347.36        26.17255
347.81        25.81355
348.26        25.33137
348.72        24.77622
349.17        24.25509
349.62        24.03058
350.07        24.15616
350.52         24.5349
350.97        25.04287
351.42        25.49076
351.87        25.79897
352.32        26.00129
352.77         26.0531
353.22        25.89226
353.67        25.53646
354.13        25.02957
354.58        24.47358
355.03        24.07235
355.48        23.88396
355.93        23.87066
356.38        23.97045
356.83        24.06989
357.28        24.12157
357.73        24.14415
358.18        24.13783
358.63        24.10498
359.08        24.04487
359.53        23.94727
359.98        23.79792
360.43        23.58382
360.88        23.31408
361.33        23.00536
361.78        22.71175
362.23        22.51703
362.68        22.43626
363.13        22.43827
363.58        22.46342
364.03        22.41783
364.48        22.27133
364.93         22.0462
365.38        21.76484
365.83        21.47074
366.28        21.19047
366.73        20.92192
367.18        20.67483
367.63        20.46278
368.08        20.28897
368.53        20.15328
368.98        20.05905
369.43        20.00327
369.88        19.98069
370.33        19.99372
370.78        20.00765
371.23        19.96886
371.68        19.86558
372.13        19.69918
372.58        19.53671
373.03        19.49556
373.48        19.58987
373.93        19.77519
374.38        19.93823
374.83        19.90664
375.28        19.64963
375.72        19.21925
376.17        18.74809
376.62        18.40844
377.07        18.25893
377.52        18.25111
377.97        18.32348
378.42        18.37834
378.87         18.3797
379.32        18.35181
379.77        18.31701
380.22        18.30534
380.67        18.32043
381.11        18.34756
381.56        18.33916
382.01        18.24188
382.46         18.0477
382.91        17.77542
383.36        17.49674
383.81        17.31548
384.26        17.25318
384.71        17.29043
385.15        17.33753
385.60        17.25825
386.05        17.02928
386.50        16.69281
386.95        16.37013
387.40        16.25148
387.85        16.36543
388.29         16.6382
388.74        16.92157
389.19        17.00608
389.64        16.85237
390.09        16.52353
390.54        16.15052
390.98        15.93615
391.43        15.94524
391.88        16.09968
392.33        16.27485
392.78        16.29346
393.23           16.13
393.67        15.84172
394.12         15.5648
394.57         15.4291
395.02        15.45943
395.47        15.60877
395.91        15.78586
396.36        15.81654
396.81        15.66615
397.26        15.39071
397.71         15.1071
398.15        14.97132
398.60        15.03013
399.05        15.21805
399.50        15.42495
399.95        15.49537
400.39         15.3962
400.84        15.17086
401.29        14.92372
401.74        14.84322
402.18        14.98095
402.63        15.26385
403.08        15.55292
403.53        15.63149
403.97        15.45698
404.42        15.11379
404.87        14.73892
405.32        14.55497
405.76        14.61504
406.21        14.84107
406.66        15.12229
407.11        15.28681
407.55        15.28791
408.00        15.18545
408.45        15.03106
408.90        14.87541
409.34        14.76665
409.79        14.74992
410.24        14.79313
410.68        14.78816
411.13        14.72719
411.58        14.67908
412.03        14.63922
412.47        14.57627
412.92        14.49042
413.37        14.38328
413.81        14.30262
414.26        14.33613
414.71        14.48555
415.15           14.73
415.60        14.95725
416.05        15.00668
416.49         14.8409
416.94        14.51928
417.39        14.15571
417.83        13.93534
418.28        13.91424
418.73        14.02864
419.17        14.20459
419.62        14.31389
420.07        14.32217
420.51        14.27024
420.96        14.18815
421.41        14.10236
421.85        14.02442
422.30        13.95481
422.74        13.89985
423.19        13.89782
423.64        13.94491
424.08        14.03947
424.53        14.14343
424.98        14.21167
425.42        14.22958
425.87        14.20996
426.31        14.15661
426.76        14.08691
427.21        14.00031
427.65        13.88492
428.10        13.78033
428.54        13.73271
428.99        13.75568
429.44        13.89914
429.88        14.06394
430.33        13.99837
430.77        13.74448
431.22         13.5892
431.66         13.5848
432.11        13.65617
432.56        13.78807
433.00        14.03684
433.45        14.24741
433.89        14.19179
434.34        13.95792
434.78        13.69836
435.23        13.42136
435.67         14.0466
436.12        13.61314
436.57        13.57348
437.01        13.40158
437.46          13.351
437.90        13.42819
438.35         13.5185
438.79        13.57266
439.24          13.574
439.68         13.5118
440.13        13.28427
440.57        13.00482
441.02         13.0594
441.46        13.33397
441.91        13.40246
442.35        12.92362
442.80        12.76301
443.24        12.78211
443.69        12.71343
444.13         12.5546
444.58        12.44829
445.02        12.40844
445.47        12.42882
445.91        12.47919
446.36        12.48366
446.80        12.42487
447.24        12.34008
447.69        12.25652
448.13        12.18574
448.58        12.14133
449.02         12.1163
449.47        12.09511
449.91        12.04825
450.36         11.9771
450.80         11.8917
451.25        11.82412
451.69        11.80843
452.13         11.8538
452.58        11.93713
453.02        12.03517
453.47        12.11016
453.91        12.15125
454.36        12.16695
454.80        12.15486
455.24        12.11342
455.69        12.05401
456.13        11.96705
456.58        11.88698
457.02        11.85745
457.46          11.884
457.91         11.9266
458.35        11.96622
458.79        11.99931
459.24        12.01558
459.68        12.01432
460.13        12.03836
460.57        12.03559
461.01        11.99841
461.46        12.25017
461.90        12.30322
462.34          12.146
462.79        12.18297
463.23        12.01045
463.68        11.85467
464.12        11.76176
464.56        11.84552
465.01        12.00039
465.45        12.16101
465.89        12.24385
466.34        12.23676
466.78        12.12774
467.22        11.98565
467.67         12.0076
468.11        12.17939
468.55        12.24405
468.99        12.19581
469.44        12.22736
469.88        12.33833
470.32        12.41098
470.77          12.427
471.21        12.42353
471.65        12.40025
472.10        12.34813
472.54        12.28917
472.98        12.28987
473.42        12.35845
473.87        12.44235
474.31        12.51486
474.75        12.60745
475.20        12.68512
475.64        12.62195
476.08        12.48048
476.52        12.46734
476.97        12.59805
477.41         12.7835
477.85        12.95488
478.29         13.0377
478.74        13.01257
479.18        12.88216
479.62         12.7356
480.06        12.71489
480.50        12.82786
480.95        12.96685
481.39        13.07563
481.83        13.13209
482.27        13.12323
482.72        13.05963
483.16        12.97705
483.60        12.94628
484.04        12.97792
484.48        13.08762
484.93        13.33412
485.37        13.50386
485.81        13.60451
486.25        14.18445
486.69        14.37432
487.14         13.7437
487.58         14.1104
488.02         14.7947
488.46        14.29495
488.90        14.28826
489.34        14.23824
489.79        14.40933
490.23         14.7118
490.67        14.88662
491.11         14.9046
491.55        14.84498
491.99        14.75447
492.43         14.7115
492.88        14.74409
493.32        14.78814
493.76        14.86206
494.20         15.0275
494.64        15.28359
495.08        15.60267
495.52        15.92747
495.96        16.18329
496.41        16.34992
496.85        16.41329
497.29         16.4236
497.73        16.54378
498.17        16.76986
498.61         16.9116
499.05        16.96073
499.49        17.07575
499.93         17.2611
500.37        17.38276
500.82        17.45792
501.26        17.65578
501.70        17.93751
502.14        18.05265
502.58        18.01847
503.02        18.07156
503.46        18.22402
503.90        18.34562
504.34        18.41352
504.78        18.45257
505.22        18.46144
505.66        18.44079
506.10        18.41712
506.54        18.43061
506.98        18.49353
507.42        18.59842
507.86        18.73009
508.30        18.86057
508.74        18.97728
509.18        19.08281
509.62        19.18151
510.06        19.28067
510.50          19.383
510.94        19.48828
511.38        19.57978
511.82        19.63292
512.26        19.64448
512.70        19.61847
513.14         19.5949
513.58        19.63373
514.02        19.73645
514.46        19.88548
514.90        20.02169
515.34        19.99288
515.78        19.80979
516.22        19.59113
516.66        19.43059
517.10        19.12568
517.54        18.70321
517.98        19.30332
518.42        19.20666
518.86        19.49225
519.30        19.62484
519.74        19.77348
520.18        19.89848
520.62        19.91591
521.06        19.83758
521.50        19.67042
521.93        19.47005
522.37        19.33919
522.81        19.30298
523.25        19.33571
523.69          19.401
524.13        19.43841
524.57        19.42784
525.01        19.38708
525.45        19.32735
525.89         19.2652
526.32        19.20655
526.76        19.14509
527.20         19.0759
527.64        18.99807
528.08         18.9109
528.52        18.81466
528.96        18.72034
529.40        18.64091
529.83        18.57863
530.27        18.53792
530.71        18.49304
531.15        18.40444
531.59        18.27133
532.03        18.10879
532.46        17.96402
532.90        17.92639
533.34        18.00005
533.78        18.14911
534.22         18.3104
534.66        18.38783
535.09        18.35329
535.53        18.24243
535.97        18.08796
536.41        17.94042
536.85        17.82357
537.28         17.7364
537.72         17.6884
538.16        17.63861
538.60        17.67199
539.04        17.71247
539.47        17.77174
539.91        17.87164
540.35        18.01696
540.79        18.04521
541.22        18.17832
541.66        18.27191
542.10        18.40824
542.54        18.29515
542.97        18.43389
543.41        18.51219
543.85        18.66732
544.29        18.84239
544.72        19.00111
545.16        19.14201
545.60        19.25321
546.04        19.28094
546.47        19.29054
546.91        19.50695
547.35        19.88518
547.79        20.16261
548.22        20.30473
548.66        20.39707
549.10        20.47685
549.53        20.68236
549.97        21.01464
550.41        21.08762
550.84        21.28578
551.28        21.40595
551.72        21.58656
552.15        21.78896
552.59        22.01565
553.03        22.26361
553.46        22.49736
553.90         22.6853
554.34         22.8185
554.77        22.90786
555.21        22.97891
555.65        23.06016
556.08          23.158
556.52        23.26287
556.96        23.37139
557.39        23.50876
557.83        23.66402
558.27        23.77399
558.70        23.83944
559.14        23.90864
559.57        23.97615
560.01        24.04475
560.45        24.09969
560.88        24.08798
561.32        24.06183
561.75        24.08754
562.19        24.25673
562.63        24.36669
563.06         24.4355
563.50         24.5296
563.93        24.63834
564.37        24.78959
564.80        24.86466
565.24        24.96546
565.68        25.04823
566.11        25.13236
566.55        25.23817
566.98        25.31407
567.42        25.35101
567.85        25.65543
568.29        25.56727
568.72         25.8677
569.16        26.28703
569.60        26.58437
570.03        26.72882
570.47        26.85194
570.90        26.83169
571.34        27.22816
571.77        27.19559
572.21        27.37067
572.64        27.50664
573.08        27.81985
573.51        28.09967
573.95        28.37977
574.38         28.6177
574.82        28.80591
