SpectraSmart Spectrum 2.9.0.0
--------- Device Information -----------
Spectrum Name :  反射率_0
Saving Time :  2024/04/20 00:08:41
Spectro-Module Model Name : SE2030-DUVN
Spectro-Module Serial Number : OS361AC55029948
Wavelength Start : 200
Wavelength End : 1025
Wavelength Unit : Wavelength(nm)
Spectrum Unit : Reflectance(%)
-----------Spectrum Setting ------------
Integration Time : 30ms
Average : 10
Boxcar : 0
Background removal :  enabled
linearity correction :  enabled
SC :  disabled
Intensity correction :  disabled
DWT denoise :  enabled
savitzky-golay :  disabled
FFT :  disabled
Running average :  disabled
Kalman :  disabled
High pass :  disabled
---------------BEGIN--------------------
Wavelength(nm)             Reflectance(%)
200.29               0
200.75        58.71343
201.21        59.76297
201.67        62.78657
202.13        67.93893
202.58        75.01443
203.04        84.26783
203.50        92.64481
203.96        93.11318
204.42        86.03294
204.88        76.25223
205.34        67.93351
205.80        62.81516
206.26        59.92228
206.72        58.08144
207.18        57.03791
207.64        56.62828
208.10        56.98219
208.55          58.785
209.01        60.42826
209.47        61.27894
209.93        61.35519
210.39        60.64057
210.85        59.74994
211.31        59.51516
211.77        60.01337
212.23        61.27168
212.69        62.53802
213.14        61.71448
213.60        58.49591
214.06        55.23801
214.52        53.30744
214.98        53.37891
215.44        55.08567
215.90        57.77037
216.36        61.36088
216.81        65.07622
217.27        67.86918
217.73        70.02579
218.19        70.22839
218.65        66.58749
219.11        58.97504
219.57        47.40452
220.02        34.72987
220.48        28.75606
220.94        32.20638
221.40        43.62292
221.86        57.73469
222.32        66.25677
222.77        67.08203
223.23        62.81075
223.69        56.97274
224.15        54.69548
224.61        56.51913
225.06         60.0111
225.52        63.19559
225.98        64.55671
226.44        64.04047
226.90         62.3678
227.36        60.33675
227.81        59.13634
228.27        59.36287
228.73        60.39283
229.19        61.34221
229.65        61.20646
230.10        60.00227
230.56        58.31461
231.02        56.85907
231.48        56.54387
231.93        57.32383
232.39        58.77952
232.85        60.22717
233.31        60.67331
233.77        59.89793
234.22        58.26287
234.68        56.20447
235.14        54.41399
235.60        53.23082
236.05        52.49746
236.51        52.19793
236.97        52.28209
237.43        52.71609
237.88        53.76545
238.34        55.20325
238.80        56.51718
239.26        57.17806
239.71        57.08604
240.17        56.32205
240.63        55.67079
241.08        55.43613
241.54        55.38544
242.00        55.24685
242.46        54.34893
242.91        52.22671
243.37        48.38795
243.83        43.08983
244.28        39.70607
244.74        41.62222
245.20        48.34858
245.66        54.59868
246.11         55.4698
246.57        50.19769
247.03        38.88443
247.48        24.50325
247.94        22.12771
248.40        32.52187
248.85        44.65437
249.31         53.5032
249.77        58.55818
250.22        61.11771
250.68         62.4484
251.14        62.88761
251.59        62.57083
252.05        61.79642
252.51         60.5302
252.96        58.59288
253.42         56.2393
253.88        53.93406
254.33        51.98523
254.79        51.78247
255.25         54.2591
255.70        58.78989
256.16        64.31068
256.62         68.9088
257.07        70.44776
257.53        69.16776
257.99          65.996
258.44        62.13513
258.90        59.85933
259.35        58.92534
259.81        58.95334
260.27        58.89314
260.72        57.87947
261.18        56.20543
261.63        53.88171
262.09        51.84435
262.55        50.85453
263.00        50.87359
263.46        51.63432
263.91         52.1982
264.37        51.73891
264.83        50.24719
265.28        48.05441
265.74        46.14545
266.19        45.45075
266.65        46.08793
267.11        47.50226
267.56        48.92664
268.02        49.26862
268.47        48.34398
268.93        46.55085
269.38        44.38482
269.84        42.88068
270.30         42.3111
270.75        42.36798
271.21        42.67108
271.66        42.64464
272.12         42.1193
272.57        41.28501
273.03        40.35646
273.48         39.5601
273.94        39.01804
274.39        38.60117
274.85        38.22025
275.31        37.71656
275.76        37.04067
276.22        36.28187
276.67        35.53376
277.13        35.04021
277.58        34.77028
278.04        34.67561
278.49        34.52435
278.95        34.06861
279.40        33.24598
279.86        32.24409
280.31        31.21007
280.77         30.4957
281.22        30.09686
281.68        29.93594
282.13        29.85784
282.59        29.67949
283.04         29.3431
283.50        28.94616
283.95        28.52311
284.41        28.16296
284.86         27.8648
285.32         27.6154
285.77        27.40236
286.22        27.28232
286.68        27.24484
287.13        27.24932
287.59        27.23557
288.04        27.08373
288.50        26.79586
288.95        26.38044
289.41        25.92823
289.86        25.50298
290.32        25.18196
290.77        24.94262
291.22        24.79653
291.68        24.72144
292.13        24.71353
292.59        24.79351
293.04        24.97745
293.50        25.30479
293.95        25.75507
294.40        26.28418
294.86        26.83271
295.31        27.32302
295.77        27.73369
296.22        28.09267
296.68        28.40047
297.13        28.63937
297.58        28.83836
298.04        29.01714
298.49        29.26389
298.95        29.75021
299.40        30.47695
299.85        31.37798
300.31        32.30685
300.76        33.03522
301.21        33.50355
301.67        33.79789
302.12        33.97108
302.58        34.16561
303.03        34.40099
303.48        34.65279
303.94        34.94344
304.39        35.27015
304.84        35.63305
305.30        36.02952
305.75        36.39289
306.20        36.63675
306.66        36.76412
307.11        36.78514
307.57        36.76482
308.02         36.7324
308.47         36.7266
308.93        36.73035
309.38        36.75191
309.83        36.85115
310.29        37.01977
310.74        37.24269
311.19        37.41896
311.65        37.38716
312.10        37.12042
312.55        36.66923
313.00         36.1828
313.46        35.89061
313.91        35.82825
314.36        35.94804
314.82        36.10886
315.27         36.1022
315.72        35.86741
316.18        35.48392
316.63        35.07235
317.08        34.82318
317.53        34.77343
317.99        34.84649
318.44        34.94051
318.89        34.88297
319.35        34.62816
319.80        34.23748
320.25        33.78775
320.70        33.40053
321.16        33.11155
321.61        32.88751
322.06        32.69328
322.51        32.47678
322.97        32.21322
323.42        31.92968
323.87        31.63103
324.32        31.32646
324.78        31.01565
325.23        30.70042
325.68          30.373
326.13        30.02988
326.59        29.67888
327.04         29.3553
327.49        29.07267
327.94         28.8511
328.39        28.69499
328.85        28.57468
329.30        28.53231
329.75        28.59472
330.20        28.74316
330.66        28.92964
331.11        29.07409
331.56        28.99988
332.01        28.67029
332.46        28.13431
332.92        27.49614
333.37        26.94725
333.82        26.56883
334.27        26.34468
334.72        26.24215
335.17         26.1922
335.63        26.15362
336.08        26.14024
336.53        26.18126
336.98        26.33046
337.43         26.5757
337.88         26.8867
338.34        27.08977
338.79         26.9609
339.24        26.45326
339.69        25.64057
340.14        24.80448
340.59        24.41845
341.05        24.57967
341.50        25.15351
341.95         25.8343
342.40         26.1409
342.85        25.96035
343.30        25.45478
343.75        24.82889
344.20        24.41868
344.66        24.32163
345.11        24.39395
345.56        24.56334
346.01        24.71915
346.46         24.8017
346.91        24.86673
347.36        24.83833
347.81        24.58291
348.26        24.11104
348.72        23.49256
349.17        22.87735
349.62         22.6001
350.07        22.73474
350.52        23.16684
350.97        23.72654
351.42        24.15473
351.87        24.36491
352.32        24.42036
352.77        24.33937
353.22        24.15766
353.67         23.9074
354.13         23.5884
354.58        23.23768
355.03        22.95821
355.48         22.7808
355.93        22.70369
356.38        22.69027
356.83        22.66754
357.28        22.60935
357.73        22.52133
358.18        22.43155
358.63        22.38949
359.08        22.39721
359.53        22.43183
359.98        22.42434
360.43         22.2732
360.88        21.97144
361.33         21.5637
361.78        21.14943
362.23        20.89077
362.68        20.82236
363.13        20.88094
363.58        20.98788
364.03        21.01992
364.48        20.93635
364.93        20.77974
365.38        20.54815
365.83        20.24281
366.28        19.88819
366.73        19.48594
367.18        19.11973
367.63        18.92231
368.08        18.90864
368.53        19.03724
368.98        19.19883
369.43         19.2163
369.88        19.05207
370.33        18.76495
370.78        18.43118
371.23        18.18601
371.68        18.07591
372.13        18.04946
372.58        18.09488
373.03        18.19325
373.48        18.31408
373.93        18.45795
374.38         18.5532
374.83        18.48824
375.28        18.24907
375.72        17.85844
376.17        17.43255
376.62        17.12372
377.07        16.98351
377.52        16.97759
377.97        17.04473
378.42        17.08376
378.87        17.06182
379.32        17.00244
379.77        16.94496
380.22         16.9459
380.67        17.01219
381.11        17.12323
381.56        17.20397
382.01        17.15283
382.46         16.9511
382.91        16.63137
383.36        16.30029
383.81        16.11667
384.26        16.11191
384.71        16.24581
385.15        16.39487
385.60        16.37105
386.05        16.13861
386.50        15.75763
386.95        15.37243
387.40        15.20859
387.85        15.30672
388.29        15.58407
388.74         15.8802
389.19        15.97088
389.64        15.81314
390.09        15.47524
390.54        15.09768
390.98        14.89744
391.43        14.93819
391.88         15.1333
392.33        15.34297
392.78        15.36844
393.23        15.18472
393.67        14.86396
394.12        14.55319
394.57        14.39972
395.02        14.43271
395.47        14.59642
395.91         14.8065
396.36        14.89952
396.81        14.83428
397.26        14.66004
397.71        14.45843
398.15        14.33627
398.60        14.33656
399.05        14.41216
399.50        14.49821
399.95        14.50453
400.39        14.41106
400.84        14.24539
401.29        14.07521
401.74        14.02204
402.18        14.11965
402.63        14.31826
403.08        14.52006
403.53        14.56971
403.97        14.43747
404.42        14.18529
404.87        13.91593
405.32        13.79843
405.76        13.87128
406.21        14.07357
406.66        14.31891
407.11        14.47324
407.55        14.49939
408.00        14.44282
408.45        14.33975
408.90        14.21569
409.34        14.11091
409.79        14.08152
410.24        14.10401
410.68         14.0844
411.13        14.01972
411.58        13.97002
412.03        13.94157
412.47        13.92243
412.92        13.91112
413.37         13.9018
413.81        13.91026
414.26         13.9747
414.71        14.08946
415.15        14.24903
415.60        14.37814
416.05        14.37968
416.49        14.23388
416.94        13.98023
417.39        13.70434
417.83        13.54574
418.28        13.54414
418.73        13.64855
419.17        13.79523
419.62        13.86997
420.07        13.84773
420.51        13.77036
420.96        13.66576
421.41        13.55927
421.85        13.46418
422.30          13.379
422.74        13.32926
423.19        13.38094
423.64        13.52992
424.08        13.76544
424.53        14.00357
424.98         14.1161
425.42         14.0702
425.87        13.90773
426.31        13.69487
426.76        13.54525
427.21        13.48386
427.65        13.47176
428.10        13.51309
428.54        13.58909
428.99        13.68666
429.44        13.87467
429.88        14.06204
430.33        14.00776
430.77        13.76083
431.22        13.60254
431.66        13.59379
432.11        13.67651
432.56        13.83906
433.00        14.13622
433.45        14.40197
433.89        14.38164
434.34        14.15397
434.78        13.87923
435.23        13.57405
435.67        14.17792
436.12         13.7151
436.57        13.65274
437.01        13.45932
437.46        13.38787
437.90        13.44679
438.35        13.52349
438.79        13.58018
439.24        13.61681
439.68         13.6218
440.13        13.48191
440.57        13.28702
441.02        13.39652
441.46        13.68695
441.91         13.7319
442.35        13.20112
442.80        13.00701
443.24        13.01362
443.69        12.94024
444.13         12.7835
444.58        12.68634
445.02        12.66044
445.47        12.70209
445.91        12.77275
446.36        12.78103
446.80        12.70756
447.24        12.59462
447.69        12.48253
448.13         12.4029
448.58        12.37475
449.02        12.38667
449.47        12.41121
449.91        12.39979
450.36        12.34712
450.80        12.26454
451.25        12.19714
451.69        12.19912
452.13          12.282
452.58         12.4171
453.02        12.55615
453.47        12.62378
453.91        12.60492
454.36        12.52113
454.80        12.40906
455.24        12.33208
455.69        12.31489
456.13        12.32358
456.58        12.34944
457.02        12.37298
457.46        12.38629
457.91        12.37069
458.35        12.33373
458.79         12.3127
459.24        12.30929
459.68        12.31002
460.13        12.35036
460.57        12.36484
461.01        12.34091
461.46        12.61761
461.90        12.69414
462.34        12.55808
462.79        12.62689
463.23        12.47908
463.68        12.34567
464.12         12.2715
464.56        12.37158
465.01        12.53494
465.45        12.69321
465.89        12.75929
466.34        12.72196
466.78        12.57182
467.22        12.38166
467.67        12.35691
468.11        12.48518
468.55        12.50383
468.99        12.41732
469.44        12.43494
469.88        12.55719
470.32        12.66118
470.77        12.71344
471.21        12.72755
471.65        12.69839
472.10        12.62363
472.54        12.53933
472.98        12.53649
473.42        12.62754
473.87        12.74727
474.31        12.85948
474.75        12.98412
475.20        13.08135
475.64        13.02847
476.08        12.88334
476.52        12.84896
476.97        12.94269
477.41        13.07399
477.85        13.19662
478.29        13.27497
478.74        13.29474
479.18        13.24496
479.62        13.17983
480.06         13.1884
480.50        13.26921
480.95        13.33264
481.39        13.35448
481.83        13.36257
482.27        13.35685
482.72         13.3323
483.16        13.30914
483.60        13.32899
484.04         13.3894
484.48        13.52404
484.93        13.77016
485.37        13.91421
485.81        14.01448
486.25        14.59522
486.69        14.60369
487.14        14.30551
487.58        14.40287
488.02        14.83877
488.46        14.57356
488.90        14.62309
489.34         14.6349
489.79         14.7912
490.23        15.03427
490.67        15.18591
491.11        15.22424
491.55        15.19142
491.99        15.11936
492.43        15.07369
492.88        15.07964
493.32        15.09162
493.76        15.13398
494.20        15.26489
494.64        15.48649
495.08        15.77916
495.52        16.09206
495.96        16.34378
496.41        16.52057
496.85        16.63815
497.29        16.72044
497.73        16.86224
498.17        17.05034
498.61        17.12019
499.05          17.095
499.49        17.17807
499.93        17.38625
500.37        17.57077
500.82         17.7205
501.26        17.96299
501.70        18.24717
502.14        18.33129
502.58        18.25146
503.02        18.27622
503.46        18.42515
503.90        18.55612
504.34        18.63554
504.78        18.67266
505.22        18.66218
505.66        18.61308
506.10        18.55902
506.54        18.54948
506.98        18.60101
507.42        18.70328
507.86        18.84046
508.30        18.98464
508.74        19.11984
509.18        19.24442
509.62        19.35958
510.06        19.46772
510.50        19.56925
510.94        19.66672
511.38        19.73567
511.82        19.73996
512.26        19.67923
512.70        19.56465
513.14        19.46264
513.58        19.47309
514.02        19.60595
514.46        19.83355
514.90         20.0669
515.34        20.10464
515.78        19.94292
516.22        19.70871
516.66        19.52127
517.10        19.22148
517.54        18.84479
517.98        19.51425
518.42        19.48065
518.86        19.76903
519.30        19.83785
519.74        19.87663
520.18         19.8869
520.62        19.84738
521.06        19.78566
521.50         19.6902
521.93        19.58434
522.37        19.51721
522.81         19.4988
523.25        19.52037
523.69        19.56597
524.13        19.60757
524.57        19.63179
525.01        19.63987
525.45        19.63173
525.89        19.60787
526.32        19.56906
526.76        19.51953
527.20        19.44975
527.64        19.35023
528.08        19.22355
528.52         19.0717
528.96        18.93263
529.40        18.86129
529.83         18.8638
530.27        18.93017
530.71        18.99319
531.15        18.94689
531.59        18.77579
532.03         18.5156
532.46        18.25331
532.90        18.14203
533.34        18.20355
533.78        18.38432
534.22        18.59383
534.66        18.69308
535.09        18.64381
535.53        18.49712
535.97        18.30721
536.41        18.15734
536.85        18.07659
537.28        18.04777
537.72        18.05969
538.16        18.03938
538.60        18.06617
539.04        18.07614
539.47        18.09136
539.91         18.1489
540.35        18.26125
540.79        18.25914
541.22        18.37758
541.66        18.48653
542.10        18.66855
542.54        18.62136
542.97        18.83084
543.41        18.94069
543.85        19.08304
544.29        19.21151
544.72        19.31131
545.16        19.41651
545.60        19.52357
546.04        19.56551
546.47        19.59729
546.91        19.82906
547.35        20.20892
547.79        20.47836
548.22        20.60233
548.66        20.66588
549.10        20.70952
549.53        20.87341
549.97        21.16893
550.41        21.22614
550.84        21.43335
551.28        21.58296
551.72        21.80334
552.15        22.01921
552.59        22.22399
553.03        22.49258
553.46         22.6724
553.90        22.82699
554.34        22.91685
554.77        22.95426
555.21        22.98253
555.65        23.06127
556.08        23.19999
556.52        23.37725
556.96        23.55804
557.39        23.71721
557.83        23.83508
558.27        23.86678
558.70        23.84211
559.14        23.85548
559.57        23.91238
560.01        23.99814
560.45        24.08811
560.88         24.1059
561.32        24.09418
561.75        24.15069
562.19        24.35218
562.63        24.41789
563.06        24.39161
563.50          24.463
563.93        24.62122
564.37        24.79333
564.80        24.85897
565.24        24.98389
565.68        25.11201
566.11        25.21275
566.55        25.30215
566.98        25.34201
567.42        25.34043
567.85        25.63013
568.29        25.55591
568.72        25.88911
569.16        26.34292
569.60        26.63662
570.03        26.71701
570.47        26.78585
570.90        26.76166
571.34        27.04198
571.77        26.76661
572.21        27.28734
572.64        27.44752
573.08         27.5262
573.51        27.78119
573.95        28.15326
574.38        28.42492
574.82        28.66262
