SpectraSmart Spectrum 2.9.0.0
--------- Device Information -----------
Spectrum Name :  反射率_0
Saving Time :  2024/04/20 00:39:13
Spectro-Module Model Name : SE2030-DUVN
Spectro-Module Serial Number : OS361AC55029948
Wavelength Start : 200
Wavelength End : 1025
Wavelength Unit : Wavelength(nm)
Spectrum Unit : Reflectance(%)
-----------Spectrum Setting ------------
Integration Time : 30ms
Average : 10
Boxcar : 0
Background removal :  enabled
linearity correction :  enabled
SC :  disabled
Intensity correction :  disabled
DWT denoise :  enabled
savitzky-golay :  disabled
FFT :  disabled
Running average :  disabled
Kalman :  disabled
High pass :  disabled
---------------BEGIN--------------------
Wavelength(nm)             Reflectance(%)
200.29               0
200.75        61.23785
201.21        60.91917
201.67        61.75239
202.13        64.29263
202.58        68.70978
203.04        75.03311
203.50        81.74332
203.96         84.3895
204.42        82.22523
204.88         77.8504
205.34        73.26632
205.80        69.09309
206.26        64.60822
206.72        58.40976
207.18        50.18152
207.64         43.8947
208.10        44.45556
208.55        51.38479
209.01        59.22552
209.47        63.57077
209.93        64.44114
210.39        63.33884
210.85        61.66007
211.31        61.01927
211.77        61.70863
212.23         63.2762
212.69        65.31426
213.14         66.3108
213.60        65.20312
214.06        63.69101
214.52        62.41208
214.98         61.5377
215.44        60.89621
215.90        59.99863
216.36        59.34241
216.81        60.10566
217.27         62.3307
217.73        65.64494
218.19        68.00176
218.65        66.56366
219.11        60.85369
219.57        51.16665
220.02        39.83761
220.48        33.52901
220.94        34.63422
221.40        41.97553
221.86        51.38805
222.32        56.31532
222.77        55.15165
223.23        50.05693
223.69        44.35236
224.15        42.75368
224.61        45.32278
225.06        49.52622
225.52        52.92988
225.98        53.56376
226.44        51.41769
226.90        47.45722
227.36         42.7918
227.81        39.41803
228.27        38.39521
228.73        38.89616
229.19        40.19153
229.65        41.40788
230.10        42.28091
230.56        43.06872
231.02        43.82967
231.48        44.62473
231.93         45.4319
232.39        46.16986
232.85        46.75148
233.31        47.10804
233.77        47.22029
234.22        47.11518
234.68        46.86643
235.14        46.49231
235.60        46.06358
236.05        45.64505
236.51          45.335
236.97        45.23831
237.43        45.44278
237.88        46.14402
238.34        47.32652
238.80        49.00648
239.26        50.86951
239.71        52.54462
240.17        53.85493
240.63        55.27629
241.08        57.00151
241.54        58.91091
242.00        60.16162
242.46         59.0992
242.91        54.81446
243.37        46.08694
243.83        33.66417
244.28        25.92508
244.74        31.21993
245.20        48.17688
245.66        64.93277
246.11        71.16168
246.57         66.1284
247.03        50.54144
247.48        28.81248
247.94        23.39438
248.40        36.90735
248.85        53.32667
249.31         65.1834
249.77        71.00153
250.22        72.50452
250.68        71.58251
251.14        68.99781
251.59        66.13306
252.05        64.16807
252.51        62.89994
252.96        61.84978
253.42        60.50922
253.88        59.01245
254.33        57.89185
254.79        58.64246
255.25        62.33626
255.70        68.18143
256.16        74.75074
256.62        79.99879
257.07        81.70289
257.53        80.12688
257.99        76.34848
258.44        71.37996
258.90        67.43378
259.35        64.66879
259.81        63.10032
260.27        61.94058
260.72        60.49888
261.18        58.93245
261.63        57.04178
262.09        55.54002
262.55        54.87564
263.00         54.9426
263.46        55.59016
263.91        55.98396
264.37        55.44764
264.83        53.97456
265.28        51.83218
265.74        49.94422
266.19         49.1465
266.65         49.5663
267.11        50.69578
267.56        51.83664
268.02        51.99002
268.47        50.98023
268.93        49.17299
269.38        47.01305
269.84         45.4523
270.30        44.74412
270.75        44.61356
271.21        44.71774
271.66         44.5301
272.12        43.89307
272.57        42.97264
273.03        41.97636
273.48        41.11964
273.94        40.52109
274.39          40.061
274.85        39.63148
275.31        39.04212
275.76        38.24178
276.22        37.32572
276.67        36.43412
277.13        35.88381
277.58        35.64768
278.04        35.65304
278.49        35.59598
278.95        35.12684
279.40        34.17503
279.86        32.97412
280.31        31.74496
280.77        30.94742
281.22        30.58715
281.68        30.53471
282.13        30.58223
282.59        30.47015
283.04        30.12104
283.50        29.67197
283.95        29.16025
284.41        28.67679
284.86        28.23896
285.32        27.83956
285.77        27.52831
286.22        27.45632
286.68        27.61958
287.13        27.93913
287.59        28.26896
288.04        28.36596
288.50        28.20507
288.95        27.82127
289.41        27.36399
289.86         26.9914
290.32        26.79946
290.77        26.73092
291.22        26.73786
291.68        26.71166
292.13        26.63998
292.59         26.5902
293.04        26.64744
293.50        26.95259
293.95         27.5125
294.40        28.25469
294.86        29.07743
295.31        29.83587
295.77        30.48495
296.22        31.06545
296.68        31.59496
297.13        32.08341
297.58        32.55871
298.04        33.01878
298.49        33.51385
298.95        34.16929
299.40        34.97506
299.85        35.87958
300.31        36.78191
300.76        37.51672
301.21        38.04323
301.67        38.44048
302.12        38.71431
302.58        38.94267
303.03        39.13656
303.48        39.30021
303.94        39.52142
304.39        39.89246
304.84         40.4237
305.30         41.0679
305.75        41.67982
306.20         42.0581
306.66        42.18204
307.11        42.10413
307.57        41.93676
308.02         41.7739
308.47        41.68153
308.93        41.62074
309.38        41.60808
309.83        41.72342
310.29        41.95076
310.74        42.26614
311.19         42.5231
311.65        42.48265
312.10        42.10564
312.55         41.4736
313.00        40.78095
313.46         40.3301
313.91        40.17664
314.36        40.24593
314.82         40.3932
315.27        40.40408
315.72         40.2036
316.18        39.87606
316.63        39.49469
317.08         39.1778
317.53        38.95613
317.99        38.77524
318.44        38.60521
318.89        38.39511
319.35        38.13079
319.80        37.83945
320.25        37.53526
320.70        37.23618
321.16        36.94481
321.61        36.65609
322.06        36.36827
322.51        36.08545
322.97         35.7995
323.42        35.51773
323.87         35.2219
324.32        34.88763
324.78        34.50747
325.23        34.10296
325.68        33.68896
326.13        33.29763
326.59        32.94485
327.04        32.64902
327.49        32.40826
327.94         32.2208
328.39        32.07821
328.85         31.9548
329.30         31.8803
329.75        31.85451
330.20        31.86375
330.66        31.87782
331.11        31.85622
331.56         31.6826
332.01        31.33656
332.46        30.84684
332.92        30.30361
333.37        29.87522
333.82        29.61844
334.27        29.51394
334.72        29.48908
335.17        29.40944
335.63        29.22562
336.08         28.9811
336.53        28.75698
336.98        28.69926
337.43        28.83207
337.88        29.10426
338.34        29.35021
338.79        29.35086
339.24        29.04373
339.69        28.50011
340.14        27.92595
340.59        27.66632
341.05        27.79038
341.50        28.19289
341.95        28.66311
342.40        28.87528
342.85        28.75028
343.30        28.40289
343.75        27.96119
344.20        27.63337
344.66        27.48326
345.11        27.41532
345.56        27.40966
346.01        27.43541
346.46        27.46147
346.91        27.51825
347.36         27.5139
347.81        27.29321
348.26        26.85558
348.72         26.2774
349.17        25.70809
349.62         25.4754
350.07        25.65034
350.52        26.11812
350.97        26.69997
351.42        27.12834
351.87        27.31759
352.32        27.33131
352.77        27.21507
353.22        27.04693
353.67        26.86518
354.13         26.6601
354.58         26.4203
355.03        26.17418
355.48        25.93923
355.93        25.73403
356.38        25.58495
356.83        25.51859
357.28        25.52873
357.73        25.59187
358.18        25.66346
358.63        25.67239
359.08        25.59526
359.53          25.453
359.98         25.2537
360.43        25.01196
360.88        24.74505
361.33        24.45382
361.78        24.18286
362.23        24.00715
362.68        23.93418
363.13        23.93227
363.58        23.94381
364.03        23.87487
364.48        23.69904
364.93        23.44842
365.38        23.13341
365.83        22.77968
366.28        22.41509
366.73        22.03662
367.18         21.7077
367.63        21.52464
368.08        21.49319
368.53        21.58291
368.98        21.69352
369.43        21.66309
369.88         21.4601
370.33        21.13704
370.78        20.77665
371.23        20.52632
371.68        20.43293
372.13        20.44256
372.58        20.52662
373.03        20.63601
373.48        20.73401
373.93        20.83097
374.38        20.87111
374.83         20.7688
375.28        20.51487
375.72        20.11948
376.17        19.69421
376.62        19.38369
377.07        19.23558
377.52        19.22303
377.97        19.26894
378.42        19.24747
378.87        19.12647
379.32        18.93604
379.77        18.75603
380.22        18.70373
380.67        18.79404
381.11        18.98997
381.56        19.16085
382.01        19.11202
382.46        18.80627
382.91        18.30892
383.36        17.79253
383.81        17.51671
384.26        17.53395
384.71        17.76909
385.15        18.04668
385.60        18.09924
386.05        17.87067
386.50        17.45046
386.95        17.00883
387.40        16.81251
387.85        16.91213
388.29        17.19989
388.74        17.51523
389.19        17.63368
389.64        17.50735
390.09        17.21079
390.54        16.85366
390.98        16.60182
391.43        16.52042
391.88        16.54345
392.33        16.59335
392.78        16.56188
393.23        16.43009
393.67        16.22984
394.12        16.04616
394.57        15.93588
395.02        15.91128
395.47        15.94726
395.91        15.99607
396.36        15.96192
396.81        15.83258
397.26        15.63562
397.71        15.44525
398.15        15.35602
398.60        15.40068
399.05        15.53493
399.50        15.67293
399.95        15.69205
400.39        15.56722
400.84        15.33034
401.29        15.07312
401.74        14.96421
402.18        15.05294
402.63        15.27955
403.08        15.51966
403.53        15.57549
403.97        15.40751
404.42        15.08924
404.87        14.75128
405.32        14.60701
405.76        14.70191
406.21        14.95851
406.66        15.25355
407.11        15.39593
407.55        15.33805
408.00        15.14641
408.45        14.89513
408.90        14.67714
409.34        14.55451
409.79        14.56055
410.24        14.64622
410.68        14.67703
411.13        14.63577
411.58        14.59756
412.03        14.56061
412.47         14.4981
412.92        14.41252
413.37        14.30329
413.81        14.21722
414.26        14.24226
414.71        14.38138
415.15        14.61462
415.60        14.83651
416.05        14.89651
416.49        14.75728
416.94        14.47282
417.39        14.14373
417.83        13.93464
418.28        13.89621
418.73        13.97055
419.17        14.09386
419.62         14.1538
420.07        14.12286
420.51        14.04055
420.96        13.93418
421.41        13.82582
421.85        13.72602
422.30        13.63555
422.74        13.56629
423.19        13.56389
423.64         13.6231
424.08        13.73761
424.53        13.85412
424.98        13.90173
425.42        13.86148
425.87        13.75765
426.31        13.61472
426.76        13.47958
427.21        13.36152
427.65        13.24361
428.10        13.15874
428.54        13.14038
428.99        13.19351
429.44        13.36404
429.88         13.5551
430.33        13.52195
430.77        13.30209
431.22        13.17118
431.66        13.17139
432.11        13.21662
432.56        13.29054
433.00        13.45077
433.45        13.56606
433.89        13.45752
434.34        13.22104
434.78        12.98985
435.23        12.75288
435.67        13.35551
436.12        12.92764
436.57        12.86325
437.01        12.66647
437.46        12.58422
437.90        12.62769
438.35        12.68322
438.79        12.72227
439.24        12.75855
439.68        12.78138
440.13        12.68168
440.57         12.5241
441.02        12.61574
441.46        12.83561
441.91        12.79559
442.35        12.22028
442.80        11.99635
443.24        11.99995
443.69        11.96026
444.13        11.85422
444.58        11.78303
445.02         11.7477
445.47        11.75367
445.91        11.77693
446.36         11.7515
446.80        11.66579
447.24         11.5543
447.69        11.44524
448.13        11.35416
448.58        11.29663
449.02        11.26619
449.47        11.25212
449.91        11.23237
450.36        11.20395
450.80        11.16688
451.25         11.1399
451.69        11.13828
452.13        11.16611
452.58        11.20901
453.02        11.24329
453.47        11.22968
453.91        11.16413
454.36        11.05975
454.80        10.94238
455.24        10.85709
455.69        10.82361
456.13        10.81797
456.58        10.83773
457.02         10.8717
457.46        10.91251
457.91        10.93726
458.35        10.94586
458.79        10.96179
459.24        10.98298
459.68        10.99746
460.13         11.0392
460.57        11.05223
461.01        11.02748
461.46         11.2677
461.90        11.32442
462.34        11.18292
462.79        11.21671
463.23        11.05374
463.68        10.90999
464.12        10.84067
464.56        10.95011
465.01        11.13226
465.45        11.31431
465.89        11.40215
466.34        11.38175
466.78        11.24881
467.22        11.07177
467.67         11.0404
468.11         11.1458
468.55        11.15136
468.99        11.06176
469.44        11.06462
469.88        11.16038
470.32        11.24024
470.77        11.27427
471.21        11.27352
471.65        11.23314
472.10        11.15341
472.54        11.06485
472.98        11.04725
473.42        11.11261
473.87        11.20339
474.31        11.29335
474.75        11.40729
475.20        11.51001
475.64        11.48951
476.08        11.38737
476.52        11.36956
476.97        11.44851
477.41         11.5486
477.85        11.63461
478.29        11.68489
478.74        11.69092
479.18        11.64076
479.62        11.58189
480.06        11.59171
480.50        11.66784
480.95        11.73252
481.39        11.76073
481.83        11.76889
482.27        11.75461
482.72        11.71801
483.16        11.67966
483.60        11.67156
484.04        11.70092
484.48        11.81333
484.93        12.04427
485.37         12.1451
485.81        12.21498
486.25        12.63186
486.69        13.27567
487.14        12.69123
487.58         12.6509
488.02        13.36409
488.46        12.77067
488.90        12.76233
489.34        12.61425
489.79        12.72681
490.23        13.01929
490.67        13.24362
491.11        13.34873
491.55        13.30233
491.99        13.15435
492.43        13.08612
492.88        13.13039
493.32         13.1581
493.76        13.18552
494.20        13.30351
494.64         13.5131
495.08        13.78009
495.52        14.05416
495.96        14.26791
496.41        14.40316
496.85        14.45317
497.29        14.45553
497.73        14.54154
498.17        14.70811
498.61        14.79227
499.05        14.80726
499.49        14.92452
499.93        15.15184
500.37        15.35695
500.82        15.52523
501.26        15.76385
501.70        16.02597
502.14        16.09898
502.58        16.01311
503.02         16.0036
503.46        16.09019
503.90        16.15171
504.34        16.16933
504.78         16.1664
505.22        16.14297
505.66        16.10506
506.10        16.07414
506.54         16.0788
506.98        16.12914
507.42        16.21953
507.86        16.34107
508.30        16.47808
508.74        16.61737
509.18        16.75142
509.62        16.87586
510.06        16.98563
510.50        17.07884
510.94        17.16122
511.38        17.21125
511.82        17.19673
512.26         17.1198
512.70        16.99155
513.14        16.87795
513.58        16.87901
514.02        17.00356
514.46        17.22125
514.90        17.44567
515.34        17.48198
515.78        17.31961
516.22        17.09636
516.66        16.91799
517.10        16.59702
517.54        16.16662
517.98        16.79267
518.42        16.69681
518.86        16.98477
519.30        17.10311
519.74        17.23254
520.18        17.33295
520.62        17.31676
521.06         17.1987
521.50        16.98744
521.93        16.74934
522.37        16.60441
522.81        16.58073
523.25        16.64699
523.69         16.7534
524.13        16.81874
524.57        16.81638
525.01        16.76766
525.45        16.69292
525.89        16.62376
526.32        16.57083
526.76        16.52549
527.20        16.47221
527.64        16.39344
528.08         16.2868
528.52        16.15822
528.96        16.03927
529.40        15.97388
529.83        15.96787
530.27        16.01321
530.71        16.05524
531.15        16.00819
531.59        15.86126
532.03        15.64469
532.46        15.43297
532.90        15.35831
533.34        15.43636
533.78        15.61684
534.22        15.82056
534.66        15.92608
535.09         15.8992
535.53         15.7867
535.97        15.62615
536.41        15.47478
536.85        15.35938
537.28        15.27131
537.72        15.22713
538.16        15.20613
538.60        15.28006
539.04        15.37842
539.47        15.48801
539.91        15.59056
540.35        15.68551
540.79        15.64572
541.22        15.69018
541.66        15.73456
542.10        15.86073
542.54        15.80293
542.97        15.98025
543.41        16.10132
543.85        16.27577
544.29        16.46113
544.72        16.62226
545.16        16.75275
545.60        16.84299
546.04        16.84438
546.47        16.82635
546.91        17.00705
547.35        17.35106
547.79        17.62462
548.22        17.78015
548.66        17.86413
549.10        17.90629
549.53        18.03801
549.97        18.27852
550.41        18.32254
550.84        18.51129
551.28        18.65523
551.72        18.86125
552.15        19.07494
552.59         19.2892
553.03        19.50831
553.46        19.69852
553.90        19.82617
554.34        19.88825
554.77        19.89905
555.21        19.89755
555.65        19.93569
556.08        20.02424
556.52        20.14515
556.96        20.28476
557.39        20.44715
557.83        20.61532
558.27        20.73998
558.70        20.81248
559.14        20.86069
559.57         20.8811
560.01        20.87945
560.45        20.86845
560.88        20.84266
561.32        20.85374
561.75        20.94633
562.19         21.1692
562.63        21.29599
563.06        21.33171
563.50        21.35024
563.93        21.37194
564.37        21.46752
564.80         21.5462
565.24        21.68144
565.68        21.81184
566.11        21.91922
566.55        22.01417
566.98        22.06303
567.42        22.07849
567.85        22.36342
568.29        22.34578
568.72         22.6815
569.16        23.12369
569.60        23.45619
570.03         23.6424
570.47        23.79748
570.90        23.82921
571.34        24.21513
571.77        24.18777
572.21        24.42826
572.64        24.73097
573.08        24.82179
573.51        25.07498
573.95         25.5806
574.38        25.63993
574.82        25.89145
