SpectraSmart Spectrum 2.9.0.0
--------- Device Information -----------
Spectrum Name :  反射率_0
Saving Time :  2024/04/20 00:22:47
Spectro-Module Model Name : SE2030-DUVN
Spectro-Module Serial Number : OS361AC55029948
Wavelength Start : 200
Wavelength End : 1025
Wavelength Unit : Wavelength(nm)
Spectrum Unit : Reflectance(%)
-----------Spectrum Setting ------------
Integration Time : 30ms
Average : 10
Boxcar : 0
Background removal :  enabled
linearity correction :  enabled
SC :  disabled
Intensity correction :  disabled
DWT denoise :  enabled
savitzky-golay :  disabled
FFT :  disabled
Running average :  disabled
Kalman :  disabled
High pass :  disabled
---------------BEGIN--------------------
Wavelength(nm)             Reflectance(%)
200.29               0
200.75        54.34168
201.21        53.11831
201.67        53.62001
202.13        56.93504
202.58        63.47106
203.04        73.65045
203.50        84.37099
203.96        87.45295
204.42        82.11486
204.88        73.24818
205.34         65.1961
205.80        59.91813
206.26        56.53597
206.72         53.7037
207.18        51.07127
207.64        49.22956
208.10        49.26541
208.55        51.67421
209.01         54.4269
209.47        56.38799
209.93        57.41224
210.39        57.66716
210.85        57.28543
211.31        56.44224
211.77         55.1252
212.23         53.1761
212.69        50.67554
213.14        49.04795
213.60        48.86514
214.06        49.88766
214.52        51.37192
214.98        53.01052
215.44        54.80832
215.90        56.73534
216.36        58.72338
216.81        60.23681
217.27        60.73156
217.73          60.433
218.19        58.84544
218.65        55.13628
219.11        49.19889
219.57        40.99426
220.02        31.97944
220.48        26.80945
220.94        27.06206
221.40        32.18551
221.86        39.23563
222.32         43.4621
222.77        43.62169
223.23        41.10551
223.69        38.19698
224.15        38.16801
224.61        40.92083
225.06        44.63699
225.52        47.55992
225.98        48.41619
226.44        47.26042
226.90        44.80715
227.36        41.81646
227.81        39.59103
228.27        38.92011
228.73        39.22258
229.19        40.05879
229.65        40.90223
230.10        41.56192
230.56        42.17548
231.02        42.72692
231.48        43.19101
231.93        43.53546
232.39        43.73046
232.85        43.74084
233.31        43.56388
233.77        43.20688
234.22        42.68298
234.68        42.05533
235.14        41.32553
235.60        40.58382
236.05        39.93901
236.51        39.49096
236.97        39.33123
237.43        39.53875
237.88        40.25872
238.34        41.58195
238.80        43.68656
239.26        46.24892
239.71        48.77303
240.17        50.68717
240.63        51.94373
241.08         52.6732
241.54        52.91107
242.00        52.22687
242.46        49.63768
242.91        44.47543
243.37        35.55424
243.83        23.72228
244.28        17.21308
244.74        23.99973
245.20        42.18957
245.66         59.9918
246.11        67.79333
246.57        65.20651
247.03         53.2049
247.48        34.53927
247.94        26.92402
248.40        34.50731
248.85        45.43841
249.31        53.88614
249.77        58.73059
250.22        61.03112
250.68        62.23619
251.14        62.49723
251.59        61.44813
252.05        59.29118
252.51        56.15131
252.96        52.33509
253.42        49.01903
253.88        46.92126
254.33         45.9784
254.79        47.21186
255.25        51.23665
255.70         57.2153
256.16        63.98226
256.62        69.37973
257.07        71.00966
257.53        69.16444
257.99         64.9721
258.44        59.88658
258.90        56.53768
259.35        54.86168
259.81        54.39885
260.27        54.00024
260.72        52.68872
261.18        50.69346
261.63        48.05209
262.09        45.74935
262.55        44.65133
263.00        44.71377
263.46         45.5863
263.91        46.23023
264.37        45.66002
264.83         43.8883
265.28        41.32571
265.74        39.05453
266.19        38.17478
266.65        38.80136
267.11        40.31457
267.56        41.86696
268.02        42.24042
268.47         41.2303
268.93        39.27077
269.38          36.894
269.84        35.19749
270.30         34.4865
270.75        34.44747
271.21        34.69308
271.66        34.64282
272.12        34.12226
272.57        33.33287
273.03        32.50048
273.48         31.8719
273.94        31.55103
274.39        31.38858
274.85        31.24666
275.31        30.92108
275.76         30.3544
276.22        29.64298
276.67        28.90759
277.13        28.41616
277.58        28.16157
278.04        28.09181
278.49        27.98353
278.95        27.57837
279.40        26.82522
279.86        25.90368
280.31        24.98342
280.77        24.42925
281.22        24.23407
281.68        24.29005
282.13        24.41244
282.59        24.36005
283.04        24.07332
283.50        23.67526
283.95        23.21928
284.41        22.80972
284.86        22.46905
285.32        22.17754
285.77        21.97507
286.22        21.98662
286.68        22.19749
287.13        22.54294
287.59        22.87191
288.04        22.94664
288.50        22.74568
288.95         22.3128
289.41        21.81389
289.86        21.43855
290.32        21.28539
290.77        21.28836
291.22          21.383
291.68        21.43464
292.13        21.42378
292.59        21.41843
293.04        21.50025
293.50        21.80082
293.95        22.32896
294.40        23.01062
294.86        23.75383
295.31         24.4342
295.77        25.00734
296.22        25.50381
296.68        25.93325
297.13        26.29101
297.58        26.60505
298.04        26.88982
298.49        27.19431
298.95        27.63409
299.40        28.21428
299.85        28.89763
300.31        29.62711
300.76        30.30788
301.21        30.90247
301.67        31.45473
302.12        31.92118
302.58        32.29539
303.03        32.56711
303.48        32.75188
303.94         32.9546
304.39        33.30263
304.84        33.81728
305.30        34.44511
305.75        35.03375
306.20        35.36734
306.66        35.42567
307.11        35.27352
307.57        35.05458
308.02        34.91476
308.47        34.92231
308.93        35.02197
309.38        35.17626
309.83        35.37542
310.29        35.58758
310.74        35.81623
311.19        35.98282
311.65        35.95806
312.10        35.72408
312.55        35.32229
313.00        34.87167
313.46         34.5589
313.91        34.41578
314.36        34.40829
314.82          34.453
315.27        34.43386
315.72        34.30395
316.18        34.10755
316.63        33.88523
317.08        33.70451
317.53        33.57841
317.99        33.47261
318.44        33.35269
318.89        33.15846
319.35        32.88052
319.80         32.5468
320.25        32.19992
320.70        31.90613
321.16        31.67909
321.61        31.50124
322.06        31.34298
322.51        31.15818
322.97        30.92502
323.42        30.66491
323.87        30.37878
324.32        30.07299
324.78        29.75305
325.23        29.42971
325.68        29.11274
326.13        28.82525
326.59        28.57728
327.04        28.38526
327.49        28.25048
327.94        28.17471
328.39        28.14921
328.85        28.14837
329.30        28.17987
329.75        28.21464
330.20        28.23196
330.66        28.20775
331.11         28.1364
331.56        27.96094
332.01        27.67514
332.46        27.29717
332.92        26.87447
333.37         26.4939
333.82        26.19581
334.27        25.98667
334.72        25.85182
335.17        25.75576
335.63        25.67715
336.08        25.62444
336.53        25.62714
336.98        25.74371
337.43        25.96746
337.88        26.27003
338.34         26.5076
338.79        26.49783
339.24        26.19222
339.69        25.64628
340.14        25.06536
340.59        24.79651
341.05        24.90909
341.50        25.30695
341.95        25.77188
342.40        25.96071
342.85        25.79455
343.30        25.39459
343.75        24.90979
344.20        24.58279
344.66        24.48254
345.11        24.49917
345.56        24.58831
346.01        24.67982
346.46        24.73114
346.91        24.78484
347.36        24.75971
347.81        24.51813
348.26        24.06676
348.72        23.47553
349.17        22.89822
349.62        22.67242
350.07        22.86703
350.52        23.36247
350.97        23.96601
351.42        24.38686
351.87        24.53713
352.32        24.49282
352.77        24.30695
353.22        24.07095
353.67        23.83025
354.13         23.5686
354.58        23.29468
355.03        23.06449
355.48        22.89732
355.93        22.80838
356.38        22.77629
356.83         22.7525
357.28        22.71688
357.73        22.66055
358.18         22.6109
358.63        22.61746
359.08        22.67805
359.53        22.77353
359.98        22.81195
360.43        22.65659
360.88        22.29815
361.33        21.78973
361.78        21.27622
362.23        20.99406
362.68        20.99035
363.13        21.17818
363.58        21.41802
364.03        21.49255
364.48         21.3409
364.93        21.03312
365.38        20.62608
365.83        20.22045
366.28        19.86908
366.73        19.54457
367.18        19.27772
367.63        19.11847
368.08        19.06208
368.53        19.09528
368.98        19.15332
369.43        19.12478
369.88        18.98659
370.33        18.77484
370.78        18.52607
371.23        18.31136
371.68        18.15983
372.13         18.0407
372.58         17.9804
373.03        18.02329
373.48        18.15493
373.93        18.35233
374.38        18.51162
374.83        18.47297
375.28        18.21066
375.72        17.76703
376.17        17.27267
376.62        16.90296
377.07         16.7188
377.52        16.67458
377.97        16.71635
378.42        16.75535
378.87        16.75608
379.32        16.73998
379.77        16.71891
380.22         16.7058
380.67        16.70287
381.11        16.70406
381.56        16.67201
382.01        16.56995
382.46        16.39507
382.91         16.1575
383.36        15.93031
383.81        15.82051
384.26        15.84346
384.71        15.97424
385.15        16.10111
385.60        16.05357
386.05        15.80449
386.50        15.40935
386.95        15.01294
387.40        14.84416
387.85        14.94279
388.29        15.22331
388.74          15.528
389.19        15.63589
389.64        15.50144
390.09        15.19195
390.54        14.82833
390.98        14.59764
391.43        14.56328
391.88        14.65261
392.33        14.76045
392.78          14.738
393.23        14.56537
393.67        14.29478
394.12        14.04164
394.57        13.91023
395.02        13.92133
395.47        14.03532
395.91        14.18234
396.36        14.22669
396.81        14.13864
397.26        13.95614
397.71        13.76287
398.15         13.6698
398.60         13.7133
399.05        13.84349
399.50        13.97484
399.95        13.98622
400.39        13.85335
400.84        13.61234
401.29        13.35277
401.74        13.23833
402.18         13.3173
402.63        13.52899
403.08        13.75905
403.53        13.82494
403.97        13.68886
404.42        13.42186
404.87        13.13241
405.32        12.99788
405.76        13.05988
406.21         13.2525
406.66        13.48895
407.11         13.6362
407.55        13.65654
408.00        13.59604
408.45        13.48843
408.90        13.35696
409.34        13.24033
409.79        13.19069
410.24        13.19085
410.68        13.15958
411.13        13.09622
411.58          13.059
412.03        13.04565
412.47        13.03071
412.92        13.01062
413.37        12.98191
413.81        12.97866
414.26        13.06764
414.71        13.24613
415.15        13.49789
415.60         13.7182
416.05        13.76031
416.49        13.59232
416.94        13.26966
417.39        12.90816
417.83        12.69618
418.28         12.6881
418.73        12.81913
419.17        13.00703
419.62        13.10875
420.07        13.08869
420.51        12.99476
420.96        12.86472
421.41        12.73848
421.85        12.63336
422.30        12.54537
422.74        12.48363
423.19         12.4884
423.64        12.55482
424.08         12.6807
424.53        12.81873
424.98        12.90439
425.42        12.91796
425.87        12.87713
426.31        12.79927
426.76        12.72422
427.21        12.65712
427.65        12.57917
428.10        12.51873
428.54        12.50318
428.99        12.53925
429.44        12.67855
429.88        12.83162
430.33        12.76829
430.77        12.53007
431.22        12.37891
431.66        12.36936
432.11         12.4452
432.56        12.59517
433.00        12.86824
433.45        13.11302
433.89        13.10038
434.34        12.90063
434.78        12.65605
435.23        12.38235
435.67        12.93734
436.12        12.51836
436.57         12.4653
437.01        12.28651
437.46         12.2025
437.90        12.22063
438.35        12.24277
438.79        12.25072
439.24        12.26957
439.68        12.29295
440.13        12.20999
440.57        12.08298
441.02        12.20935
441.46        12.47071
441.91        12.48886
442.35        11.97779
442.80        11.78676
443.24        11.79511
443.69        11.74114
444.13        11.61872
444.58        11.55437
445.02        11.55512
445.47        11.61971
445.91        11.70579
446.36        11.71733
446.80        11.63632
447.24         11.5066
447.69         11.3773
448.13        11.29645
448.58        11.28503
449.02        11.32395
449.47        11.38117
449.91        11.40043
450.36        11.37141
450.80        11.30866
451.25        11.24649
451.69         11.2236
452.13        11.25224
452.58        11.30963
453.02        11.37241
453.47        11.40242
453.91         11.3925
454.36        11.35549
454.80        11.30174
455.24        11.24986
455.69        11.21244
456.13        11.16956
456.58        11.13902
457.02        11.14055
457.46         11.1736
457.91        11.20902
458.35        11.22746
458.79        11.22286
459.24        11.19099
459.68        11.13322
460.13        11.11109
460.57        11.11065
461.01        11.12845
461.46        11.45162
461.90        11.59881
462.34        11.51024
462.79         11.5579
463.23        11.37187
463.68        11.18158
464.12        11.05843
464.56        11.12002
465.01        11.25623
465.45        11.40473
465.89         11.4854
466.34        11.48447
466.78        11.39482
467.22        11.27021
467.67        11.27669
468.11        11.39773
468.55        11.39637
468.99        11.29077
469.44        11.29589
469.88         11.4174
470.32        11.53607
470.77        11.60721
471.21        11.62129
471.65        11.56916
472.10        11.45895
472.54        11.33582
472.98        11.30223
473.42          11.376
473.87        11.49176
474.31        11.61137
474.75        11.74411
475.20        11.84957
475.64        11.81693
476.08         11.6974
476.52        11.67379
476.97        11.76121
477.41        11.87769
477.85        11.97772
478.29        12.02468
478.74        12.00718
479.18        11.91839
479.62          11.819
480.06        11.80589
480.50        11.87974
480.95        11.95474
481.39        11.99536
481.83        12.00443
482.27         11.9771
482.72        11.91705
483.16        11.85357
483.60        11.84084
484.04         11.8836
484.48        12.01182
484.93         12.2612
485.37        12.40682
485.81          12.478
486.25        13.01554
486.69        13.19794
487.14        12.75435
487.58        12.79486
488.02        13.54214
488.46        13.02919
488.90        13.04885
489.34        12.95173
489.79        13.07374
490.23        13.34348
490.67        13.52794
491.11        13.58154
491.55        13.47604
491.99        13.27501
492.43        13.18194
492.88        13.23589
493.32        13.30451
493.76        13.38845
494.20        13.54975
494.64        13.78093
495.08        14.05458
495.52        14.32694
495.96          14.543
496.41        14.68789
496.85         14.7473
497.29        14.75778
497.73        14.85229
498.17        15.02549
498.61         15.1118
499.05        15.11906
499.49        15.21251
499.93        15.39952
500.37        15.55044
500.82          15.661
501.26        15.85384
501.70        16.08629
502.14         16.1433
502.58        16.05169
503.02        16.03999
503.46        16.12494
503.90        16.18561
504.34        16.20558
504.78        16.21239
505.22        16.20512
505.66        16.18614
506.10        16.16818
506.54        16.16718
506.98        16.19134
507.42        16.24006
507.86        16.31556
508.30        16.41994
508.74        16.54607
509.18        16.68321
509.62        16.82052
510.06        16.94167
510.50         17.0411
510.94        17.12718
511.38        17.18344
511.82         17.1854
512.26        17.13621
512.70         17.0436
513.14        16.96431
513.58        16.98488
514.02        17.11179
514.46        17.31849
514.90         17.5307
515.34        17.57329
515.78         17.4393
516.22         17.2586
516.66        17.12294
517.10        16.82298
517.54        16.38674
517.98        16.98591
518.42        16.85618
518.86        17.11573
519.30        17.21829
519.74        17.33988
520.18        17.44177
520.62        17.43852
521.06        17.34305
521.50        17.16324
521.93        16.95678
522.37        16.82898
522.81        16.80433
523.25         16.8549
523.69        16.93917
524.13        16.98969
524.57        16.98415
525.01        16.94123
525.45        16.87642
525.89        16.81332
526.32        16.76054
526.76        16.71181
527.20        16.65736
527.64        16.58817
528.08        16.50259
528.52        16.40265
528.96        16.31001
529.40        16.25426
529.83        16.23841
530.27        16.25853
530.71        16.27107
531.15        16.20802
531.59        16.06292
532.03        15.86162
532.46        15.66761
532.90        15.59526
533.34        15.65752
533.78        15.81158
534.22        15.99013
534.66         16.0901
535.09        16.07984
535.53        15.99663
535.97        15.86948
536.41        15.74235
536.85        15.63739
537.28        15.55269
537.72        15.50094
538.16        15.45433
538.60        15.48912
539.04        15.53667
539.47         15.6038
539.91        15.70351
540.35        15.83786
540.79        15.86493
541.22        15.98026
541.66        16.05762
542.10        16.16941
542.54        16.05813
542.97        16.16423
543.41        16.21438
543.85        16.33101
544.29         16.4683
544.72        16.59377
545.16        16.70421
545.60        16.78931
546.04        16.79972
546.47         16.8024
546.91        17.00993
547.35        17.38205
547.79        17.68199
548.22        17.85294
548.66         17.9303
549.10        17.94407
549.53        18.03137
549.97        18.22123
550.41        18.22745
550.84        18.39731
551.28        18.53845
551.72        18.75641
552.15        18.99449
552.59        19.24111
553.03        19.49859
553.46        19.72394
553.90        19.87038
554.34         19.9313
554.77        19.92259
555.21        19.88972
555.65         19.8961
556.08        19.95786
556.52         20.0578
556.96        20.17849
557.39        20.31705
557.83         20.4563
558.27        20.54953
558.70        20.60096
559.14        20.65667
559.57        20.71384
560.01        20.77075
560.45        20.81639
560.88        20.80832
561.32        20.79208
561.75        20.82679
562.19        20.98626
562.63        21.08022
563.06        21.12542
563.50        21.19419
563.93        21.28167
564.37        21.40727
564.80        21.47029
565.24        21.56452
565.68        21.64493
566.11        21.71391
566.55         21.7869
566.98        21.82255
567.42        21.82653
567.85        22.08164
568.29        22.02345
568.72        22.32176
569.16         22.7245
569.60        22.98982
570.03        23.07913
570.47        23.13617
570.90        23.09376
571.34         23.4085
571.77        23.33187
572.21        23.71299
572.64         23.8955
573.08        24.11356
573.51        24.15632
573.95        24.63838
574.38        24.70324
574.82        24.89501
