SpectraSmart Spectrum 2.9.0.0
--------- Device Information -----------
Spectrum Name :  反射率_0
Saving Time :  2024/04/20 00:51:33
Spectro-Module Model Name : SE2030-DUVN
Spectro-Module Serial Number : OS361AC55029948
Wavelength Start : 200
Wavelength End : 1025
Wavelength Unit : Wavelength(nm)
Spectrum Unit : Reflectance(%)
-----------Spectrum Setting ------------
Integration Time : 30ms
Average : 10
Boxcar : 0
Background removal :  enabled
linearity correction :  enabled
SC :  disabled
Intensity correction :  disabled
DWT denoise :  enabled
savitzky-golay :  disabled
FFT :  disabled
Running average :  disabled
Kalman :  disabled
High pass :  disabled
---------------BEGIN--------------------
Wavelength(nm)             Reflectance(%)
200.29               0
200.75        51.94437
201.21        53.55989
201.67        57.64473
202.13        63.21432
202.58        69.44593
203.04        76.73596
203.50        82.74635
203.96        82.39866
204.42        76.38282
204.88        68.33833
205.34        61.61462
205.80        57.67677
206.26        55.77587
206.72        55.15332
207.18        55.76877
207.64        57.05596
208.10         58.2792
208.55        59.85328
209.01         60.7582
209.47        61.18316
209.93        61.23241
210.39        60.67303
210.85        59.89815
211.31        59.46579
211.77        59.34724
212.23        59.50471
212.69        59.29644
213.14        57.48198
213.60        54.25506
214.06        51.54885
214.52        50.02843
214.98        49.82094
215.44        50.57887
215.90        51.79184
216.36        53.67579
216.81        56.33015
217.27        59.16697
217.73        62.10918
218.19        63.42621
218.65        60.73294
219.11         53.7314
219.57        42.53735
220.02        29.89289
220.48        23.40825
220.94          25.791
221.40        35.71102
221.86        48.12396
222.32        55.07213
222.77        54.64236
223.23        49.41795
223.69        43.25678
224.15        41.65097
224.61        44.81635
225.06        49.89155
225.52        54.31429
225.98        56.11993
226.44        55.31394
226.90        52.86368
227.36        49.82805
227.81        47.91776
228.27        47.95949
228.73        49.16597
229.19        50.61547
229.65        51.26114
230.10        51.00808
230.56        50.33761
231.02        49.80575
231.48        50.09975
231.93        51.18767
232.39        52.75103
232.85        54.20148
233.31        54.69169
233.77        54.04539
234.22        52.54543
234.68         50.6871
235.14        49.25378
235.60        48.55528
236.05        48.40823
236.51        48.57572
236.97         48.6496
237.43        48.49784
237.88        48.35297
238.34        48.18147
238.80        48.31315
239.26        48.80626
239.71        49.35892
240.17        49.73497
240.63        50.09496
241.08        50.51984
241.54        51.08641
242.00        51.10019
242.46        49.07471
242.91         44.1188
243.37        34.91009
243.83         22.2867
244.28        15.07411
244.74        21.85205
245.20        40.72858
245.66        58.97935
246.11        65.93867
246.57        60.91393
247.03        44.46998
247.48        20.82649
247.94        13.31074
248.40        25.75912
248.85        42.04398
249.31        53.91748
249.77        59.51267
250.22        60.51995
250.68        58.85314
251.14        55.61443
251.59        52.97129
252.05        52.47726
252.51        53.69225
252.96        55.11879
253.42        54.52793
253.88        51.67836
254.33        47.79789
254.79        45.69593
255.25        47.78116
255.70        53.34336
256.16        60.52341
256.62        66.43337
257.07        67.87494
257.53        65.18262
257.99        59.95491
258.44        54.24659
258.90        51.28901
259.35        50.74035
259.81        51.50855
260.27        52.10188
260.72        51.31836
261.18        49.44929
261.63        46.71527
262.09        44.16353
262.55        42.74196
263.00        42.47623
263.46        43.00881
263.91        43.38937
264.37        42.71391
264.83        40.98875
265.28        38.59626
265.74         36.5188
266.19        35.73023
266.65        36.32835
267.11        37.74122
267.56        39.20972
268.02        39.63527
268.47        38.83156
268.93        37.18652
269.38        35.14795
269.84        33.66656
270.30        33.00765
270.75        32.90952
271.21        33.05801
271.66        32.98701
272.12        32.54681
272.57        31.89022
273.03        31.21371
273.48        30.72074
273.94        30.49438
274.39        30.41203
274.85        30.30875
275.31        29.93785
275.76        29.25493
276.22        28.37778
276.67        27.50643
277.13        27.02548
277.58        26.93717
278.04        27.13295
278.49        27.30967
278.95        27.09046
279.40        26.40022
279.86        25.46354
280.31        24.48191
280.77        23.86262
281.22        23.62045
281.68        23.63478
282.13        23.74172
282.59        23.73293
283.04        23.54419
283.50        23.27847
283.95        22.95038
284.41        22.60568
284.86        22.25137
285.32        21.88218
285.77         21.5501
286.22        21.40337
286.68        21.44159
287.13        21.60137
287.59        21.74682
288.04        21.65802
288.50        21.32167
288.95        20.79426
289.41        20.23042
289.86        19.79968
290.32        19.59794
290.77        19.55671
291.22        19.64469
291.68         19.7809
292.13        19.93687
292.59        20.14268
293.04        20.40089
293.50        20.72289
293.95        21.09942
294.40        21.50791
294.86        21.92574
295.31        22.33641
295.77        22.73965
296.22         23.1475
296.68        23.57478
297.13         24.0176
297.58        24.49313
298.04        25.01381
298.49        25.59406
298.95        26.28947
299.40        27.08724
299.85        27.95768
300.31        28.85228
300.76        29.69965
301.21        30.46981
301.67         31.1948
302.12         31.8462
302.58        32.44142
303.03        32.97118
303.48        33.44778
303.94        33.94252
304.39        34.52668
304.84        35.21405
305.30         35.9693
305.75        36.68159
306.20        37.20149
306.66        37.51881
307.11        37.66855
307.57        37.75354
308.02        37.85661
308.47        38.03117
308.93          38.243
309.38        38.47523
309.83        38.75306
310.29        39.05663
310.74        39.37756
311.19        39.63212
311.65        39.68266
312.10        39.50784
312.55        39.15569
313.00        38.74749
313.46        38.47197
313.91        38.36011
314.36        38.37394
314.82        38.43101
315.27         38.4178
315.72        38.28936
316.18         38.0989
316.63        37.87561
317.08        37.67126
317.53        37.50042
317.99         37.3309
318.44        37.16595
318.89        37.00599
319.35        36.84635
319.80        36.69103
320.25        36.51597
320.70        36.28178
321.16        35.97761
321.61         35.6186
322.06        35.23529
322.51        34.88364
322.97        34.57373
323.42         34.2997
323.87        34.02879
324.32        33.71158
324.78        33.33217
325.23        32.92066
325.68        32.49927
326.13        32.10975
326.59        31.77088
327.04        31.49597
327.49         31.2758
327.94        31.09809
328.39        30.95355
328.85         30.8224
329.30        30.74483
329.75        30.74004
330.20        30.79793
330.66        30.87889
331.11        30.93186
331.56        30.82538
332.01        30.53184
332.46        30.08309
332.92        29.56299
333.37        29.12933
333.82        28.83935
334.27         28.6763
334.72        28.58499
335.17         28.4622
335.63        28.26763
336.08        28.03736
336.53        27.83721
336.98        27.78388
337.43         27.8931
337.88        28.12369
338.34         28.3162
338.79         28.2624
339.24        27.90255
339.69        27.29782
340.14        26.66177
340.59        26.35426
341.05        26.44566
341.50        26.83267
341.95        27.27732
342.40        27.40741
342.85        27.14313
343.30        26.62072
343.75        26.01838
344.20        25.62649
344.66        25.52481
345.11        25.58278
345.56        25.73865
346.01        25.89414
346.46        25.99073
346.91        26.07693
347.36        26.05375
347.81        25.75634
348.26        25.19359
348.72          24.447
349.17        23.70958
349.62        23.38665
350.07        23.56535
350.52        24.10558
350.97        24.78569
351.42        25.26877
351.87        25.44949
352.32        25.41443
352.77        25.21562
353.22        24.94306
353.67        24.64729
354.13        24.31419
354.58         23.9613
355.03        23.66307
355.48        23.44196
355.93        23.30322
356.38        23.23141
356.83        23.18451
357.28        23.13886
357.73        23.08846
358.18        23.02247
358.63        22.92834
359.08        22.80175
359.53        22.64874
359.98        22.45368
360.43        22.19407
360.88        21.87947
361.33        21.52574
361.78        21.20124
362.23        21.01608
362.68        20.98465
363.13        21.06016
363.58        21.15769
364.03        21.14561
364.48        20.98479
364.93        20.71133
365.38        20.35729
365.83        19.98421
366.28        19.63051
366.73        19.28988
367.18        18.98898
367.63         18.7673
368.08        18.62634
368.53        18.55463
368.98        18.52222
369.43        18.47333
369.88        18.39134
370.33        18.29506
370.78        18.17354
371.23        18.01545
371.68        17.82783
372.13        17.60433
372.58        17.41198
373.03         17.3665
373.48        17.47592
373.93        17.69283
374.38        17.89501
374.83        17.89488
375.28        17.65548
375.72        17.23164
376.17         16.7457
376.62         16.3569
377.07        16.12776
377.52         16.0169
377.97        15.99601
378.42        16.01797
378.87        16.05398
379.32        16.11144
379.77        16.17451
380.22        16.21459
380.67         16.2219
381.11         16.1986
381.56        16.12443
382.01        15.99196
382.46        15.80722
382.91        15.57372
383.36        15.34547
383.81        15.20026
384.26        15.15241
384.71        15.19241
385.15        15.24171
385.60         15.1777
386.05        14.98194
386.50        14.69253
386.95        14.42158
387.40        14.34541
387.85        14.48956
388.29        14.78476
388.74         15.0938
389.19        15.22804
389.64        15.14948
390.09        14.91189
390.54        14.62628
390.98        14.46412
391.43          14.482
391.88         14.6144
392.33         14.7539
392.78        14.74738
393.23        14.57809
393.67        14.30024
394.12         14.0427
394.57        13.92999
395.02        13.98551
395.47        14.16386
395.91        14.37992
396.36        14.46825
396.81        14.38994
397.26        14.19337
397.71        13.97524
398.15        13.86553
398.60        13.90892
399.05        14.05203
399.50        14.20862
399.95        14.25796
400.39        14.17434
400.84        13.99194
401.29        13.80129
401.74         13.7632
402.18        13.92045
402.63        14.21139
403.08        14.50303
403.53        14.58867
403.97        14.42917
404.42        14.10041
404.87         13.7475
405.32        13.60703
405.76        13.73112
406.21        14.03875
406.66        14.39261
407.11        14.57891
407.55        14.54486
408.00        14.36153
408.45        14.12022
408.90        13.94416
409.34        13.89798
409.79         13.9996
410.24         14.1742
410.68        14.25296
411.13        14.21347
411.58        14.14209
412.03        14.06582
412.47        14.00667
412.92        13.97856
413.37        13.96379
413.81        13.98106
414.26        14.07534
414.71         14.2395
415.15        14.46866
415.60        14.67384
416.05        14.73174
416.49        14.61436
416.94        14.36536
417.39        14.08221
417.83        13.92506
418.28        13.94145
418.73        14.07788
419.17        14.26155
419.62        14.36469
420.07        14.35914
420.51        14.28835
420.96        14.19709
421.41        14.13562
421.85        14.11647
422.30        14.12724
422.74         14.1603
423.19        14.23423
423.64        14.33819
424.08        14.47728
424.53        14.60407
424.98        14.65812
425.42        14.62749
425.87        14.53332
426.31        14.40975
426.76        14.32004
427.21        14.27411
427.65        14.24912
428.10        14.26008
428.54        14.30616
428.99        14.38332
429.44        14.55536
429.88        14.73226
430.33        14.67281
430.77        14.42634
431.22        14.28438
431.66         14.2986
432.11        14.38519
432.56        14.52672
433.00        14.78988
433.45        15.01541
433.89        14.94993
434.34        14.68559
434.78        14.41627
435.23        14.16462
435.67        14.77206
436.12        14.41957
436.57        14.43617
437.01        14.32485
437.46        14.32475
437.90        14.43781
438.35        14.54317
438.79        14.59932
439.24        14.61491
439.68        14.58314
440.13         14.3855
440.57        14.12905
441.02        14.21063
441.46        14.50371
441.91        14.55618
442.35        14.01423
442.80        13.83687
443.24        13.87878
443.69        13.84229
444.13         13.7211
444.58        13.66362
445.02        13.68007
445.47        13.76416
445.91        13.87513
446.36        13.91661
446.80         13.8678
447.24        13.77372
447.69         13.6743
448.13        13.59925
448.58        13.56839
449.02        13.57016
449.47        13.58267
449.91        13.56526
450.36        13.51449
450.80        13.44105
451.25        13.38034
451.69        13.37012
452.13        13.42061
452.58        13.50894
453.02        13.60318
453.47        13.65384
453.91        13.65019
454.36         13.6056
454.80        13.53779
455.24        13.47811
455.69        13.44356
456.13        13.40997
456.58        13.38787
457.02        13.38485
457.46        13.39953
457.91         13.4034
458.35        13.39177
458.79        13.38734
459.24        13.38754
459.68        13.38386
460.13        13.42461
460.57        13.45471
461.01        13.46045
461.46         13.8034
461.90        13.92339
462.34        13.78781
462.79        13.85093
463.23        13.65896
463.68        13.47129
464.12        13.34892
464.56        13.42528
465.01        13.57922
465.45        13.74396
465.89        13.83548
466.34        13.83999
466.78        13.74154
467.22        13.60476
467.67        13.63054
468.11        13.79767
468.55        13.82104
468.99        13.71182
469.44        13.71422
469.88        13.83404
470.32        13.93274
470.77        13.97634
471.21        13.98357
471.65        13.94963
472.10        13.87192
472.54        13.78777
472.98        13.79032
473.42        13.89151
473.87        14.02243
474.31        14.14334
474.75        14.27764
475.20        14.38282
475.64         14.3236
476.08        14.16729
476.52        14.14292
476.97        14.26984
477.41         14.4453
477.85        14.61254
478.29        14.72241
478.74        14.75572
479.18        14.70349
479.62        14.62768
480.06         14.6295
480.50         14.7105
480.95        14.77283
481.39        14.79348
481.83        14.80903
482.27        14.81834
482.72        14.81071
483.16        14.80552
483.60        14.84274
484.04        14.92949
484.48        15.08557
484.93        15.34084
485.37        15.47547
485.81        15.58461
486.25        15.89158
486.69        16.35157
487.14        15.73522
487.58        15.81664
488.02        16.53447
488.46        16.16386
488.90        16.18398
489.34        15.98667
489.79        16.17979
490.23        16.65426
490.67        16.89126
491.11        16.85436
491.55        16.74336
491.99        16.62273
492.43        16.55449
492.88        16.57471
493.32        16.62253
493.76        16.70893
494.20        16.88346
494.64        17.14136
495.08        17.46178
495.52        17.78888
495.96        18.04176
496.41        18.20655
496.85        18.28625
497.29        18.32542
497.73        18.46858
498.17         18.7063
498.61        18.84238
499.05        18.87951
499.49        19.00758
499.93        19.23371
500.37         19.4012
500.82        19.51283
501.26        19.73257
501.70        20.01172
502.14         20.0796
502.58        19.96918
503.02        19.96333
503.46        20.08132
503.90        20.17366
504.34        20.21473
504.78        20.22988
505.22         20.2166
505.66        20.17997
506.10        20.14319
506.54        20.13892
506.98        20.17975
507.42        20.25961
507.86        20.37477
508.30        20.51738
508.74        20.67491
509.18        20.83776
509.62        20.99249
510.06        21.11873
510.50        21.21137
510.94         21.2809
511.38        21.31387
511.82        21.29218
512.26        21.22191
512.70        21.10903
513.14         21.0162
513.58        21.03717
514.02        21.17863
514.46        21.41473
514.90        21.65566
515.34        21.69602
515.78        21.53613
516.22        21.29857
516.66        21.10217
517.10        20.79256
517.54        20.40619
517.98        21.04383
518.42        20.99726
518.86        21.28329
519.30        21.37148
519.74        21.44457
520.18        21.48855
520.62        21.45865
521.06        21.37594
521.50        21.23319
521.93        21.07228
522.37        20.97276
522.81         20.9522
523.25        20.99605
523.69        21.06383
524.13        21.08868
524.57        21.05225
525.01         20.9696
525.45        20.87725
525.89        20.83327
526.32        20.84874
526.76        20.90725
527.20         20.9575
527.64        20.92329
528.08        20.79092
528.52        20.58468
528.96          20.374
529.40        20.26304
529.83        20.27117
530.27        20.37079
530.71        20.48061
531.15        20.47352
531.59         20.3256
532.03        20.08128
532.46        19.82561
532.90        19.70765
533.34        19.75077
533.78        19.90185
534.22        20.08114
534.66        20.16772
535.09         20.1268
535.53        20.00584
535.97         19.8484
536.41        19.71905
536.85        19.64286
537.28        19.60984
537.72        19.61729
538.16        19.60167
538.60        19.65197
539.04        19.68922
539.47        19.73255
539.91        19.81674
540.35        19.95222
540.79        19.95761
541.22        20.08298
541.66        20.17527
542.10        20.32578
542.54        20.21106
542.97        20.37771
543.41        20.46798
543.85        20.63074
544.29        20.80643
544.72        20.96021
545.16        21.09952
545.60        21.21269
546.04        21.23543
546.47        21.23753
546.91        21.46396
547.35        21.86337
547.79         22.1474
548.22        22.27508
548.66        22.33801
549.10        22.37697
549.53        22.54072
549.97        22.83989
550.41        22.88045
550.84        23.08529
551.28        23.22086
551.72        23.43419
552.15         23.6795
552.59        23.95289
553.03        24.24983
553.46        24.51507
553.90        24.69092
554.34        24.76574
554.77         24.7593
555.21        24.72475
555.65         24.7354
556.08        24.80902
556.52        24.92466
556.96         25.0571
557.39         25.1968
557.83        25.32489
558.27        25.38905
558.70        25.40593
559.14        25.45123
559.57        25.52306
560.01        25.61048
560.45        25.69394
560.88        25.70507
561.32        25.69226
561.75        25.75224
562.19         25.9639
562.63        26.02883
563.06        25.99096
563.50        26.04607
563.93        26.18663
564.37        26.34827
564.80        26.40485
565.24        26.52885
565.68        26.66322
566.11        26.77131
566.55        26.87377
566.98        26.95144
567.42        26.99441
567.85         27.3067
568.29        27.18755
568.72        27.48382
569.16        27.90652
569.60        28.18447
570.03        28.27416
570.47        28.35238
570.90        28.31833
571.34        28.67643
571.77        28.50953
572.21        28.96424
572.64        29.03827
573.08        29.28225
573.51        29.42366
573.95        29.77725
574.38        29.98401
574.82        30.19851
