SpectraSmart Spectrum 2.9.0.0
--------- Device Information -----------
Spectrum Name :  反射率_0
Saving Time :  2024/04/20 01:00:43
Spectro-Module Model Name : SE2030-DUVN
Spectro-Module Serial Number : OS361AC55029948
Wavelength Start : 200
Wavelength End : 1025
Wavelength Unit : Wavelength(nm)
Spectrum Unit : Reflectance(%)
-----------Spectrum Setting ------------
Integration Time : 30ms
Average : 10
Boxcar : 0
Background removal :  enabled
linearity correction :  enabled
SC :  disabled
Intensity correction :  disabled
DWT denoise :  enabled
savitzky-golay :  disabled
FFT :  disabled
Running average :  disabled
Kalman :  disabled
High pass :  disabled
---------------BEGIN--------------------
Wavelength(nm)             Reflectance(%)
200.29               0
200.75        58.84989
201.21         58.4212
201.67        60.32032
202.13        65.11057
202.58        72.83054
203.04         83.9762
203.50        95.00224
203.96        97.09047
204.42        90.00291
204.88        79.36364
205.34        70.07372
205.80        64.32901
206.26        61.15026
206.72        59.18876
207.18        58.44057
207.64        59.39198
208.10        62.05599
208.55        66.28478
209.01        69.58978
209.47        70.92253
209.93         70.5579
210.39        68.78461
210.85        66.47596
211.31        64.61212
211.77        63.19582
212.23        61.95225
212.69        60.46573
213.14        58.51058
213.60        56.49154
214.06         55.5383
214.52        55.65641
214.98        56.80167
215.44        58.80199
215.90        61.31894
216.36        64.42915
216.81        67.72527
217.27        70.33618
217.73        72.32937
218.19        72.41769
218.65        68.79129
219.11        61.25026
219.57        49.81096
220.02        36.94476
220.48        29.67403
220.94        30.59354
221.40        38.66506
221.86        49.40228
222.32        55.57378
222.77        55.38733
223.23        51.12677
223.69        46.17982
224.15        45.37558
224.61        48.75339
225.06        53.63707
225.52        57.74786
225.98        59.35652
226.44        58.48469
226.90        56.03661
227.36        52.85934
227.81        50.36031
228.27        49.40778
228.73        49.41452
229.19        49.89455
229.65        50.26892
230.10         50.3776
230.56        50.45555
231.02        50.61975
231.48        51.01785
231.93        51.59519
232.39        52.24973
232.85        52.76591
233.31        52.86839
233.77        52.51968
234.22         51.8439
234.68        51.04532
235.14        50.37864
235.60        50.00229
236.05        49.90064
236.51        50.13527
236.97         50.8058
237.43        52.00991
237.88         54.0246
238.34        56.72538
238.80         59.6296
239.26        61.95813
239.71        63.34351
240.17        63.66288
240.63        63.65499
241.08        63.69979
241.54        63.64592
242.00        63.16789
242.46        61.45227
242.91        57.99818
243.37        52.07539
243.83        44.44867
244.28        40.96606
244.74        46.84194
245.20        60.35683
245.66        72.94103
246.11        77.91682
246.57        74.89902
247.03         64.2751
247.48        48.20681
247.94        41.50301
248.40        47.63911
248.85        56.77303
249.31        63.78334
249.77        67.41055
250.22        68.56075
250.68        68.50387
251.14        67.58827
251.59        66.22305
252.05        65.02746
252.51        63.98196
252.96        63.12145
253.42        62.85956
253.88        63.31271
254.33        64.28326
254.79        66.52745
255.25         70.4931
255.70         75.5936
256.16        80.99921
256.62        85.27115
257.07        86.81593
257.53        85.95463
257.99        83.45126
258.44        79.97031
258.90        77.27413
259.35        75.33755
259.81        74.40018
260.27        73.77769
260.72        72.92026
261.18        72.06063
261.63        70.84908
262.09         69.9708
262.55        69.75101
263.00        70.00446
263.46        70.67026
263.91        70.86376
264.37        69.94281
264.83        67.92775
265.28        65.14555
265.74        62.62613
266.19        61.27483
266.65        61.28383
267.11        62.10736
267.56        63.05912
268.02        63.18335
268.47         62.2678
268.93        60.65234
269.38        58.68681
269.84        57.16397
270.30        56.29283
270.75        55.83772
271.21        55.53053
271.66         54.9472
272.12        53.97728
272.57        52.76849
273.03        51.53348
273.48        50.48124
273.94        49.73894
274.39         49.1839
274.85         48.7207
275.31        48.15229
275.76        47.40318
276.22        46.55304
276.67        45.69497
277.13        45.10517
277.58        44.74155
278.04        44.56885
278.49        44.28996
278.95        43.59465
279.40        42.41842
279.86        41.00058
280.31        39.58834
280.77        38.70096
281.22        38.33279
281.68        38.34987
282.13        38.46486
282.59        38.31582
283.04        37.80666
283.50        37.11947
283.95        36.37265
284.41        35.79632
284.86        35.41534
285.32         35.1697
285.77        35.01852
286.22         34.9869
286.68         35.0473
287.13        35.16633
287.59        35.25438
288.04        35.12672
288.50        34.79009
288.95        34.26241
289.41         33.7047
289.86        33.28739
290.32        33.10954
290.77        33.10829
291.22          33.221
291.68        33.31432
292.13        33.35703
292.59        33.41468
293.04        33.56319
293.50        33.94068
293.95        34.55174
294.40        35.33049
294.86        36.17236
295.31        36.92915
295.77         37.5601
296.22        38.10387
296.68        38.60923
297.13        39.13738
297.58        39.71712
298.04        40.32843
298.49        40.95742
298.95        41.63114
299.40        42.32632
299.85        43.03891
300.31        43.74028
300.76        44.36756
301.21        44.91209
301.67        45.42143
302.12        45.87369
302.58        46.31874
303.03        46.74173
303.48        47.15593
303.94        47.62558
304.39        48.19737
304.84        48.87843
305.30        49.63243
305.75        50.33722
306.20        50.84207
306.66        51.13676
307.11        51.24561
307.57        51.27331
308.02        51.28868
308.47        51.35109
308.93        51.43494
309.38        51.53181
309.83        51.69242
310.29        51.90704
310.74         52.1625
311.19        52.36517
311.65         52.3576
312.10        52.11108
312.55        51.67982
313.00        51.20889
313.46         50.9218
313.91        50.85289
314.36        50.95551
314.82         51.1039
315.27        51.11991
315.72        50.94196
316.18        50.64265
316.63        50.30398
317.08        50.06849
317.53        49.96626
317.99        49.93676
318.44        49.91688
318.89        49.79402
319.35         49.5396
319.80        49.19928
320.25        48.82244
320.70        48.48814
321.16        48.21441
321.61        47.97873
322.06        47.75723
322.51        47.51875
322.97        47.24084
323.42        46.94732
323.87        46.62417
324.32        46.25235
324.78        45.83121
325.23        45.39286
325.68        44.95709
326.13        44.56944
326.59        44.24656
327.04        43.99849
327.49         43.8335
327.94        43.77073
328.39        43.79457
328.85        43.86481
329.30        43.95335
329.75        43.93999
330.20        43.79008
330.66        43.51213
331.11        43.16993
331.56        42.80817
332.01        42.45298
332.46         42.0923
332.92        41.74911
333.37         41.4835
333.82        41.30662
334.27        41.23578
334.72        41.21685
335.17        41.14733
335.63        40.98969
336.08        40.77206
336.53        40.58471
336.98        40.60492
337.43        40.85546
337.88        41.27489
338.34         41.6572
338.79        41.71948
339.24        41.38258
339.69        40.73789
340.14        40.02209
340.59        39.63582
341.05        39.67402
341.50        40.02094
341.95        40.46288
342.40        40.66626
342.85        40.54778
343.30        40.22801
343.75        39.82721
344.20        39.53821
344.66        39.41836
345.11        39.36778
345.56        39.37114
346.01        39.40963
346.46        39.45182
346.91        39.52292
347.36        39.51879
347.81        39.26374
348.26        38.75804
348.72        38.09077
349.17        37.42979
349.62        37.13091
350.07        37.26968
350.52           37.71
350.97        38.27647
351.42        38.70672
351.87        38.90524
352.32        38.93717
352.77        38.79333
353.22        38.46452
353.67         37.9903
354.13        37.40396
354.58        36.79536
355.03        36.35578
355.48        36.13577
355.93        36.09961
356.38        36.18731
356.83        36.28688
357.28        36.34615
357.73        36.37714
358.18        36.35971
358.63         36.2677
359.08        36.09811
359.53         35.8535
359.98         35.5496
360.43        35.21683
360.88        34.87439
361.33        34.52713
361.78        34.20931
362.23        33.97264
362.68         33.8217
363.13         33.7331
363.58        33.65722
364.03        33.51399
364.48        33.27506
364.93        32.95659
365.38        32.56846
365.83        32.13815
366.28        31.69197
366.73        31.23524
367.18        30.80212
367.63         30.4413
368.08        30.16301
368.53        29.95943
368.98        29.80208
369.43        29.63743
369.88        29.44839
370.33        29.24838
370.78        29.04146
371.23         28.8406
371.68        28.65383
372.13        28.46961
372.58        28.30863
373.03        28.21034
373.48        28.17234
373.93        28.17416
374.38        28.16419
374.83        28.06132
375.28        27.84785
375.72        27.54222
376.17        27.20164
376.62        26.88003
377.07        26.60926
377.52        26.37941
377.97        26.20349
378.42        26.09917
378.87         26.0568
379.32        26.06272
379.77        26.08025
380.22        26.05008
380.67         25.9559
381.11        25.81688
381.56        25.62757
382.01        25.40722
382.46         25.1703
382.91        24.90915
383.36        24.66744
383.81        24.50822
384.26        24.43785
384.71         24.4494
385.15         24.4579
385.60        24.33715
386.05        24.06776
386.50          23.691
386.95        23.32907
387.40        23.17586
387.85        23.26365
388.29         23.5159
388.74        23.79877
389.19        23.90922
389.64        23.80324
390.09        23.53205
390.54        23.20933
390.98        23.00906
391.43        22.99327
391.88        23.09508
392.33        23.19358
392.78        23.11651
393.23        22.85104
393.67         22.4577
394.12        22.10437
394.57        21.94427
395.02         22.0048
395.47         22.2282
395.91        22.50628
396.36        22.62398
396.81        22.53009
397.26        22.28409
397.71        22.00224
398.15        21.84061
398.60        21.85746
399.05        21.98306
399.50         22.1174
399.95        22.11925
400.39        21.95975
400.84        21.68142
401.29         21.3836
401.74        21.24515
402.18        21.31945
402.63        21.54004
403.08        21.77975
403.53         21.8363
403.97        21.66718
404.42        21.34997
404.87        21.01015
405.32        20.85254
405.76        20.92416
406.21        21.15454
406.66        21.43191
407.11        21.58413
407.55        21.56583
408.00        21.43287
408.45        21.25411
408.90        21.09309
409.34        21.00853
409.79        21.07778
410.24        21.21717
410.68        21.21211
411.13        21.04705
411.58         20.8277
412.03        20.62865
412.47        20.54595
412.92        20.60474
413.37        20.76506
413.81        20.96826
414.26        21.14127
414.71        21.24934
415.15        21.31869
415.60        21.32797
416.05        21.27637
416.49        21.17004
416.94        21.01469
417.39        20.84455
417.83        20.71742
418.28        20.65692
418.73        20.64713
419.17        20.66863
419.62        20.67672
420.07        20.66108
420.51         20.6318
420.96        20.59897
421.41        20.55677
421.85         20.5013
422.30        20.44753
422.74        20.40105
423.19        20.40361
423.64        20.45157
424.08        20.54492
424.53        20.63866
424.98        20.68757
425.42        20.68204
425.87        20.63738
426.31        20.57361
426.76        20.53079
427.21        20.50839
427.65        20.48544
428.10        20.47987
428.54         20.4938
428.99        20.53163
429.44        20.68633
429.88        20.85363
430.33        20.73162
430.77        20.39282
431.22        20.24018
431.66        20.32078
432.11        20.47104
432.56        20.65461
433.00        20.97154
433.45        21.21624
433.89        21.09479
434.34        20.75485
434.78        20.40438
435.23        20.03586
435.67        21.00335
436.12        20.36956
436.57        20.32045
437.01         20.0699
437.46        19.99537
437.90        20.11138
438.35        20.24278
438.79        20.33799
439.24        20.40598
439.68        20.43228
440.13        20.24828
440.57        19.98054
441.02        20.15847
441.46         20.5964
441.91        20.65658
442.35        19.85891
442.80        19.59109
443.24        19.65564
443.69        19.62069
444.13        19.46795
444.58        19.38715
445.02        19.39025
445.47        19.47586
445.91        19.59795
446.36        19.63627
446.80        19.56651
447.24         19.4471
447.69        19.32352
448.13        19.22543
448.58        19.17535
449.02        19.15967
449.47        19.15652
449.91         19.1229
450.36        19.05708
450.80        18.97289
451.25        18.90412
451.69        18.88113
452.13        18.91547
452.58        18.98511
453.02        19.06959
453.47         19.1425
453.91         19.1928
454.36        19.22382
454.80        19.22776
455.24        19.19109
455.69        19.12378
456.13        19.01407
456.58        18.90173
457.02        18.83507
457.46        18.82156
457.91        18.80612
458.35        18.78138
458.79        18.78372
459.24        18.80374
459.68        18.83468
460.13        18.91458
460.57        18.92229
461.01        18.83426
461.46        19.17361
461.90        19.20403
462.34        18.96448
462.79        19.09298
463.23        18.94107
463.68        18.81487
464.12        18.71364
464.56        18.79805
465.01        18.93074
465.45        19.05403
465.89         19.1024
466.34        19.06852
466.78        18.91093
467.22        18.71128
467.67        18.73456
468.11        18.94804
468.55        18.97092
468.99        18.81106
469.44        18.78868
469.88        18.90978
470.32        18.98432
470.77        18.99337
471.21        19.00396
471.65        19.01485
472.10        19.00646
472.54        18.98548
472.98        19.00376
473.42         19.0637
473.87        19.09771
474.31        19.10271
474.75        19.19005
475.20        19.31801
475.64        19.27809
476.08        19.12196
476.52        19.09831
476.97        19.21933
477.41        19.36855
477.85        19.48985
478.29        19.54998
478.74        19.53633
479.18        19.42548
479.62        19.30213
480.06        19.30321
480.50        19.42696
480.95        19.54679
481.39        19.61066
481.83        19.62794
482.27        19.59175
482.72        19.50374
483.16        19.41694
483.60        19.40276
484.04        19.46468
484.48        19.67415
484.93        20.05256
485.37        20.11591
485.81        20.07837
486.25        20.65018
486.69        21.60226
487.14        20.80976
487.58        20.15452
488.02        21.04396
488.46        20.70351
488.90        20.95576
489.34        20.68952
489.79        20.73362
490.23        21.02996
490.67        21.19847
491.11        21.23288
491.55        21.19131
491.99        21.11102
492.43        21.08094
492.88        21.12392
493.32          21.167
493.76        21.22897
494.20        21.36764
494.64        21.58192
495.08        21.88052
495.52        22.20455
495.96        22.39414
496.41        22.47252
496.85        22.60758
497.29        22.80297
497.73        23.00897
498.17        23.19075
498.61        23.21864
499.05        23.14195
499.49        23.22223
499.93        23.48585
500.37        23.73012
500.82        23.92836
501.26        24.23407
501.70          24.574
502.14        24.62871
502.58        24.45438
503.02        24.42134
503.46         24.5607
503.90        24.68179
504.34        24.74373
504.78        24.76509
505.22        24.73827
505.66        24.67046
506.10        24.60367
506.54        24.59877
506.98        24.67286
507.42        24.81228
507.86        24.98285
508.30        25.12755
508.74        25.22593
509.18        25.28578
509.62        25.33467
510.06        25.41699
510.50        25.54266
510.94        25.70196
511.38        25.84438
511.82        25.89048
512.26        25.82779
512.70        25.67991
513.14        25.53427
513.58        25.52382
514.02        25.66619
514.46        25.92245
514.90        26.18798
515.34        26.22935
515.78        26.05475
516.22        25.78432
516.66        25.54944
517.10         25.2257
517.54        24.85454
517.98         25.4647
518.42         25.4432
518.86        25.75111
519.30        25.88149
519.74        26.00364
520.18        26.08477
520.62        26.05127
521.06        25.91989
521.50        25.69717
521.93        25.44519
522.37        25.27779
522.81        25.22364
523.25         25.2559
523.69        25.33389
524.13        25.38845
524.57        25.39562
525.01        25.37404
525.45        25.33342
525.89        25.28831
526.32        25.24487
526.76        25.19798
527.20        25.14359
527.64         25.0834
528.08        25.01707
528.52        24.94165
528.96        24.87172
529.40        24.82627
529.83        24.80478
530.27        24.80873
530.71        24.79684
531.15        24.70654
531.59        24.53385
532.03        24.30316
532.46        24.07777
532.90        23.97552
533.34        24.00834
533.78        24.13348
534.22        24.28278
534.66        24.35033
535.09        24.30465
535.53        24.19002
535.97        24.03463
536.41        23.88017
536.85        23.75005
537.28        23.64513
537.72        23.59168
538.16        23.55949
538.60        23.66284
539.04        23.78804
539.47        23.92312
539.91        24.05799
540.35        24.19366
540.79        24.12886
541.22        24.19183
541.66        24.23766
542.10        24.38789
542.54        24.24129
542.97        24.44399
543.41         24.5514
543.85        24.73601
544.29        24.93225
544.72        25.09689
545.16        25.23486
545.60        25.33222
546.04        25.31283
546.47        25.26616
546.91        25.49321
547.35        25.93679
547.79        26.25606
548.22        26.39838
548.66        26.46206
549.10        26.49346
549.53        26.67617
549.97        27.02377
550.41        27.06586
550.84         27.3018
551.28        27.45914
551.72        27.69763
552.15        27.93804
552.59        28.17702
553.03        28.42152
553.46        28.63536
553.90        28.79413
554.34        28.89093
554.77        28.93474
555.21        28.96194
555.65        29.01727
556.08        29.10966
556.52        29.22569
556.96        29.34906
557.39        29.49007
557.83        29.63214
558.27        29.70387
558.70        29.72145
559.14        29.77105
559.57        29.85008
560.01        29.95076
560.45         30.0437
560.88        30.04516
561.32        30.01249
561.75        30.03786
562.19        30.23273
562.63         30.3321
563.06        30.36486
563.50         30.4347
563.93        30.53485
564.37        30.69356
564.80        30.76838
565.24        30.89637
565.68        31.01199
566.11        31.12794
566.55        31.26752
566.98        31.33182
567.42        31.32626
567.85        31.74526
568.29        31.72614
568.72        32.03412
569.16        32.37885
569.60        32.63114
570.03        32.74959
570.47        32.92463
570.90        33.00872
571.34        33.16345
571.77        33.09098
572.21        33.36525
572.64        33.56226
573.08        33.90373
573.51        33.99343
573.95        34.46919
574.38        34.84901
574.82        34.94186
