SpectraSmart Spectrum 2.9.0.0
--------- Device Information -----------
Spectrum Name :  反射率_0
Saving Time :  2024/04/19 23:50:36
Spectro-Module Model Name : SE2030-DUVN
Spectro-Module Serial Number : OS361AC55029948
Wavelength Start : 200
Wavelength End : 1025
Wavelength Unit : Wavelength(nm)
Spectrum Unit : Reflectance(%)
-----------Spectrum Setting ------------
Integration Time : 30ms
Average : 10
Boxcar : 0
Background removal :  enabled
linearity correction :  enabled
SC :  disabled
Intensity correction :  disabled
DWT denoise :  enabled
savitzky-golay :  disabled
FFT :  disabled
Running average :  disabled
Kalman :  disabled
High pass :  disabled
---------------BEGIN--------------------
Wavelength(nm)             Reflectance(%)
200.29               0
200.75        71.93678
201.21        73.59425
201.67        77.69251
202.13        84.08318
202.58        92.35091
203.04        102.6217
203.50         111.381
203.96        110.9583
204.42        102.2378
204.88        90.85227
205.34         81.4491
205.80        75.97659
206.26        73.35416
206.72        72.27891
207.18        72.94193
207.64        75.50355
208.10        79.11421
208.55        83.59506
209.01        85.90336
209.47        84.52164
209.93        80.34476
210.39         74.3181
210.85        68.77834
211.31        66.35056
211.77        67.29456
212.23        71.32352
212.69        77.41817
213.14        80.67431
213.60         78.5259
214.06        74.50893
214.52        71.34965
214.98        70.66556
215.44        72.18824
215.90        74.97623
216.36        79.04847
216.81        83.83112
217.27        88.17895
217.73        92.29182
218.19        94.78949
218.65        93.85294
219.11        89.47058
219.57        81.68382
220.02        72.99299
220.48        70.11616
220.94        75.20284
221.40        86.76772
221.86        100.1591
222.32        108.2376
222.77        109.1718
223.23        105.3548
223.69        99.75413
224.15         96.7097
224.61        97.04064
225.06        98.93672
225.52        101.1103
225.98        102.3421
226.44        102.5758
226.90        102.2914
227.36        102.1977
227.81        103.1778
228.27        105.4191
228.73        108.1188
229.19        110.0984
229.65        110.0769
230.10        108.1721
230.56        105.4411
231.02        102.7972
231.48        101.4823
231.93        101.4961
232.39        102.3373
232.85        103.4395
233.31        104.0564
233.77        103.9199
234.22        103.3278
234.68        102.1618
235.14        100.1655
235.60        97.51999
236.05        94.41399
236.51        91.49016
236.97        89.64624
237.43        89.05377
237.88        89.80832
238.34        91.36077
238.80        92.76817
239.26         93.1291
239.71        92.58267
240.17        90.94849
240.63        88.61903
241.08        85.89976
241.54        82.67332
242.00        79.11721
242.46        75.29742
242.91        71.00925
243.37        65.31896
243.83        58.94162
244.28        56.77379
244.74         62.7453
245.20        75.27644
245.66        86.29305
246.11        89.49944
246.57        84.23892
247.03        70.10271
247.48        49.57166
247.94        40.61517
248.40        47.76935
248.85         59.1546
249.31        67.81921
249.77        71.62979
250.22        71.72258
250.68        69.52729
251.14        66.19566
251.59        64.24387
252.05        65.24572
252.51        68.72661
252.96        72.61952
253.42        73.52816
253.88        71.05162
254.33        66.96541
254.79        64.63529
255.25        67.05582
255.70        73.58019
256.16        82.00961
256.62        89.78625
257.07        94.14177
257.53        95.16304
257.99        94.03156
258.44        91.31268
258.90        88.67441
259.35        86.30069
259.81        84.76891
260.27        83.69922
260.72        82.81683
261.18        82.35526
261.63        81.78093
262.09        81.64248
262.55        81.99712
263.00        82.57401
263.46        83.43418
263.91        83.73124
264.37        82.96239
264.83        81.14024
265.28        78.53835
265.74        76.17107
266.19        74.85809
266.65        74.82101
267.11        75.53329
267.56        76.36977
268.02        76.48209
268.47        75.66866
268.93        74.27281
269.38        72.56753
269.84         71.2087
270.30        70.37938
270.75        69.86797
271.21        69.55164
271.66        69.21803
272.12        68.77022
272.57        68.23949
273.03          67.627
273.48         66.7971
273.94         65.8349
274.39        64.75865
274.85        63.66661
275.31        62.59931
275.76        61.55113
276.22        60.53512
276.67        59.63074
277.13        59.13159
277.58        58.93411
278.04        58.99633
278.49        58.88595
278.95         58.1335
279.40        56.64581
279.86        54.76517
280.31        52.82098
280.77        51.49626
281.22        50.81288
281.68        50.60174
282.13        50.57133
282.59        50.38556
283.04        49.90656
283.50        49.30215
283.95        48.58801
284.41        47.87012
284.86        47.14095
285.32        46.39735
285.77        45.66048
286.22         45.0752
286.68        44.66999
287.13        44.38549
287.59        44.13563
288.04        43.71028
288.50        43.10467
288.95        42.32687
289.41        41.53368
289.86        40.88006
290.32         40.4566
290.77        40.19094
291.22        39.98808
291.68        39.66991
292.13        39.20131
292.59        38.67313
293.04        38.21727
293.50         38.0654
293.95        38.24158
294.40        38.65305
294.86        39.14961
295.31        39.50734
295.77        39.66094
296.22        39.66944
296.68        39.60436
297.13         39.5661
297.58         39.6036
298.04        39.69354
298.49        39.81553
298.95        39.98445
299.40        40.17634
299.85        40.39244
300.31         40.6285
300.76        40.85874
301.21        41.07235
301.67        41.29654
302.12        41.45955
302.58         41.5299
303.03        41.48438
303.48        41.36222
303.94         41.2807
304.39        41.37609
304.84        41.67553
305.30        42.11384
305.75        42.54134
306.20        42.75665
306.66        42.73491
307.11        42.52803
307.57        42.24621
308.02        41.97467
308.47         41.7771
308.93        41.61982
309.38        41.50658
309.83        41.49947
310.29        41.58368
310.74        41.73902
311.19        41.85727
311.65        41.75969
312.10        41.41467
312.55        40.88451
313.00        40.30436
313.46        39.88377
313.91        39.65984
314.36        39.58531
314.82        39.57737
315.27        39.52547
315.72         39.3798
316.18        39.18835
316.63        38.96799
317.08        38.75188
317.53        38.54945
317.99        38.33443
318.44        38.11092
318.89        37.88268
319.35        37.65208
319.80        37.42595
320.25        37.20008
320.70        36.96487
321.16        36.71537
321.61        36.46073
322.06        36.20501
322.51        35.95978
322.97        35.71944
323.42        35.48212
323.87        35.23851
324.32        34.98083
324.78        34.70197
325.23        34.42274
325.68        34.12601
326.13        33.78842
326.59        33.41819
327.04        33.05278
327.49        32.74543
327.94          32.585
328.39        32.58554
328.85        32.69505
329.30        32.89106
329.75        33.07724
330.20        33.20198
330.66        33.25495
331.11        33.22668
331.56        33.05365
332.01        32.73676
332.46        32.29452
332.92        31.80047
333.37        31.39802
333.82        31.14091
334.27        31.02372
334.72        31.01239
335.17        31.03204
335.63        31.04074
336.08        31.05754
336.53        31.10123
336.98        31.21766
337.43        31.40414
337.88        31.63916
338.34        31.80303
338.79        31.75674
339.24        31.46441
339.69        30.97222
340.14        30.47897
340.59        30.31462
341.05        30.53703
341.50        31.05203
341.95        31.62141
342.40        31.87424
342.85         31.7288
343.30        31.30968
343.75        30.79583
344.20        30.48227
344.66        30.44802
345.11        30.56734
345.56        30.75891
346.01        30.89242
346.46        30.91274
346.91        30.88496
347.36        30.76274
347.81        30.45953
348.26        29.99696
348.72        29.43084
349.17        28.89718
349.62        28.70189
350.07        28.90308
350.52        29.38906
350.97        29.98132
351.42        30.41073
351.87        30.58962
352.32        30.58119
352.77        30.41857
353.22        30.16215
353.67        29.85681
354.13        29.50969
354.58         29.1433
355.03        28.83834
355.48        28.62208
355.93         28.4924
356.38        28.45109
356.83        28.48573
357.28         28.5712
357.73        28.68931
358.18        28.78267
358.63        28.76204
359.08        28.60674
359.53        28.34697
359.98        28.01906
360.43        27.68126
360.88         27.3635
361.33        27.05859
361.78        26.80279
362.23        26.65298
362.68         26.6085
363.13        26.64237
363.58        26.68858
364.03         26.6418
364.48        26.47042
364.93        26.19954
365.38        25.85176
365.83        25.47629
366.28        25.10679
366.73        24.74128
367.18        24.41305
367.63        24.16998
368.08        24.01674
368.53        23.94224
368.98        23.90834
369.43        23.84622
369.88        23.73904
370.33        23.60998
370.78        23.46658
371.23        23.32886
371.68        23.20705
372.13        23.07948
372.58         22.9856
373.03        22.99517
373.48        23.10343
373.93        23.28051
374.38        23.41593
374.83        23.34053
375.28        23.02833
375.72        22.52826
376.17        21.98422
376.62         21.5909
377.07        21.41188
377.52        21.39335
377.97        21.46404
378.42        21.50808
378.87        21.48552
379.32        21.42963
379.77        21.36367
380.22        21.31815
380.67        21.29979
381.11        21.29294
381.56        21.26299
382.01        21.18068
382.46        21.03884
382.91        20.84475
383.36        20.64583
383.81        20.50879
384.26        20.44716
384.71        20.45471
385.15        20.45524
385.60        20.33632
386.05        20.08352
386.50        19.73288
386.95        19.41019
387.40        19.31269
387.85        19.46532
388.29        19.78754
388.74        20.11949
389.19        20.22832
389.64         20.0704
390.09        19.71465
390.54        19.29969
390.98        19.04202
391.43         19.0145
391.88        19.13504
392.33        19.28215
392.78        19.28159
393.23        19.10889
393.67        18.82263
394.12         18.5551
394.57        18.42075
395.02        18.44345
395.47        18.57734
395.91        18.74882
396.36        18.81148
396.81         18.7329
397.26        18.55339
397.71         18.3571
398.15        18.25259
398.60        18.28351
399.05        18.40035
399.50        18.51988
399.95        18.52435
400.39        18.39066
400.84        18.15116
401.29        17.89933
401.74        17.80511
402.18        17.91423
402.63        18.16083
403.08        18.41326
403.53        18.46309
403.97        18.26896
404.42        17.91225
404.87         17.5236
405.32        17.31642
405.76        17.34427
406.21        17.53698
406.66        17.79151
407.11        17.94726
407.55        17.96036
408.00        17.88449
408.45        17.77339
408.90        17.67216
409.34        17.62464
409.79         17.6888
410.24        17.80534
410.68        17.81356
411.13        17.70324
411.58        17.56266
412.03        17.42661
412.47        17.32904
412.92         17.2853
413.37        17.27635
413.81        17.30879
414.26        17.40615
414.71        17.55434
415.15        17.75477
415.60        17.91776
416.05        17.92321
416.49          17.748
416.94        17.43464
417.39        17.09354
417.83        16.90575
418.28        16.92043
418.73        17.07514
419.17        17.27892
419.62        17.37658
420.07        17.33201
420.51         17.1978
420.96        17.02745
421.41        16.88316
421.85        16.78575
422.30         16.7255
422.74        16.69971
423.19        16.73632
423.64        16.82392
424.08        16.96483
424.53        17.10755
424.98        17.18596
425.42        17.18227
425.87        17.11519
426.31         17.0066
426.76        16.90262
427.21        16.81011
427.65        16.71037
428.10        16.63695
428.54        16.62135
428.99        16.67037
429.44        16.84803
429.88        17.04404
430.33        16.97071
430.77        16.68018
431.22         16.5157
431.66        16.52678
432.11        16.59876
432.56        16.70981
433.00         16.9349
433.45         17.1117
433.89        17.01346
434.34        16.75765
434.78        16.50731
435.23        16.24328
435.67        17.04395
436.12        16.52227
436.57        16.45548
437.01        16.21093
437.46        16.10497
437.90        16.15351
438.35        16.21371
438.79        16.24665
439.24        16.26362
439.68        16.25326
440.13        16.08195
440.57        15.84854
441.02         15.9663
441.46        16.28633
441.91        16.30801
442.35        15.65342
442.80        15.41974
443.24        15.44825
443.69        15.39754
444.13        15.25823
444.58        15.18986
445.02        15.20161
445.47        15.29073
445.91        15.40514
446.36        15.42575
446.80        15.32926
447.24        15.16826
447.69        15.00315
448.13        14.89349
448.58        14.86436
449.02        14.89497
449.47        14.93982
449.91        14.91892
450.36        14.82284
450.80        14.67856
451.25        14.54588
451.69        14.49948
452.13        14.55769
452.58         14.6809
453.02        14.82559
453.47        14.92626
453.91        14.96392
454.36        14.95838
454.80        14.91373
455.24        14.83799
455.69        14.74947
456.13        14.63191
456.58        14.53012
457.02         14.5022
457.46        14.55298
457.91        14.63319
458.35        14.70689
458.79        14.75257
459.24        14.75677
459.68        14.72887
460.13        14.73382
460.57         14.7315
461.01        14.71496
461.46         15.0703
461.90        15.19378
462.34        15.06628
462.79        15.18279
463.23        15.04421
463.68        14.90482
464.12        14.78054
464.56        14.81088
465.01        14.88259
465.45        14.95988
465.89        15.00341
466.34         15.0064
466.78        14.93252
467.22        14.83105
467.67        14.88665
468.11        15.06541
468.55        15.06972
468.99         14.9156
469.44        14.87385
469.88        14.95584
470.32        15.00866
470.77        15.01304
471.21        15.01657
471.65        15.01639
472.10        14.99982
472.54        14.98028
472.98        15.01301
473.42        15.10015
473.87        15.18125
474.31        15.23415
474.75        15.31723
475.20        15.39281
475.64        15.30423
476.08        15.11802
476.52        15.06927
476.97        15.17496
477.41        15.33287
477.85         15.4763
478.29        15.54146
478.74        15.50928
479.18        15.37389
479.62        15.22303
480.06        15.19601
480.50        15.29795
480.95        15.41553
481.39        15.49153
481.83        15.51431
482.27        15.46932
482.72        15.35596
483.16        15.23071
483.60        15.18206
484.04        15.22234
484.48        15.40833
484.93        15.72362
485.37        15.79979
485.81        15.75766
486.25        16.18577
486.69         16.3561
487.14        16.09534
487.58        16.08057
488.02         16.6809
488.46        16.16434
488.90        16.11829
489.34        16.02455
489.79        16.18482
490.23        16.50222
490.67        16.61934
491.11        16.52798
491.55        16.42449
491.99        16.35246
492.43        16.28912
492.88        16.25916
493.32        16.26479
493.76        16.31576
494.20        16.42556
494.64        16.59087
495.08        16.80121
495.52        17.01765
495.96        17.19217
496.41        17.31245
496.85        17.35637
497.29        17.35758
497.73        17.45656
498.17        17.64015
498.61        17.71477
499.05        17.69369
499.49        17.77862
499.93        17.97939
500.37        18.14062
500.82        18.25159
501.26        18.44577
501.70        18.67235
502.14        18.68626
502.58        18.52958
503.02        18.48087
503.46        18.56334
503.90        18.63537
504.34        18.67024
504.78        18.68629
505.22        18.67834
505.66        18.65064
506.10        18.62638
506.54        18.63848
506.98        18.69644
507.42        18.79117
507.86        18.90857
508.30        19.02519
508.74        19.12861
509.18        19.21864
509.62         19.2977
510.06        19.37004
510.50        19.43838
510.94        19.50583
511.38        19.55593
511.82        19.56436
512.26         19.5297
512.70        19.45598
513.14        19.39207
513.58        19.41047
514.02        19.51519
514.46        19.68818
514.90        19.85319
515.34        19.83065
515.78        19.62506
516.22        19.35985
516.66        19.15699
517.10        18.85924
517.54        18.50046
517.98        19.20828
518.42        19.21498
518.86        19.53038
519.30        19.60575
519.74        19.63317
520.18        19.62427
520.62        19.57612
521.06        19.51964
521.50        19.43655
521.93        19.33899
522.37        19.25819
522.81        19.20176
523.25        19.17108
523.69        19.16152
524.13        19.16078
524.57        19.16168
525.01        19.16181
525.45        19.16095
525.89        19.15903
526.32        19.15374
526.76        19.14738
527.20        19.12357
527.64        19.06154
528.08         18.9603
528.52        18.82398
528.96        18.69231
529.40        18.62468
529.83         18.6301
530.27        18.69779
530.71        18.76616
531.15        18.73753
531.59         18.5976
532.03        18.38046
532.46        18.16373
532.90        18.08543
533.34        18.16317
533.78        18.34562
534.22        18.55251
534.66        18.66116
535.09        18.63689
535.53        18.52759
535.97        18.37319
536.41        18.23428
536.85        18.13679
537.28        18.07085
537.72         18.0477
538.16        18.02975
538.60        18.10131
539.04        18.18443
539.47        18.27278
539.91        18.36084
540.35        18.45162
540.79        18.38842
541.22        18.42992
541.66        18.47908
542.10         18.6282
542.54        18.56483
542.97        18.76322
543.41        18.85182
543.85        18.95807
544.29        19.04469
544.72        19.10027
545.16        19.16132
545.60        19.22604
546.04         19.2255
546.47        19.21936
546.91        19.42406
547.35        19.78816
547.79          20.054
548.22        20.17467
548.66        20.21351
549.10        20.20737
549.53         20.3009
549.97        20.51399
550.41        20.50622
550.84        20.66282
551.28        20.77331
551.72        20.96164
552.15        21.17221
552.59        21.39764
553.03        21.64016
553.46        21.85376
553.90        21.98965
554.34        22.04005
554.77        22.02174
555.21        21.98425
555.65        21.99641
556.08        22.07385
556.52         22.1953
556.96        22.33561
557.39        22.48356
557.83        22.61811
558.27        22.68865
558.70        22.70635
559.14        22.73351
559.57        22.77012
560.01        22.81262
560.45        22.84272
560.88        22.80471
561.32        22.74791
561.75        22.73953
562.19        22.86957
562.63        22.95117
563.06        23.00223
563.50        23.08203
563.93        23.17963
564.37        23.31994
564.80        23.38996
565.24        23.48628
565.68        23.56201
566.11        23.62667
566.55        23.69897
566.98         23.7329
567.42        23.73232
567.85        24.00288
568.29        23.92988
568.72         24.2384
569.16        24.66127
569.60        24.94787
570.03        25.06024
570.47           25.14
570.90        25.09454
571.34        25.42272
571.77        25.32353
572.21        25.56262
572.64        25.72778
573.08        25.86578
573.51        26.09327
573.95        26.40579
574.38        26.53971
574.82        26.69734
