SpectraSmart Spectrum 2.9.0.0
--------- Device Information -----------
Spectrum Name :  反射率_0
Saving Time :  2024/04/20 01:00:24
Spectro-Module Model Name : SE2030-DUVN
Spectro-Module Serial Number : OS361AC55029948
Wavelength Start : 200
Wavelength End : 1025
Wavelength Unit : Wavelength(nm)
Spectrum Unit : Reflectance(%)
-----------Spectrum Setting ------------
Integration Time : 30ms
Average : 10
Boxcar : 0
Background removal :  enabled
linearity correction :  enabled
SC :  disabled
Intensity correction :  disabled
DWT denoise :  enabled
savitzky-golay :  disabled
FFT :  disabled
Running average :  disabled
Kalman :  disabled
High pass :  disabled
---------------BEGIN--------------------
Wavelength(nm)             Reflectance(%)
200.29               0
200.75        56.13002
201.21        56.68784
201.67        58.93412
202.13          62.866
202.58        68.31842
203.04        75.48772
203.50        82.28635
203.96        83.61865
204.42        79.43979
204.88        73.03349
205.34        67.42348
205.80        64.03542
206.26        62.23823
206.72        61.11658
207.18        60.51114
207.64         60.2797
208.10        60.35826
208.55        61.43963
209.01        61.76957
209.47        60.39407
209.93        57.68554
210.39        54.29434
210.85        51.30029
211.31        49.91924
211.77        50.20608
212.23         51.7846
212.69        54.50097
213.14          56.935
213.60        57.47409
214.06        57.32513
214.52        56.76124
214.98        55.94069
215.44        54.84428
215.90        52.90199
216.36        51.10991
216.81        51.84439
217.27        55.47578
217.73        61.19495
218.19        65.72538
218.65        64.57142
219.11        56.97588
219.57         43.5477
220.02        27.71567
220.48        18.74296
220.94         20.1751
221.40        30.23895
221.86        43.33512
222.32        50.63914
222.77        49.94278
223.23        44.13707
223.69        37.34044
224.15        35.35703
224.61        38.41642
225.06        43.48543
225.52        47.74743
225.98        49.00911
226.44        47.29224
226.90        43.71411
227.36        39.58511
227.81        37.12407
228.27         37.3006
228.73         39.0605
229.19        41.32703
229.65        42.88651
230.10        43.51888
230.56        43.67197
231.02        43.70852
231.48        44.05547
231.93        44.72609
232.39        45.52724
232.85        46.17271
233.31        46.27324
233.77        45.78419
234.22        44.90415
234.68        43.93742
235.14        43.28813
235.60        43.14185
236.05        43.39999
236.51        44.05432
236.97        45.12363
237.43        46.68934
237.88        49.07478
238.34        52.08112
238.80        54.92846
239.26         56.6968
239.71        57.05157
240.17        56.29618
240.63        55.76091
241.08        55.92579
241.54        56.54527
242.00        56.88375
242.46        55.36793
242.91        51.11609
243.37        43.21652
243.83        32.33207
244.28        25.71673
244.74        30.54113
245.20        45.23268
245.66        59.58611
246.11        64.88541
246.57         60.4248
247.03        46.95166
247.48        27.46581
247.94        20.37038
248.40        29.32092
248.85         41.6058
249.31        51.10283
249.77        56.84708
250.22        60.11096
250.68        62.49743
251.14        64.21563
251.59        64.75974
252.05        64.14733
252.51        62.46988
252.96        60.08725
253.42         58.3064
253.88        57.72903
254.33        58.00101
254.79         60.0563
255.25        64.48257
255.70        70.55616
256.16        77.33882
256.62        82.83085
257.07        84.78153
257.53        83.54703
257.99        80.15572
258.44        75.87095
258.90         73.1571
259.35         71.8098
259.81        71.56702
260.27        71.34948
260.72        70.26917
261.18          68.647
261.63        66.40263
262.09        64.45538
262.55        63.48442
263.00        63.40208
263.46         63.9832
263.91        64.27734
264.37        63.52595
264.83        61.71032
265.28        59.17217
265.74        56.87991
266.19        55.68417
266.65        55.74895
267.11         56.5383
267.56        57.40192
268.02        57.42573
268.47        56.41689
268.93          54.713
269.38        52.64152
269.84        50.95706
270.30        49.88228
270.75        49.21972
271.21        48.77106
271.66        48.21485
272.12        47.44116
272.57        46.54568
273.03        45.66166
273.48        44.88173
273.94        44.28458
274.39        43.78484
274.85        43.28718
275.31        42.60943
275.76        41.70685
276.22         40.6671
276.67        39.64897
277.13        39.01104
277.58        38.73114
278.04         38.7369
278.49        38.69175
278.95          38.206
279.40         37.1977
279.86        35.91402
280.31        34.61094
280.77        33.80647
281.22        33.50703
281.68        33.56927
282.13        33.72124
282.59        33.61743
283.04        33.16707
283.50        32.53933
283.95        31.85355
284.41        31.32556
284.86        30.98731
285.32        30.79432
285.77        30.69484
286.22        30.68985
286.68        30.75319
287.13        30.85684
287.59        30.96738
288.04        30.99552
288.50        30.94424
288.95        30.79457
289.41          30.597
289.86        30.35046
290.32        30.12176
290.77        29.91415
291.22        29.77577
291.68        29.73912
292.13        29.82009
292.59         30.0345
293.04        30.40207
293.50        30.96915
293.95        31.71184
294.40        32.59072
294.86        33.53028
295.31        34.42297
295.77        35.23878
296.22        36.00311
296.68        36.72594
297.13         37.4112
297.58        38.07787
298.04        38.72058
298.49        39.39127
298.95        40.21934
299.40        41.19214
299.85        42.26277
300.31        43.30907
300.76        44.12613
301.21        44.68208
301.67        45.08299
302.12        45.38838
302.58        45.76752
303.03        46.23733
303.48        46.76869
303.94        47.39657
304.39        48.12438
304.84        48.93671
305.30        49.81017
305.75        50.60838
306.20        51.15336
306.66        51.44004
307.11        51.51025
307.57        51.49202
308.02         51.4937
308.47        51.58567
308.93        51.72231
309.38         51.9108
309.83         52.2251
310.29        52.64308
310.74        53.13892
311.19        53.54276
311.65        53.57681
312.10        53.19934
312.55        52.51144
313.00        51.75859
313.46        51.32219
313.91        51.27485
314.36        51.52047
314.82        51.87185
315.27        52.04392
315.72        51.93503
316.18        51.65164
316.63        51.28238
317.08        50.98005
317.53        50.78551
317.99        50.62746
318.44        50.47304
318.89        50.26648
319.35        49.99049
319.80        49.68051
320.25        49.34376
320.70        48.98518
321.16         48.6067
321.61        48.21047
322.06        47.81398
322.51        47.45414
322.97        47.12929
323.42        46.84224
323.87        46.55111
324.32        46.19355
324.78        45.74952
325.23        45.25611
325.68        44.74681
326.13        44.28947
326.59        43.90834
327.04        43.61349
327.49         43.3825
327.94        43.18491
328.39        43.00233
328.85        42.81206
329.30        42.66362
329.75        42.57222
330.20        42.53127
330.66         42.5035
331.11        42.44526
331.56        42.22682
332.01        41.82687
332.46        41.28344
332.92        40.68789
333.37        40.22305
333.82         39.9466
334.27        39.83529
334.72        39.82509
335.17        39.79632
335.63        39.69422
336.08        39.55981
336.53        39.44072
336.98        39.43543
337.43        39.55433
337.88        39.75443
338.34        39.89518
338.79        39.80658
339.24        39.43684
339.69        38.84279
340.14          38.211
340.59        37.85406
341.05        37.83952
341.50        38.08628
341.95         38.3994
342.40         38.4698
342.85        38.23016
343.30        37.79375
343.75         37.3038
344.20        36.99406
344.66        36.92443
345.11        36.97844
345.56        37.10495
346.01        37.22527
346.46        37.28788
346.91        37.33152
347.36        37.26043
347.81        36.91565
348.26        36.30669
348.72        35.51791
349.17        34.73561
349.62        34.34783
350.07        34.44191
350.52        34.88483
350.97        35.47542
351.42        35.90686
351.87        36.07551
352.32        36.05412
352.77        35.87103
353.22        35.57922
353.67         35.2206
354.13        34.79628
354.58        34.33421
355.03        33.93074
355.48         33.6181
355.93        33.39719
356.38        33.25963
356.83        33.17317
357.28        33.11467
357.73        33.07765
358.18        33.03528
358.63        32.94763
359.08        32.80152
359.53        32.60395
359.98        32.35596
360.43        32.06349
360.88        31.73756
361.33        31.38205
361.78        31.03819
362.23        30.77341
362.68         30.5999
363.13        30.49604
363.58        30.40771
364.03        30.24687
364.48        29.98615
364.93        29.64433
365.38        29.25236
365.83        28.87042
366.28        28.52531
366.73        28.20624
367.18        27.90405
367.63        27.60205
368.08        27.29729
368.53        27.00296
368.98        26.73123
369.43        26.49092
369.88         26.2841
370.33        26.11136
370.78        25.95323
371.23        25.78218
371.68        25.59348
372.13        25.38509
372.58        25.20476
373.03        25.13452
373.48        25.17718
373.93        25.29461
374.38        25.38728
374.83        25.30497
375.28        25.02007
375.72        24.57484
376.17        24.08467
376.62        23.69751
377.07        23.46732
377.52        23.35367
377.97        23.31591
378.42        23.28793
378.87        23.23975
379.32        23.18672
379.77        23.12921
380.22        23.06165
380.67        22.98362
381.11        22.89811
381.56        22.77993
382.01        22.61597
382.46         22.4096
382.91        22.16118
383.36        21.93499
383.81        21.82392
384.26        21.83794
384.71        21.95875
385.15        22.06771
385.60        21.98715
386.05        21.69147
386.50        21.23976
386.95        20.79765
387.40        20.62815
387.85        20.77299
388.29        21.12613
388.74        21.51002
389.19        21.66435
389.64        21.53456
390.09        21.19943
390.54        20.78813
390.98        20.49992
391.43        20.41222
391.88         20.4521
392.33         20.5228
392.78         20.4868
393.23        20.32508
393.67        20.08127
394.12        19.87281
394.57        19.79082
395.02         19.8514
395.47        20.01259
395.91        20.20019
396.36        20.26491
396.81        20.17562
397.26        19.97447
397.71        19.74665
398.15        19.60306
398.60        19.59289
399.05        19.66778
399.50        19.75716
399.95        19.75982
400.39        19.65475
400.84        19.47182
401.29        19.28526
401.74         19.2285
402.18        19.33865
402.63        19.56064
403.08        19.79033
403.53        19.86247
403.97        19.74358
404.42        19.49839
404.87         19.2315
405.32        19.11584
405.76        19.19007
406.21        19.39273
406.66        19.63423
407.11         19.7754
407.55        19.77897
408.00        19.69367
408.45        19.56074
408.90        19.40138
409.34        19.26335
409.79        19.22917
410.24         19.2616
410.68        19.22196
411.13        19.10621
411.58         18.9978
412.03        18.91615
412.47        18.86572
412.92        18.85125
413.37        18.86151
413.81        18.90956
414.26        19.03115
414.71         19.2155
415.15        19.45706
415.60        19.66315
416.05        19.71262
416.49        19.57778
416.94        19.29767
417.39         18.9792
417.83        18.79621
418.28        18.79981
418.73        18.93815
419.17        19.11798
419.62        19.18097
420.07        19.09618
420.51         18.9166
420.96        18.72855
421.41        18.64273
421.85        18.67808
422.30        18.80281
422.74        18.95488
423.19         19.0782
423.64        19.14507
424.08        19.18342
424.53         19.1888
424.98        19.18569
425.42        19.18785
425.87        19.18826
426.31        19.17483
426.76        19.14096
427.21         19.0754
427.65        18.97464
428.10        18.88654
428.54        18.86199
428.99        18.91582
429.44        19.11501
429.88        19.32854
430.33        19.22654
430.77        18.86967
431.22        18.65041
431.66        18.63955
432.11         18.7301
432.56        18.90238
433.00        19.23763
433.45        19.52671
433.89        19.45817
434.34        19.15211
434.78        18.81138
435.23        18.45026
435.67        19.34423
436.12        18.79286
436.57        18.79743
437.01        18.60959
437.46        18.54187
437.90        18.60076
438.35        18.63997
438.79        18.63744
439.24        18.64053
439.68        18.64682
440.13        18.48954
440.57         18.2731
441.02        18.46383
441.46        18.88445
441.91        18.95576
442.35        18.22951
442.80        17.97106
443.24        17.99885
443.69         17.9181
444.13        17.72574
444.58        17.61961
445.02        17.61531
445.47        17.70524
445.91         17.8335
446.36         17.8668
446.80         17.7782
447.24        17.63107
447.69         17.4779
448.13         17.3614
448.58        17.30716
449.02        17.29612
449.47         17.3064
449.91         17.2967
450.36        17.26089
450.80        17.20911
451.25        17.16536
451.69        17.14614
452.13        17.16102
452.58        17.19549
453.02        17.23519
453.47        17.26105
453.91        17.26872
454.36        17.26225
454.80        17.24576
455.24        17.22543
455.69        17.20972
456.13        17.17609
456.58        17.14249
457.02        17.12718
457.46        17.12973
457.91        17.10764
458.35        17.05602
458.79        17.01013
459.24         16.9686
459.68        16.92805
460.13        16.93955
460.57        16.91995
461.01        16.85346
461.46        17.19965
461.90        17.28408
462.34         17.1128
462.79        17.25295
463.23        17.12484
463.68        17.00799
464.12        16.90719
464.56         16.9724
465.01         17.0783
465.45         17.1765
465.89        17.21273
466.34        17.18157
466.78        17.04505
467.22        16.87673
467.67        16.91537
468.11        17.12845
468.55        17.16807
468.99        17.03569
469.44        17.01298
469.88        17.10517
470.32        17.14747
470.77         17.1214
471.21        17.08605
471.65        17.04401
472.10         16.9784
472.54        16.91964
472.98        16.95347
473.42        17.08383
473.87        17.23417
474.31        17.35619
474.75         17.4816
475.20        17.56154
475.64        17.43118
476.08        17.18201
476.52        17.10518
476.97        17.22759
477.41        17.42316
477.85        17.61946
478.29        17.74901
478.74        17.78481
479.18        17.71628
479.62        17.61957
480.06        17.61884
480.50        17.71463
480.95         17.7877
481.39        17.80404
481.83        17.79593
482.27        17.76442
482.72        17.70887
483.16        17.66143
483.60        17.67242
484.04        17.73706
484.48        17.90069
484.93        18.21151
485.37         18.3334
485.81        18.39603
486.25         19.0545
486.69        19.57278
487.14        18.94114
487.58        18.44871
488.02        19.26019
488.46        18.86793
488.90        19.08118
489.34        18.94199
489.79         19.0593
490.23        19.36167
490.67        19.49491
491.11        19.47598
491.55        19.45604
491.99        19.46514
492.43        19.48031
492.88        19.51911
493.32        19.58263
493.76        19.68974
494.20         19.8685
494.64        20.11768
495.08        20.42732
495.52        20.74487
495.96        20.98429
496.41        21.13937
496.85        21.23322
497.29        21.29923
497.73        21.45428
498.17        21.67971
498.61        21.76892
499.05        21.74624
499.49        21.85919
499.93        22.12345
500.37        22.34807
500.82        22.51833
501.26        22.79486
501.70        23.11473
502.14        23.17581
502.58        23.02532
503.02        23.00323
503.46        23.13714
503.90        23.24911
504.34        23.31232
504.78        23.36186
505.22        23.39179
505.66        23.40294
506.10         23.4094
506.54         23.4283
506.98        23.46905
507.42        23.53177
507.86        23.61822
508.30        23.72988
508.74        23.86089
509.18        24.00181
509.62         24.1475
510.06           24.29
510.50        24.42391
510.94        24.55325
511.38        24.65156
511.82        24.67841
512.26        24.63216
512.70        24.52491
513.14        24.41991
513.58        24.41334
514.02        24.51644
514.46        24.70353
514.90        24.90067
515.34        24.92423
515.78        24.78724
516.22        24.59493
516.66        24.44461
517.10        24.15468
517.54        23.75389
517.98        24.30855
518.42         24.2024
518.86        24.44414
519.30        24.53305
519.74        24.63123
520.18        24.71371
520.62        24.71928
521.06        24.66097
521.50        24.53899
521.93        24.38778
522.37        24.27487
522.81        24.21767
523.25        24.20209
523.69        24.20919
524.13         24.2066
524.57        24.18191
525.01        24.14281
525.45        24.09485
525.89         24.0453
526.32        23.99602
526.76        23.94652
527.20        23.88529
527.64        23.80031
528.08         23.6902
528.52        23.55595
528.96        23.42563
529.40        23.33984
529.83        23.30343
530.27        23.31267
530.71        23.31548
531.15        23.23099
531.59        23.05079
532.03        22.80495
532.46        22.56731
532.90        22.47145
533.34        22.53201
533.78        22.69917
534.22         22.8931
534.66        22.99071
535.09        22.95678
535.53        22.84077
535.97        22.67928
536.41        22.52793
536.85        22.41276
537.28        22.32685
537.72        22.29074
538.16        22.26968
538.60        22.36845
539.04        22.48287
539.47        22.59816
539.91        22.69782
540.35        22.78552
540.79         22.6785
541.22        22.69702
541.66        22.72215
542.10        22.87241
542.54        22.76444
542.97        23.00246
543.41        23.16452
543.85        23.40696
544.29        23.66752
544.72        23.88987
545.16        24.05693
545.60        24.15327
546.04        24.11154
546.47        24.03919
546.91        24.25969
547.35        24.72621
547.79        25.10225
548.22        25.31334
548.66        25.41749
549.10        25.45293
549.53        25.60938
549.97        25.91562
550.41        25.94624
550.84        26.18809
551.28        26.37035
551.72        26.64058
552.15         26.9137
552.59        27.18176
553.03        27.45569
553.46        27.69497
553.90        27.86707
554.34        27.96532
554.77        27.99913
555.21         28.0169
555.65        28.08379
556.08        28.21113
556.52        28.37901
556.96        28.55288
557.39        28.71265
557.83         28.8379
558.27        28.87195
558.70        28.84817
559.14        28.87686
559.57         28.9606
560.01         29.0813
560.45        29.20595
560.88        29.23242
561.32        29.20936
561.75         29.2724
562.19        29.51532
562.63        29.56348
563.06        29.49021
563.50        29.60629
563.93        29.87419
564.37        30.10127
564.80        30.12981
565.24        30.20368
565.68        30.28177
566.11        30.35806
566.55        30.45946
566.98        30.52753
567.42        30.54552
567.85         30.8776
568.29        30.73021
568.72        31.04653
569.16        31.51094
569.60        31.83908
570.03        31.98212
570.47        32.13265
570.90        32.15604
571.34        32.59887
571.77        32.41879
572.21        32.92147
572.64        32.93769
573.08        33.26335
573.51        33.53712
573.95        33.87406
574.38        34.14892
574.82        34.34443
