SpectraSmart Spectrum 2.9.0.0
--------- Device Information -----------
Spectrum Name :  反射率_0
Saving Time :  2024/04/20 00:11:53
Spectro-Module Model Name : SE2030-DUVN
Spectro-Module Serial Number : OS361AC55029948
Wavelength Start : 200
Wavelength End : 1025
Wavelength Unit : Wavelength(nm)
Spectrum Unit : Reflectance(%)
-----------Spectrum Setting ------------
Integration Time : 30ms
Average : 10
Boxcar : 0
Background removal :  enabled
linearity correction :  enabled
SC :  disabled
Intensity correction :  disabled
DWT denoise :  enabled
savitzky-golay :  disabled
FFT :  disabled
Running average :  disabled
Kalman :  disabled
High pass :  disabled
---------------BEGIN--------------------
Wavelength(nm)             Reflectance(%)
200.29               0
200.75        61.02637
201.21        61.42449
201.67        64.35644
202.13        70.31767
202.58        79.21244
203.04        91.55163
203.50        102.9534
203.96         103.328
204.42        93.17638
204.88         79.3852
205.34        67.91419
205.80        61.38396
206.26        58.58867
206.72        58.22847
207.18        60.17425
207.64        62.90969
208.10        64.58363
208.55        65.91279
209.01        66.47192
209.47        67.06644
209.93        67.77937
210.39        67.95943
210.85        67.81355
211.31        67.79817
211.77        67.91831
212.23         68.3479
212.69        68.41839
213.14        66.64915
213.60        63.20939
214.06        60.13686
214.52         58.4967
214.98        58.76409
215.44        60.54958
215.90        63.29388
216.36        66.77582
216.81        69.93258
217.27        71.70959
217.73          72.511
218.19        71.41664
218.65         67.0246
219.11        59.21671
219.57        47.89875
220.02        35.54031
220.48         29.0957
220.94        31.07335
221.40         40.4462
221.86        52.47346
222.32         59.6147
222.77        59.95794
223.23          55.696
223.69        50.46762
224.15        49.51677
224.61        52.91048
225.06        57.87925
225.52        61.80737
225.98        62.50734
226.44        60.00008
226.90        55.32938
227.36        49.89095
227.81        46.18221
228.27        45.36559
228.73        46.42644
229.19         48.1597
229.65        49.13116
230.10        49.10694
230.56        48.64444
231.02        48.24248
231.48         48.5041
231.93        49.41529
232.39        50.67762
232.85         51.8079
233.31        52.13856
233.77        51.55177
234.22        50.30902
234.68        48.87059
235.14        47.92622
235.60        47.74884
236.05         48.1752
236.51        49.01865
236.97        50.01053
237.43        51.13572
237.88        52.73211
238.34        54.77916
238.80        57.19206
239.26        59.50161
239.71        61.26731
240.17        62.22307
240.63        62.87776
241.08        63.52003
241.54        64.04095
242.00        64.12867
242.46        63.00423
242.91         60.2275
243.37        55.16304
243.83        48.48989
244.28        45.41286
244.74        50.54676
245.20         62.3856
245.66        73.43506
246.11        77.87112
246.57        75.31126
247.03        66.10413
247.48        52.08206
247.94         46.1263
248.40        51.33309
248.85        59.25858
249.31        65.31448
249.77        68.30642
250.22        69.01196
250.68        68.46623
251.14        67.17535
251.59        66.03389
252.05         65.7619
252.51        66.17216
252.96        66.55852
253.42        66.01112
253.88        64.61884
254.33        63.11255
254.79        63.03585
255.25        65.53142
255.70        70.08856
256.16        75.47136
256.62        80.33538
257.07        83.25439
257.53        84.22226
257.99        83.66953
258.44          81.526
258.90        78.71194
259.35        75.55097
259.81        73.02842
260.27        70.95632
260.72        69.11899
261.18        67.67479
261.63        66.10684
262.09        65.04939
262.55        64.81248
263.00        65.17277
263.46        66.03445
263.91        66.43771
264.37        65.61433
264.83         63.5873
265.28        60.72056
265.74         58.0877
266.19        56.68499
266.65        56.70494
267.11         57.5727
267.56        58.57427
268.02        58.70526
268.47        57.75112
268.93        56.07354
269.38        54.03862
269.84        52.46189
270.30        51.56882
270.75        51.12565
271.21         50.8717
271.66        50.39874
272.12        49.59213
272.57         48.5903
273.03        47.58688
273.48        46.76627
273.94         46.2292
274.39        45.84322
274.85        45.49932
275.31        44.99329
275.76        44.25631
276.22        43.38176
276.67        42.46405
277.13        41.77373
277.58        41.28734
278.04        40.97533
278.49        40.60046
278.95        39.92352
279.40        38.88321
279.86        37.67983
280.31        36.48236
280.77        35.68858
281.22        35.28096
281.68        35.16324
282.13        35.12177
282.59        34.90029
283.04        34.42595
283.50        33.83577
283.95        33.20607
284.41        32.69551
284.86        32.32355
285.32        32.07106
285.77          31.914
286.22        31.89499
286.68        31.99548
287.13        32.16447
287.59        32.34975
288.04        32.43544
288.50        32.41691
288.95        32.28214
289.41        32.08251
289.86        31.81655
290.32        31.55519
290.77        31.30209
291.22        31.11557
291.68        31.04373
292.13        31.10606
292.59        31.31854
293.04        31.69448
293.50        32.26881
293.95        33.01595
294.40        33.90166
294.86         34.8549
295.31        35.77729
295.77        36.63521
296.22         37.4386
296.68        38.19599
297.13        38.90982
297.58        39.59658
298.04        40.26233
298.49        40.92756
298.95        41.67223
299.40        42.48967
299.85        43.35631
300.31        44.23856
300.76        45.06454
301.21        45.81347
301.67        46.53326
302.12        47.17226
302.58        47.73845
303.03        48.21157
303.48        48.61585
303.94        49.05308
304.39        49.63014
304.84        50.36403
305.30        51.19705
305.75        51.97104
306.20        52.47886
306.66        52.70329
307.11        52.69908
307.57        52.59597
308.02         52.4964
308.47        52.47382
308.93        52.48831
309.38        52.54741
309.83        52.72707
310.29        53.01308
310.74        53.38478
311.19        53.69321
311.65        53.69282
312.10        53.34049
312.55        52.71488
313.00        52.03157
313.46         51.6281
313.91        51.55796
314.36        51.73217
314.82          51.958
315.27        51.94612
315.72        51.61051
316.18        51.07659
316.63        50.46621
317.08        49.97651
317.53        49.66263
317.99        49.44507
318.44        49.29091
318.89        49.14046
319.35          48.961
319.80        48.77522
320.25        48.55666
320.70        48.25799
321.16        47.86985
321.61        47.41253
322.06        46.91733
322.51        46.45009
322.97        46.02717
323.42        45.64235
323.87        45.29386
324.32        44.98128
324.78        44.68908
325.23        44.43872
325.68        44.17621
326.13        43.81877
326.59        43.35309
327.04        42.82518
327.49        42.31343
327.94        41.95697
328.39        41.78344
328.85        41.72686
329.30         41.7488
329.75        41.70974
330.20        41.55861
330.66        41.31149
331.11        41.00648
331.56        40.64137
332.01        40.23043
332.46        39.76988
332.92        39.29396
333.37        38.88982
333.82        38.58261
334.27        38.37753
334.72        38.24738
335.17        38.13338
335.63        38.00336
336.08         37.8787
336.53        37.78193
336.98        37.77219
337.43        37.84965
337.88        37.98666
338.34        38.07222
338.79        37.97878
339.24        37.66503
339.69        37.17567
340.14        36.66175
340.59        36.37683
341.05        36.37329
341.50        36.58551
341.95        36.85855
342.40        36.94791
342.85        36.79451
343.30         36.4822
343.75        36.11229
344.20        35.85072
344.66        35.74205
345.11        35.70329
345.56        35.70424
346.01        35.69751
346.46        35.65428
346.91        35.60847
347.36        35.49769
347.81        35.21398
348.26        34.76572
348.72        34.21621
349.17        33.68901
349.62        33.46386
350.07        33.59785
350.52        33.98975
350.97         34.4807
351.42        34.83325
351.87        34.96754
352.32        34.93496
352.77        34.76836
353.22        34.52706
353.67         34.2485
354.13        33.93886
354.58        33.59531
355.03        33.26024
355.48        32.95866
355.93        32.70613
356.38        32.53801
356.83        32.49431
357.28        32.56649
357.73          32.723
358.18        32.89275
358.63        32.96255
359.08         32.8934
359.53        32.70924
359.98        32.43988
360.43         32.1357
360.88        31.82363
361.33        31.50086
361.78        31.18715
362.23        30.91688
362.68        30.69916
363.13        30.52468
363.58         30.3854
364.03        30.26094
364.48        30.13267
364.93        29.99875
365.38        29.81975
365.83        29.53708
366.28        29.15236
366.73        28.69551
367.18        28.23856
367.63        27.89332
368.08        27.68641
368.53        27.58441
368.98        27.54266
369.43        27.48584
369.88         27.3878
370.33        27.27217
370.78        27.13444
371.23        26.97018
371.68        26.78534
372.13        26.57005
372.58        26.36695
373.03        26.25453
373.48        26.24101
373.93        26.29871
374.38        26.35225
374.83        26.28227
375.28        26.06432
375.72        25.72942
376.17        25.36105
376.62        25.05473
377.07        24.84967
377.52        24.71877
377.97        24.64616
378.42        24.60623
378.87        24.57963
379.32         24.5684
379.77        24.55686
380.22        24.51683
380.67        24.44159
381.11        24.34127
381.56        24.20249
382.01        24.03006
382.46        23.83237
382.91        23.60575
383.36        23.39609
383.81        23.27003
384.26        23.23281
384.71        23.27143
385.15        23.29744
385.60        23.17991
386.05        22.89968
386.50         22.5035
386.95        22.11164
387.40        21.91535
387.85         21.9501
388.29         22.1413
388.74        22.37111
389.19        22.46062
389.64        22.36673
390.09        22.13452
390.54        21.84824
390.98        21.63513
391.43        21.55069
391.88        21.54632
392.33         21.5403
392.78        21.41727
393.23        21.17035
393.67        20.83657
394.12        20.54613
394.57        20.40552
395.02        20.43133
395.47        20.58102
395.91        20.76503
396.36        20.80451
396.81        20.66419
397.26        20.39667
397.71        20.11016
398.15        19.94899
398.60        19.96516
399.05        20.09358
399.50        20.24052
399.95        20.27284
400.39        20.16142
400.84        19.94496
401.29        19.70639
401.74        19.59688
402.18        19.66122
402.63        19.83813
403.08        20.02382
403.53        20.05273
403.97        19.89014
404.42        19.60469
404.87        19.29476
405.32        19.12149
405.76        19.12421
406.21        19.24648
406.66        19.41241
407.11         19.5042
407.55        19.48791
408.00        19.40448
408.45        19.28427
408.90        19.12903
409.34        18.98077
409.79        18.92981
410.24        18.93995
410.68        18.87584
411.13        18.73462
411.58        18.59184
412.03        18.48199
412.47        18.43721
412.92         18.4631
413.37        18.53926
413.81         18.6385
414.26        18.73394
414.71        18.80467
415.15        18.86441
415.60        18.87265
416.05        18.79609
416.49        18.63386
416.94        18.40484
417.39        18.16898
417.83        18.02293
418.28        17.99599
418.73        18.05597
419.17         18.1516
419.62        18.18894
420.07        18.14739
420.51        18.05441
420.96        17.94414
421.41        17.85033
421.85        17.78135
422.30        17.73759
422.74        17.71312
423.19         17.7305
423.64        17.77931
424.08        17.86176
424.53          17.938
424.98        17.96732
425.42        17.94151
425.87        17.87632
426.31        17.78098
426.76        17.67977
427.21        17.57204
427.65        17.44188
428.10        17.33614
428.54        17.30763
428.99         17.3685
429.44         17.5815
429.88        17.81035
430.33         17.7249
430.77        17.37926
431.22        17.14211
431.66        17.09752
432.11        17.18003
432.56        17.37769
433.00        17.75501
433.45        18.10032
433.89        18.07237
434.34         17.7649
434.78        17.41002
435.23        17.04143
435.67        17.72894
436.12        17.20818
436.57        17.14501
437.01         16.9236
437.46        16.83635
437.90         16.8911
438.35         16.9485
438.79        16.97695
439.24        17.00553
439.68        17.02475
440.13        16.88514
440.57        16.67688
441.02        16.81874
441.46        17.14989
441.91        17.14741
442.35        16.42836
442.80         16.1623
443.24        16.18543
443.69        16.13667
444.13        15.99507
444.58        15.90957
445.02         15.8868
445.47        15.92863
445.91         15.9998
446.36        16.00549
446.80        15.92694
447.24        15.81102
447.69        15.69187
448.13        15.58819
448.58        15.51783
449.02        15.47016
449.47        15.43442
449.91        15.38654
450.36        15.32734
450.80        15.26563
451.25        15.21804
451.69         15.1913
452.13        15.19305
452.58        15.21058
453.02        15.24394
453.47        15.29452
453.91        15.35844
454.36        15.43023
454.80        15.48626
455.24        15.48789
455.69        15.43442
456.13        15.32313
456.58        15.20078
457.02        15.12778
457.46        15.11568
457.91         15.1144
458.35        15.10636
458.79        15.10094
459.24        15.08914
459.68        15.07177
460.13        15.09899
460.57        15.10167
461.01        15.06579
461.46         15.3979
461.90        15.48613
462.34        15.32125
462.79         15.4122
463.23         15.2488
463.68        15.09928
464.12        14.99703
464.56        15.08158
465.01        15.22698
465.45        15.37858
465.89        15.47248
466.34        15.49741
466.78        15.42382
467.22        15.30578
467.67        15.33994
468.11        15.49555
468.55        15.46387
468.99        15.27517
469.44        15.22745
469.88        15.33453
470.32        15.43542
470.77        15.48774
471.21        15.50338
471.65        15.47229
472.10        15.39254
472.54        15.30263
472.98        15.29901
473.42        15.39419
473.87        15.51441
474.31        15.61765
474.75        15.73447
475.20        15.81997
475.64         15.7243
476.08        15.52838
476.52        15.49226
476.97        15.63764
477.41        15.85026
477.85         16.0547
478.29         16.1749
478.74        16.18553
479.18        16.08345
479.62        15.95533
480.06        15.93899
480.50        16.04145
480.95        16.14929
481.39        16.21652
481.83        16.24819
482.27         16.2352
482.72        16.18108
483.16        16.12975
483.60        16.13412
484.04        16.19906
484.48        16.41135
484.93        16.77607
485.37        16.86136
485.81        16.87449
486.25        17.45491
486.69        18.11516
487.14        17.66234
487.58        17.53968
488.02        17.93993
488.46        17.72978
488.90        17.80641
489.34        17.71166
489.79        17.85653
490.23        18.17031
490.67        18.40891
491.11        18.51591
491.55         18.4444
491.99        18.25681
492.43        18.17989
492.88        18.25672
493.32        18.34741
493.76        18.45613
494.20        18.65443
494.64        18.93648
495.08          19.272
495.52        19.61263
495.96        19.89862
496.41        20.11235
496.85        20.22903
497.29        20.28458
497.73         20.4375
498.17        20.67337
498.61         20.7687
499.05        20.74672
499.49        20.85574
499.93         21.1125
500.37        21.33529
500.82        21.50649
501.26        21.77363
501.70          22.076
502.14        22.12539
502.58        21.97932
503.02         21.9812
503.46        22.15925
503.90        22.33795
504.34        22.46708
504.78        22.54089
505.22        22.54624
505.66        22.49558
506.10        22.43333
506.54        22.42683
506.98        22.49644
507.42        22.62547
507.86        22.78754
508.30        22.93762
508.74        23.05818
509.18        23.15808
509.62         23.2494
510.06        23.35081
510.50        23.46733
510.94        23.59322
511.38        23.70528
511.82        23.76896
512.26        23.77897
512.70         23.7451
513.14        23.71052
513.58        23.73908
514.02        23.83501
514.46        23.97982
514.90        24.12044
515.34        24.10975
515.78        23.96897
516.22        23.79797
516.66        23.67726
517.10        23.39548
517.54        22.97445
517.98        23.50033
518.42        23.35707
518.86        23.58997
519.30        23.69767
519.74        23.83454
520.18          23.955
520.62        23.96616
521.06        23.87512
521.50        23.69306
521.93        23.47621
522.37        23.32711
522.81        23.27197
523.25        23.28482
523.69        23.32939
524.13        23.34659
524.57        23.31616
525.01        23.25424
525.45         23.1751
525.89        23.09941
526.32        23.03388
526.76         22.9737
527.20        22.90367
527.64        22.80685
528.08         22.6806
528.52        22.52803
528.96        22.38181
529.40        22.28844
529.83        22.25345
530.27        22.27091
530.71        22.28089
531.15        22.19026
531.59        21.98871
532.03        21.71031
532.46        21.44033
532.90        21.32977
533.34        21.39702
533.78        21.58652
534.22        21.80592
534.66        21.91353
535.09        21.86866
535.53        21.72387
535.97        21.52746
536.41        21.35329
536.85        21.23276
537.28        21.15703
537.72        21.12998
538.16         21.0939
538.60        21.14583
539.04        21.19564
539.47        21.25935
539.91        21.36647
540.35        21.52446
540.79          21.541
541.22        21.67833
541.66        21.75965
542.10        21.88557
542.54        21.71455
542.97        21.85537
543.41         21.9567
543.85        22.18347
544.29        22.45771
544.72        22.72183
545.16        22.95343
545.60        23.13037
546.04        23.19193
546.47        23.21365
546.91        23.46313
547.35        23.88857
547.79        24.17495
548.22         24.2953
548.66         24.3779
549.10        24.46571
549.53        24.72872
549.97        25.15199
550.41        25.25018
550.84        25.47708
551.28        25.59134
551.72        25.78022
552.15        26.03118
552.59        26.35116
553.03        26.72462
553.46        27.06948
553.90        27.29117
554.34        27.37127
554.77        27.34408
555.21         27.2901
555.65        27.32248
556.08        27.46607
556.52        27.68687
556.96        27.93344
557.39         28.1502
557.83        28.31163
558.27        28.39302
558.70         28.4193
559.14        28.46436
559.57        28.53351
560.01        28.62869
560.45        28.72547
560.88         28.7458
561.32        28.74508
561.75        28.80775
562.19        29.03846
562.63        29.18525
563.06        29.26867
563.50        29.37103
563.93        29.48462
564.37        29.65257
564.80        29.73679
565.24        29.85765
565.68        29.96495
566.11        30.08488
566.55        30.24009
566.98         30.3675
567.42        30.44893
567.85        30.83954
568.29         30.7456
568.72        31.11469
569.16        31.62362
569.60        31.98064
570.03        32.14492
570.47        32.27237
570.90        32.23772
571.34        32.70804
571.77        32.66723
572.21        32.97121
572.64        33.24231
573.08        33.47234
573.51        33.58491
573.95        33.77605
574.38         34.4286
574.82        34.67543
