SpectraSmart Spectrum 2.9.0.0
--------- Device Information -----------
Spectrum Name :  反射率_0
Saving Time :  2024/04/20 00:45:55
Spectro-Module Model Name : SE2030-DUVN
Spectro-Module Serial Number : OS361AC55029948
Wavelength Start : 200
Wavelength End : 1025
Wavelength Unit : Wavelength(nm)
Spectrum Unit : Reflectance(%)
-----------Spectrum Setting ------------
Integration Time : 30ms
Average : 10
Boxcar : 0
Background removal :  enabled
linearity correction :  enabled
SC :  disabled
Intensity correction :  disabled
DWT denoise :  enabled
savitzky-golay :  disabled
FFT :  disabled
Running average :  disabled
Kalman :  disabled
High pass :  disabled
---------------BEGIN--------------------
Wavelength(nm)             Reflectance(%)
200.29               0
200.75        63.11765
201.21        61.90863
201.67        62.58368
202.13        67.07705
202.58        76.28123
203.04        90.35638
203.50        105.2354
203.96        110.3035
204.42        104.3005
204.88        93.57224
205.34        83.79484
205.80        77.71837
206.26        74.38791
206.72        72.14607
207.18        70.95519
207.64        71.47102
208.10        73.90359
208.55        78.38949
209.01        81.62578
209.47        81.50217
209.93        78.62461
210.39        73.94726
210.85        69.39042
211.31        67.11342
211.77        67.30414
212.23        69.56336
212.69        73.12501
213.14        74.82096
213.60        72.99245
214.06        70.23567
214.52        68.17817
214.98         67.7141
215.44        68.60201
215.90        70.10218
216.36        72.37008
216.81        75.40314
217.27        78.49946
217.73        81.71661
218.19        83.45995
218.65        81.51168
219.11        75.68288
219.57        66.14019
220.02         55.5067
220.48        50.89983
220.94        54.75166
221.40        65.61076
221.86        78.76978
222.32        86.90926
222.77        88.14457
223.23        84.86137
223.69         80.0349
224.15        78.00491
224.61        79.31611
225.06        81.89915
225.52        84.40626
225.98        85.72272
226.44        85.82018
226.90        85.32519
227.36        84.60285
227.81        84.02998
228.27        84.04102
228.73        84.28091
229.19        84.57761
229.65        84.78624
230.10        84.78155
230.56        84.74932
231.02        84.67413
231.48        84.62597
231.93        84.52573
232.39        84.39821
232.85         84.0668
233.31        83.33556
233.77        82.21052
234.22        80.81981
234.68        79.33936
235.14         78.0194
235.60        77.01894
236.05        76.30663
236.51        75.96301
236.97         76.0759
237.43        76.65564
237.88        77.97213
238.34         79.5211
238.80        80.49877
239.26        80.21882
239.71        78.70097
240.17        76.46718
240.63        74.91927
241.08        74.46455
241.54        74.80756
242.00        75.19402
242.46        74.00375
242.91        70.42543
243.37        63.63612
243.83        54.20081
244.28        48.45253
244.74        52.45446
245.20        64.73071
245.66        76.91322
246.11         82.0363
246.57        79.51637
247.03        70.13925
247.48        55.41602
247.94        47.96287
248.40        51.79219
248.85        58.68795
249.31        64.39086
249.77         67.9569
250.22        70.00868
250.68        71.55695
251.14        72.68007
251.59        72.87374
252.05        72.13544
252.51        70.72332
252.96        68.70557
253.42        66.74746
253.88        65.46494
254.33        64.84243
254.79        66.33622
255.25        71.06258
255.70         78.1683
256.16        86.28634
256.62         93.1391
257.07        96.20782
257.53        95.77418
257.99        92.95074
258.44        88.74896
258.90        85.43686
259.35        83.08676
259.81        81.90656
260.27        81.06049
260.72        79.86047
261.18        78.59186
261.63        76.94294
262.09        75.76178
262.55        75.55557
263.00        76.10799
263.46        77.24939
263.91        77.89475
264.37        77.23205
264.83        75.26063
265.28        72.37241
265.74        69.72449
266.19        68.35141
266.65        68.47744
267.11         69.4958
267.56        70.62774
268.02        70.81166
268.47        69.81623
268.93        68.03143
269.38        65.89855
269.84        64.35857
270.30        63.65539
270.75        63.49546
271.21         63.5124
271.66        63.13533
272.12        62.22017
272.57        60.94463
273.03        59.59278
273.48        58.47515
273.94        57.75092
274.39        57.26136
274.85        56.84549
275.31        56.19812
275.76        55.23098
276.22        54.07088
276.67         52.9105
277.13        52.18795
277.58        51.86686
278.04        51.85672
278.49         51.7205
278.95        50.97033
279.40        49.51398
279.86        47.68498
280.31        45.84092
280.77          44.674
281.22        44.20207
281.68        44.23418
282.13        44.41124
282.59        44.28276
283.04         43.7158
283.50        42.92591
283.95        42.04336
284.41         41.3252
284.86        40.79934
285.32        40.40151
285.77        40.07842
286.22        39.85163
286.68        39.70026
287.13        39.59212
287.59        39.46769
288.04        39.16832
288.50        38.70402
288.95        38.08263
289.41        37.42323
289.86         36.8287
290.32         36.3919
290.77        36.06838
291.22        35.85819
291.68        35.72217
292.13        35.63636
292.59        35.62859
293.04        35.70031
293.50        35.87893
293.95        36.14486
294.40         36.4732
294.86        36.81697
295.31        37.11551
295.77        37.35943
296.22        37.57011
296.68        37.77808
297.13        38.01447
297.58        38.30244
298.04        38.63796
298.49        39.03181
298.95        39.53979
299.40        40.14137
299.85         40.8195
300.31        41.50281
300.76        42.06983
301.21        42.50132
301.67        42.85965
302.12        43.17809
302.58         43.5842
303.03        44.07744
303.48        44.64558
303.94        45.29145
304.39        45.96917
304.84        46.67111
305.30        47.39626
305.75        48.09178
306.20        48.70979
306.66        49.25789
307.11        49.72031
307.57         50.1396
308.02        50.49475
308.47        50.82207
308.93        51.12588
309.38        51.42888
309.83        51.83007
310.29         52.3307
310.74        52.89151
311.19         53.4071
311.65        53.70476
312.10        53.74329
312.55        53.58088
313.00        53.34484
313.46        53.23203
313.91        53.27612
314.36        53.43802
314.82        53.62148
315.27        53.69898
315.72        53.61907
316.18        53.43985
316.63        53.21492
317.08        53.04375
317.53        52.94859
317.99         52.8868
318.44        52.81357
318.89        52.64523
319.35        52.36288
319.80         52.0007
320.25        51.60962
320.70        51.27047
321.16        50.99996
321.61        50.78424
322.06         50.5769
322.51        50.30805
322.97        49.95028
323.42        49.53366
323.87        49.09297
324.32        48.69373
324.78        48.34377
325.23        48.04153
325.68         47.7309
326.13        47.33004
326.59        46.82555
327.04        46.27946
327.49        45.75603
327.94        45.36446
328.39        45.12744
328.85        44.97987
329.30        44.92269
329.75        44.88038
330.20        44.81527
330.66        44.72559
331.11        44.58686
331.56        44.29459
332.01        43.83997
332.46        43.24384
332.92        42.61372
333.37        42.16861
333.82        41.96791
334.27        41.98214
334.72        42.10074
335.17        42.12041
335.63         41.9654
336.08        41.70057
336.53        41.42796
336.98        41.34105
337.43        41.47822
337.88         41.7697
338.34        42.03443
338.79        42.03638
339.24        41.70126
339.69        41.10487
340.14        40.45333
340.59        40.09032
341.05        40.09428
341.50        40.37244
341.95        40.71387
342.40        40.79004
342.85         40.5288
343.30        40.04783
343.75        39.51506
344.20        39.20067
344.66        39.17327
345.11        39.31278
345.56        39.52451
346.01        39.66013
346.46        39.65934
346.91        39.58209
347.36        39.40749
347.81        39.09108
348.26        38.66032
348.72        38.16232
349.17        37.68801
349.62        37.46534
350.07        37.54143
350.52        37.83227
350.97        38.23277
351.42        38.58252
351.87        38.81048
352.32        38.94184
352.77        38.93378
353.22        38.72573
353.67        38.33467
354.13        37.81062
354.58        37.23572
355.03        36.78737
355.48        36.52065
355.93        36.40359
356.38        36.40473
356.83        36.46082
357.28        36.53004
357.73        36.61057
358.18        36.66109
358.63        36.61625
359.08        36.46032
359.53        36.21051
359.98        35.88554
360.43        35.51997
360.88        35.14025
361.33         34.7509
361.78        34.40659
362.23        34.19234
362.68        34.11773
363.13        34.14955
363.58        34.21104
364.03        34.17992
364.48        34.01667
364.93        33.74489
365.38        33.39135
365.83         33.0147
366.28         32.6445
366.73        32.26898
367.18         31.9019
367.63        31.56164
368.08         31.2562
368.53        31.00002
368.98        30.77716
369.43        30.54997
369.88         30.3124
370.33        30.07294
370.78        29.86122
371.23        29.73217
371.68        29.69416
372.13        29.71893
372.58        29.76859
373.03        29.78299
373.48        29.73707
373.93         29.6437
374.38        29.50294
374.83        29.31694
375.28        29.09135
375.72         28.8142
376.17        28.53675
376.62        28.30144
377.07         28.1262
377.52        28.00938
377.97        27.92139
378.42        27.81081
378.87        27.66599
379.32        27.49855
379.77        27.34523
380.22        27.25964
380.67        27.24673
381.11        27.29016
381.56        27.31929
382.01        27.24166
382.46         27.0348
382.91        26.72145
383.36        26.38574
383.81        26.15383
384.26        26.05285
384.71         26.0587
385.15        26.06592
385.60         25.9201
386.05         25.5977
386.50        25.15462
386.95         24.7424
387.40        24.59613
387.85        24.75076
388.29        25.10779
388.74        25.49471
389.19         25.6529
389.64        25.52842
390.09        25.18963
390.54        24.77986
390.98        24.52226
391.43        24.49211
391.88        24.60375
392.33        24.71842
392.78        24.63741
393.23        24.34403
393.67        23.91426
394.12        23.52134
394.57        23.31876
395.02        23.33615
395.47        23.51017
395.91        23.75167
396.36        23.87886
396.81        23.84438
397.26        23.69688
397.71        23.51025
398.15        23.37704
398.60        23.35141
399.05        23.38713
399.50        23.43092
399.95        23.40986
400.39        23.30829
400.84        23.14538
401.29        22.98599
401.74        22.94619
402.18         23.0535
402.63        23.25638
403.08        23.44571
403.53        23.44703
403.97        23.22973
404.42         22.8671
404.87        22.47924
405.32        22.26474
405.76        22.27226
406.21         22.4372
406.66        22.66774
407.11        22.81849
407.55        22.84743
408.00        22.80396
408.45        22.72025
408.90        22.59262
409.34        22.46419
409.79        22.43508
410.24        22.46754
410.68        22.41114
411.13        22.26446
411.58        22.11852
412.03        21.99741
412.47        21.91015
412.92        21.86437
413.37        21.85164
413.81        21.87981
414.26        21.97586
414.71        22.12555
415.15        22.32337
415.60         22.4846
416.05        22.50324
416.49        22.35554
416.94        22.07897
417.39        21.76044
417.83        21.54223
418.28        21.47086
418.73        21.50186
419.17        21.58031
419.62         21.6076
420.07        21.56144
420.51        21.47721
420.96        21.38647
421.41        21.31329
421.85        21.26129
422.30        21.22823
422.74        21.21672
423.19        21.26887
423.64        21.37494
424.08        21.53583
424.53        21.68021
424.98        21.71737
425.42        21.63015
425.87        21.44877
426.31        21.23596
426.76        21.09713
427.21        21.04836
427.65         21.0519
428.10        21.09575
428.54        21.13783
428.99        21.16789
429.44        21.26883
429.88        21.35632
430.33        21.21615
430.77        20.89642
431.22          20.666
431.66        20.59332
432.11        20.65773
432.56        20.83529
433.00        21.14843
433.45        21.38289
433.89        21.26931
434.34        20.95104
434.78        20.62485
435.23        20.27919
435.67        21.28301
436.12        20.65737
436.57        20.61529
437.01        20.35213
437.46        20.23909
437.90        20.29173
438.35        20.34178
438.79        20.35172
439.24        20.35104
439.68         20.3328
440.13         20.1255
440.57        19.85598
441.02        20.04933
441.46        20.51644
441.91        20.61885
442.35        19.85892
442.80        19.60186
443.24         19.6479
443.69         19.5692
444.13        19.36036
444.58        19.23285
445.02        19.20587
445.47        19.27424
445.91         19.3853
446.36        19.40742
446.80        19.31493
447.24        19.17219
447.69        19.03258
448.13        18.93726
448.58        18.90927
449.02        18.92737
449.47        18.96104
449.91        18.95484
450.36        18.90141
450.80        18.81707
451.25        18.73522
451.69        18.68619
452.13        18.68486
452.58        18.71254
453.02        18.75584
453.47        18.79818
453.91        18.83229
454.36        18.86035
454.80        18.87468
455.24        18.86066
455.69        18.82391
456.13         18.7487
456.58        18.66806
457.02        18.62156
457.46         18.6151
457.91        18.59807
458.35        18.56265
458.79        18.54441
459.24        18.53771
459.68        18.53764
460.13        18.59498
460.57        18.61093
461.01        18.56388
461.46        18.96196
461.90        19.06009
462.34        18.86522
462.79        19.00433
463.23        18.83967
463.68        18.68686
464.12        18.56554
464.56        18.64238
465.01          18.775
465.45        18.90143
465.89        18.94987
466.34        18.91163
466.78         18.7496
467.22        18.54691
467.67        18.56862
468.11        18.78263
468.55         18.8089
468.99         18.6544
469.44        18.63613
469.88        18.75942
470.32        18.83671
470.77        18.84581
471.21        18.84783
471.65        18.84194
472.10        18.81127
472.54        18.77152
472.98        18.78822
473.42        18.86648
473.87        18.93483
474.31        18.97973
474.75        19.09602
475.20        19.23849
475.64        19.20323
476.08        19.04922
476.52        19.03642
476.97        19.17964
477.41        19.35888
477.85        19.51095
478.29        19.59041
478.74        19.58316
479.18        19.47254
479.62        19.34964
480.06        19.36179
480.50        19.50843
480.95        19.65333
481.39        19.74618
481.83        19.80206
482.27        19.81117
482.72          19.772
483.16        19.71408
483.60        19.68558
484.04        19.70362
484.48        19.80555
484.93        20.02119
485.37         20.1259
485.81        20.37718
486.25        20.77303
486.69        21.62912
487.14        21.28922
487.58        20.78925
488.02        21.39439
488.46        20.97094
488.90        21.10612
489.34        21.02425
489.79        21.09526
490.23        21.27695
490.67        21.43531
491.11        21.55914
491.55        21.60592
491.99        21.59263
492.43        21.60813
492.88        21.66829
493.32        21.70735
493.76        21.75486
494.20        21.89112
494.64        22.12461
495.08        22.43056
495.52         22.7509
495.96        23.00321
496.41        23.17147
496.85        23.24826
497.29        23.28366
497.73        23.45276
498.17        23.73763
498.61        23.88917
499.05        23.90572
499.49        24.02391
499.93        24.25447
500.37        24.39973
500.82        24.48546
501.26        24.75016
501.70        25.13767
502.14        25.29828
502.58        25.24169
503.02        25.27506
503.46        25.41341
503.90        25.48368
504.34        25.47963
504.78        25.47773
505.22        25.48484
505.66        25.48645
506.10        25.49813
506.54        25.54013
506.98        25.61762
507.42        25.73247
507.86        25.86447
508.30        25.97722
508.74        26.05933
509.18         26.1123
509.62        26.16276
510.06          26.255
510.50        26.39608
510.94        26.57467
511.38         26.7375
511.82        26.79892
512.26        26.74397
512.70        26.59928
513.14        26.44505
513.58        26.40366
514.02        26.49493
514.46        26.68466
514.90        26.89162
515.34        26.91956
515.78        26.78341
516.22        26.58626
516.66        26.43086
517.10        26.14791
517.54        25.76813
517.98        26.32723
518.42        26.24567
518.86          26.497
519.30        26.59102
519.74        26.68502
520.18        26.76337
520.62        26.78046
521.06        26.75006
521.50        26.66831
521.93        26.54958
522.37        26.42913
522.81        26.32053
523.25        26.22223
523.69        26.14453
524.13        26.09996
524.57        26.08575
525.01        26.09548
525.45        26.11057
525.89        26.09864
526.32        26.05117
526.76        25.98192
527.20        25.89366
527.64        25.79687
528.08        25.69758
528.52        25.58718
528.96        25.49129
529.40        25.44855
529.83        25.45969
530.27        25.52134
530.71        25.57249
531.15        25.51751
531.59        25.34527
532.03        25.09025
532.46        24.83462
532.90        24.72693
533.34        24.78694
533.78        24.96177
534.22        25.16909
534.66        25.28229
535.09        25.26216
535.53        25.15631
535.97        25.00165
536.41        24.85321
536.85        24.73712
537.28        24.65219
537.72        24.60838
538.16         24.5476
538.60        24.58828
539.04        24.62393
539.47        24.67691
539.91        24.78798
540.35        24.96766
540.79        24.99263
541.22        25.16446
541.66        25.27422
542.10        25.43335
542.54        25.23918
542.97        25.39771
543.41        25.49854
543.85        25.73267
544.29        26.01406
544.72         26.2645
545.16        26.44002
545.60        26.51732
546.04        26.43571
546.47         26.3217
546.91        26.53966
547.35        27.04165
547.79        27.45295
548.22        27.68943
548.66         27.8135
549.10        27.86269
549.53        28.04221
549.97         28.3766
550.41        28.38971
550.84        28.61268
551.28        28.75352
551.72        28.97722
552.15        29.19766
552.59          29.412
553.03        29.63419
553.46        29.83158
553.90          29.975
554.34        30.05697
554.77        30.10302
555.21         30.1547
555.65        30.18173
556.08        30.32425
556.52         30.4557
556.96        30.59657
557.39         30.7518
557.83        30.90317
558.27        30.97761
558.70        30.98199
559.14        30.99453
559.57        31.01541
560.01        31.04403
560.45        31.07534
560.88        31.06273
561.32        31.07017
561.75        31.17327
562.19        31.46109
562.63        31.62522
563.06        31.67897
563.50        31.72286
563.93        31.76696
564.37        31.88737
564.80        31.94511
565.24        32.06071
565.68        32.16757
566.11        32.28214
566.55        32.42498
566.98        32.51176
567.42        32.53485
567.85        32.94287
568.29        32.86549
568.72        33.19665
569.16        33.61186
569.60        33.92501
570.03        34.08919
570.47        34.22943
570.90        34.20986
571.34        34.67738
571.77        34.52285
572.21        35.05179
572.64        35.16024
573.08        35.49836
573.51        35.40709
573.95        35.89533
574.38        36.20505
574.82        36.44979
