SpectraSmart Spectrum 2.9.0.0
--------- Device Information -----------
Spectrum Name :  反射率_0
Saving Time :  2024/04/20 00:25:32
Spectro-Module Model Name : SE2030-DUVN
Spectro-Module Serial Number : OS361AC55029948
Wavelength Start : 200
Wavelength End : 1025
Wavelength Unit : Wavelength(nm)
Spectrum Unit : Reflectance(%)
-----------Spectrum Setting ------------
Integration Time : 30ms
Average : 10
Boxcar : 0
Background removal :  enabled
linearity correction :  enabled
SC :  disabled
Intensity correction :  disabled
DWT denoise :  enabled
savitzky-golay :  disabled
FFT :  disabled
Running average :  disabled
Kalman :  disabled
High pass :  disabled
---------------BEGIN--------------------
Wavelength(nm)             Reflectance(%)
200.29               0
200.75        54.04693
201.21        55.10211
201.67        58.17105
202.13        62.97908
202.58        69.09541
203.04        76.66601
203.50        83.38013
203.96        83.92097
204.42        78.57603
204.88        71.08454
205.34        64.44537
205.80        59.73401
206.26        56.06253
206.72        52.16104
207.18        47.98193
207.64        45.85781
208.10        48.10181
208.55        54.18547
209.01        59.78502
209.47        62.00162
209.93        61.18647
210.39        58.47509
210.85        55.42414
211.31         53.7618
211.77        53.71441
212.23        54.92355
212.69        56.91056
213.14        57.89674
213.60        56.79826
214.06        55.31111
214.52        54.37918
214.98        54.56651
215.44        55.72574
215.90        57.34348
216.36         59.4661
216.81        61.85572
217.27        63.87969
217.73        65.65253
218.19        66.00991
218.65        63.28234
219.11        57.25059
219.57        47.89588
220.02        37.30314
220.48        31.55515
220.94        32.80093
221.40        40.21392
221.86        49.68832
222.32        54.69145
222.77        53.71463
223.23        48.82761
223.69        43.69614
224.15        43.48038
224.61        47.97188
225.06        54.22474
225.52        59.38174
225.98        61.12785
226.44        59.55337
226.90        55.79708
227.36         51.2179
227.81        48.19894
228.27        47.81799
228.73        49.02171
229.19        50.79588
229.65         51.9603
230.10        52.27738
230.56         52.2475
231.02        52.12029
231.48        52.18383
231.93        52.44015
232.39        52.73402
232.85        52.91476
233.31        52.82828
233.77        52.45551
234.22        51.90773
234.68        51.28551
235.14        50.64822
235.60        50.09762
236.05        49.65755
236.51        49.50064
236.97        49.88651
237.43         50.9518
237.88         52.9618
238.34        55.67678
238.80        58.30157
239.26         59.9527
239.71         60.3881
240.17        59.92008
240.63        59.86395
241.08        60.66634
241.54        61.99273
242.00        63.05461
242.46        62.26389
242.91        58.75519
243.37        51.65298
243.83        41.46376
244.28         34.6452
244.74        37.82919
245.20        50.14378
245.66        62.36715
246.11        66.15584
246.57        60.56019
247.03        45.86538
247.48        25.93856
247.94        20.99213
248.40        33.20181
248.85        48.15027
249.31        58.77452
249.77        63.57444
250.22          64.134
250.68        62.18097
251.14        58.62101
251.59        55.39539
252.05        54.03915
252.51        54.18328
252.96          55.177
253.42        56.02207
253.88        56.39225
254.33         56.7508
254.79        58.24034
255.25        61.67574
255.70        66.59196
256.16        71.95852
256.62        76.38705
257.07         78.4024
257.53        78.17603
257.99        76.31193
258.44        73.31602
258.90        70.71196
259.35        68.55556
259.81        67.23002
260.27        66.11111
260.72        64.64567
261.18        63.06562
261.63        61.10207
262.09        59.57171
262.55        59.05128
263.00        59.38558
263.46        60.35764
263.91        60.96242
264.37         60.3487
264.83        58.53029
265.28        55.89867
265.74        53.51626
266.19        52.38034
266.65        52.66693
267.11        53.79817
267.56        55.05343
268.02        55.42088
268.47         54.6913
268.93        53.22104
269.38        51.38683
269.84        50.01697
270.30        49.32702
270.75        49.07238
271.21        48.95674
271.66        48.52639
272.12        47.66689
272.57        46.54275
273.03        45.40094
273.48        44.50744
273.94        43.98755
274.39        43.69706
274.85        43.48695
275.31        43.09843
275.76        42.44777
276.22          41.632
276.67        40.78107
277.13         40.2146
277.58         39.9054
278.04        39.79358
278.49        39.57461
278.95        38.91177
279.40        37.74692
279.86        36.33399
280.31        34.92562
280.77        34.03062
281.22        33.65441
281.68        33.65498
282.13        33.78216
282.59        33.72001
283.04        33.37111
283.50        32.88508
283.95        32.32135
284.41        31.81436
284.86        31.38192
285.32        31.00029
285.77        30.68448
286.22        30.54079
286.68          30.564
287.13        30.69798
287.59        30.83728
288.04        30.78469
288.50        30.53126
288.95        30.10276
289.41        29.63292
289.86        29.25026
290.32         29.0461
290.77        28.97035
291.22        28.99109
291.68        29.02625
292.13        29.05371
292.59        29.11109
293.04        29.25299
293.50        29.58056
293.95        30.08669
294.40        30.71834
294.86        31.36242
295.31        31.85681
295.77        32.16786
296.22        32.34531
296.68        32.48063
297.13        32.70366
297.58        33.06451
298.04        33.52917
298.49        34.05146
298.95         34.5982
299.40        35.12844
299.85         35.6492
300.31        36.14557
300.76        36.58548
301.21        36.96255
301.67        37.30608
302.12        37.58033
302.58        37.80269
303.03         37.9599
303.48        38.07244
303.94        38.22601
304.39         38.5068
304.84        38.93076
305.30        39.45638
305.75        39.94947
306.20        40.22839
306.66        40.28107
307.11        40.15581
307.57        39.98036
308.02        39.87226
308.47        39.89043
308.93        39.98196
309.38        40.11771
309.83        40.30572
310.29        40.51933
310.74        40.76117
311.19        40.93071
311.65        40.86313
312.10        40.54073
312.55        40.02157
313.00        39.47848
313.46        39.18036
313.91        39.16872
314.36        39.37741
314.82        39.65491
315.27        39.77375
315.72        39.65366
316.18        39.37424
316.63        39.01858
317.08        38.72479
317.53        38.53041
317.99         38.3813
318.44        38.23825
318.89        38.03274
319.35        37.74991
319.80        37.42541
320.25        37.09554
320.70        36.81191
321.16        36.58266
321.61         36.3906
322.06        36.20657
322.51        35.98945
322.97        35.71902
323.42         35.4161
323.87        35.08264
324.32        34.72909
324.78        34.35878
325.23        33.98059
325.68        33.60344
326.13        33.24909
326.59        32.92848
327.04         32.6683
327.49        32.45797
327.94        32.27915
328.39        32.12421
328.85        31.97209
329.30        31.87857
329.75        31.88984
330.20        32.00018
330.66        32.16037
331.11        32.29664
331.56        32.24005
332.01        31.95311
332.46        31.47784
332.92        30.91384
333.37        30.44883
333.82         30.1511
334.27        29.99776
334.72        29.92853
335.17        29.83016
335.63        29.65895
336.08        29.45776
336.53        29.29445
336.98        29.28819
337.43        29.45341
337.88        29.74251
338.34        29.99387
338.79        29.99859
339.24        29.69532
339.69        29.14713
340.14        28.55707
340.59        28.26806
341.05         28.3494
341.50         28.7021
341.95        29.11392
342.40         29.2525
342.85        29.04411
343.30        28.61364
343.75        28.10554
344.20        27.75388
344.66        27.62673
345.11         27.6131
345.56        27.68601
346.01        27.80335
346.46        27.92042
346.91        28.06515
347.36        28.11645
347.81        27.87613
348.26        27.34295
348.72        26.61197
349.17        25.87957
349.62        25.55346
350.07         25.7273
350.52        26.26171
350.97        26.94834
351.42        27.47262
351.87        27.73037
352.32        27.79657
352.77        27.70972
353.22        27.53713
353.67        27.31853
354.13        27.04528
354.58        26.72594
355.03        26.42324
355.48        26.16475
355.93        25.96477
356.38        25.83447
356.83        25.77379
357.28        25.76887
357.73        25.80095
358.18        25.84127
358.63        25.84507
359.08        25.79169
359.53        25.69104
359.98          25.524
360.43        25.26418
360.88        24.92563
361.33        24.52995
361.78        24.15473
362.23        23.92685
362.68        23.86925
363.13        23.93228
363.58        24.04194
364.03        24.08134
364.48        24.00821
364.93        23.85141
365.38        23.61095
365.83        23.29422
366.28        22.92707
366.73        22.51977
367.18        22.13057
367.63        21.85129
368.08         21.6987
368.53        21.64508
368.98        21.64885
369.43        21.63594
369.88        21.58139
370.33        21.51101
370.78        21.40769
371.23        21.24743
371.68        21.03709
372.13        20.77463
372.58        20.54027
373.03        20.47368
373.48        20.59085
373.93        20.83811
374.38        21.08874
374.83        21.14756
375.28         20.9717
375.72         20.6147
376.17        20.18924
376.62        19.83939
377.07        19.62299
377.52        19.50088
377.97         19.4508
378.42        19.43733
378.87        19.43697
379.32        19.45689
379.77        19.48406
380.22        19.49142
380.67        19.47194
381.11        19.43388
381.56        19.35422
382.01        19.22142
382.46        19.03951
382.91        18.80649
383.36        18.58858
383.81        18.48338
384.26        18.50302
384.71         18.6302
385.15        18.74681
385.60        18.67269
386.05        18.38242
386.50        17.93464
386.95        17.49636
387.40         17.3327
387.85        17.48428
388.29        17.84535
388.74         18.2303
389.19        18.37335
389.64        18.22124
390.09        17.85911
390.54        17.42182
390.98        17.11925
391.43        17.02925
391.88        17.07265
392.33        17.15723
392.78        17.15197
393.23        17.03307
393.67        16.84224
394.12        16.66961
394.57        16.57738
395.02        16.57858
395.47        16.64018
395.91        16.71738
396.36        16.71934
396.81        16.63016
397.26        16.47564
397.71        16.30898
398.15        16.19353
398.60        16.16559
399.05        16.19732
399.50        16.23754
399.95        16.21273
400.39        16.10668
400.84        15.93511
401.29        15.76583
401.74        15.72306
402.18        15.83705
402.63        16.05787
403.08        16.26963
403.53        16.28829
403.97        16.08219
404.42        15.72407
404.87        15.34653
405.32        15.16739
405.76        15.23661
406.21        15.47946
406.66        15.78229
407.11        15.96715
407.55        15.98518
408.00        15.89467
408.45        15.74862
408.90        15.59978
409.34         15.4972
409.79        15.48915
410.24        15.53805
410.68        15.52407
411.13        15.43996
411.58        15.36112
412.03        15.29377
412.47        15.22332
412.92         15.1544
413.37        15.08336
413.81        15.04741
414.26        15.11868
414.71        15.29278
415.15        15.54984
415.60        15.78128
416.05        15.83405
416.49        15.67219
416.94        15.35276
417.39        14.98062
417.83        14.72747
418.28        14.64962
418.73        14.69068
419.17        14.79688
419.62        14.86949
420.07        14.88055
420.51         14.8634
420.96        14.82738
421.41        14.76573
421.85        14.68156
422.30        14.58349
422.74        14.49794
423.19        14.49453
423.64        14.57463
424.08        14.72751
424.53        14.88927
424.98        14.97029
425.42        14.94627
425.87        14.84667
426.31        14.70911
426.76         14.6016
427.21        14.53491
427.65        14.48042
428.10        14.45303
428.54        14.45565
428.99        14.48731
429.44        14.61556
429.88        14.74987
430.33        14.64606
430.77        14.35622
431.22        14.17513
431.66        14.15579
432.11        14.21968
432.56         14.3506
433.00        14.60746
433.45        14.83269
433.89        14.79286
434.34        14.57601
434.78        14.33612
435.23        14.06873
435.67        14.72088
436.12        14.23665
436.57        14.14753
437.01        13.91724
437.46        13.83393
437.90        13.91173
438.35        14.02257
438.79        14.11501
439.24        14.17019
439.68        14.17091
440.13        14.00912
440.57        13.77969
441.02        13.85598
441.46        14.11395
441.91         14.1153
442.35        13.53988
442.80        13.34678
443.24        13.39735
443.69         13.3961
444.13        13.31737
444.58        13.27322
445.02        13.26519
445.47        13.29618
445.91        13.34256
446.36        13.33692
446.80         13.2666
447.24        13.16806
447.69        13.06641
448.13        12.96961
448.58        12.89351
449.02        12.83551
449.47        12.79138
449.91        12.74757
450.36        12.70675
450.80        12.67096
451.25          12.657
451.69        12.67494
452.13        12.72763
452.58        12.79893
453.02        12.87316
453.47        12.92563
453.91        12.95056
454.36         12.9532
454.80        12.93227
455.24        12.88804
455.69         12.8316
456.13        12.75205
456.58        12.68138
457.02        12.65861
457.46        12.68704
457.91        12.72522
458.35        12.75367
458.79        12.77091
459.24        12.76861
459.68         12.7492
460.13        12.75915
460.57        12.74558
461.01        12.70166
461.46        12.96854
461.90        13.03594
462.34        12.90139
462.79        12.99299
463.23        12.87668
463.68        12.77209
464.12        12.69413
464.56         12.7576
465.01         12.8606
465.45        12.95766
465.89        12.99344
466.34        12.96208
466.78          12.843
467.22        12.69411
467.67         12.6994
468.11        12.83787
468.55        12.84678
468.99        12.74019
469.44        12.74819
469.88        12.87529
470.32        12.98948
470.77        13.04979
471.21        13.06093
471.65         13.0155
472.10        12.91497
472.54        12.80299
472.98        12.78192
473.42        12.86748
473.87        12.99158
474.31        13.11089
474.75        13.23611
475.20        13.32485
475.64        13.25473
476.08        13.09359
476.52        13.06116
476.97        13.17628
477.41        13.34133
477.85        13.49665
478.29        13.58568
478.74        13.58929
479.18        13.50371
479.62        13.39603
480.06        13.37434
480.50        13.44182
480.95        13.50222
481.39        13.52663
481.83        13.53604
482.27        13.52813
482.72        13.50061
483.16        13.47158
483.60        13.48444
484.04        13.54317
484.48         13.6532
484.93        13.86877
485.37        14.01302
485.81        14.12046
486.25        14.52734
486.69         14.8643
487.14        14.18826
487.58        14.25008
488.02        15.04475
488.46        14.76265
488.90        14.85206
489.34        14.63501
489.79        14.71665
490.23        15.04036
490.67        15.25096
491.11        15.30087
491.55        15.20992
491.99        15.03569
492.43        14.95919
492.88        15.01532
493.32        15.07211
493.76        15.13315
494.20        15.27353
494.64        15.48961
495.08        15.74684
495.52        16.00942
495.96        16.23782
496.41        16.41804
496.85        16.52878
497.29        16.58887
497.73        16.71145
498.17         16.8826
498.61        16.92526
499.05        16.87442
499.49        16.95849
499.93        17.19602
500.37         17.4283
500.82        17.62388
501.26        17.87969
501.70         18.1378
502.14        18.16794
502.58        18.02176
503.02        17.98848
503.46        18.09553
503.90         18.1981
504.34        18.26101
504.78        18.28879
505.22        18.27403
505.66        18.22791
506.10        18.18269
506.54        18.18458
506.98        18.24751
507.42        18.35885
507.86        18.50043
508.30        18.64178
508.74        18.76774
509.18        18.88025
509.62        18.98162
510.06        19.07636
510.50        19.16657
510.94        19.25278
511.38        19.31988
511.82        19.34628
512.26        19.33128
512.70        19.28054
513.14        19.23594
513.58        19.25939
514.02        19.35334
514.46        19.50014
514.90        19.64106
515.34        19.62471
515.78        19.45914
516.22        19.26184
516.66        19.12255
517.10        18.83224
517.54        18.41621
517.98        19.02062
518.42        18.91984
518.86         19.1971
519.30        19.31688
519.74        19.44872
520.18           19.56
520.62        19.57776
521.06        19.51484
521.50        19.37464
521.93        19.20093
522.37        19.07666
522.81         19.0234
523.25        19.02286
523.69        19.05022
524.13        19.06355
524.57        19.04729
525.01        19.01204
525.45         18.9652
525.89        18.91693
526.32        18.87023
526.76        18.82314
527.20        18.76422
527.64         18.6813
528.08         18.5743
528.52         18.4469
528.96        18.32722
529.40        18.25584
529.83         18.2375
530.27        18.26425
530.71        18.28933
531.15        18.23942
531.59        18.10462
532.03        17.91183
532.46        17.71744
532.90        17.62629
533.34        17.65062
533.78         17.7506
534.22        17.87279
534.66        17.93528
535.09        17.91165
535.53        17.83681
535.97        17.72494
536.41        17.59538
536.85        17.46552
537.28        17.34071
537.72        17.25494
538.16        17.20889
538.60        17.29167
539.04        17.41391
539.47        17.55476
539.91        17.68718
540.35        17.80631
540.79        17.76871
541.22        17.82291
541.66        17.87221
542.10        18.00932
542.54        17.93404
542.97        18.11695
543.41        18.22016
543.85        18.36911
544.29        18.51803
544.72          18.645
545.16        18.76885
545.60        18.88276
546.04         18.9254
546.47        18.94835
546.91        19.15844
547.35        19.50838
547.79        19.73515
548.22        19.81935
548.66         19.8923
549.10        19.98112
549.53        20.15297
549.97        20.41582
550.41        20.46465
550.84        20.67591
551.28         20.8095
551.72        20.99657
552.15        21.21176
552.59        21.45327
553.03        21.71448
553.46        21.94696
553.90        22.09946
554.34        22.16349
554.77        22.15823
555.21        22.13596
555.65        22.16792
556.08        22.26944
556.52        22.41806
556.96        22.58291
557.39        22.74441
557.83        22.88117
558.27        22.94615
558.70         22.9584
559.14        22.99338
559.57         23.0533
560.01        23.12867
560.45        23.19671
560.88        23.19417
561.32        23.16728
561.75        23.18632
562.19        23.33807
562.63         23.4238
563.06        23.46283
563.50        23.51995
563.93        23.59559
564.37        23.73371
564.80        23.82316
565.24        23.95572
565.68        24.07535
566.11        24.17863
566.55         24.2798
566.98        24.33507
567.42         24.3465
567.85        24.62577
568.29        24.54303
568.72        24.84184
569.16        25.25557
569.60        25.53956
570.03         25.6592
570.47        25.75692
570.90          25.727
571.34        26.07633
571.77        25.97838
572.21        26.19601
572.64        26.34112
573.08         26.5273
573.51        26.76089
573.95        27.22545
574.38         27.3255
574.82        27.51239
