SpectraSmart Spectrum 2.9.0.0
--------- Device Information -----------
Spectrum Name :  反射率_0
Saving Time :  2024/04/20 00:57:16
Spectro-Module Model Name : SE2030-DUVN
Spectro-Module Serial Number : OS361AC55029948
Wavelength Start : 200
Wavelength End : 1025
Wavelength Unit : Wavelength(nm)
Spectrum Unit : Reflectance(%)
-----------Spectrum Setting ------------
Integration Time : 30ms
Average : 10
Boxcar : 0
Background removal :  enabled
linearity correction :  enabled
SC :  disabled
Intensity correction :  disabled
DWT denoise :  enabled
savitzky-golay :  disabled
FFT :  disabled
Running average :  disabled
Kalman :  disabled
High pass :  disabled
---------------BEGIN--------------------
Wavelength(nm)             Reflectance(%)
200.29               0
200.75        50.41538
201.21        48.99559
201.67        49.31633
202.13        52.80619
202.58        60.02448
203.04        71.22862
203.50        83.43045
203.96        88.25411
204.42        84.35311
204.88        76.58836
205.34        68.92595
205.80        63.03172
206.26        57.98021
206.72        51.88478
207.18        44.80682
207.64        41.24218
208.10        45.34905
208.55        55.70846
209.01        65.22433
209.47        68.54288
209.93        66.34454
210.39        60.87348
210.85        54.83224
211.31        51.04193
211.77        49.83817
212.23        50.44544
212.69        52.36478
213.14        53.80292
213.60        53.43388
214.06        52.79951
214.52        52.71249
214.98        53.81068
215.44        56.05291
215.90        58.94442
216.36        62.37808
216.81        65.59088
217.27        67.65269
217.73        68.85721
218.19        68.37779
218.65        64.98158
219.11        58.55781
219.57        48.98627
220.02        38.28367
220.48        32.39334
220.94        33.40435
221.40        40.55844
221.86        49.83014
222.32        54.74253
222.77        53.82227
223.23        49.17633
223.69        44.29569
224.15        44.11766
224.61        48.45204
225.06        54.39884
225.52        59.41909
225.98        61.56511
226.44        60.87483
226.90        58.33743
227.36        54.84548
227.81         51.9005
228.27        50.51319
228.73        50.19404
229.19        50.49501
229.65        50.87052
230.10        51.13015
230.56         51.4115
231.02        51.93167
231.48        52.97963
231.93        54.43983
232.39        56.14722
232.85        57.50788
233.31        57.65645
233.77         56.4803
234.22        54.28917
234.68        51.79577
235.14        50.17944
235.60         49.8489
236.05        50.51203
236.51         51.7376
236.97        52.84575
237.43        53.66312
237.88        54.57155
238.34         55.5179
238.80         56.6514
239.26        57.79744
239.71        58.52212
240.17        58.68442
240.63        58.81949
241.08        59.11398
241.54        59.50483
242.00        59.35565
242.46        57.22604
242.91        52.24812
243.37        43.26884
243.83        30.65978
244.28        21.66163
244.74        24.27147
245.20        37.98364
245.66        52.72139
246.11        59.31351
246.57        57.11233
247.03        47.18391
247.48         32.9099
247.94        30.52231
248.40        41.14201
248.85        53.13956
249.31        61.54844
249.77        65.67624
250.22        66.76824
250.68        66.16472
251.14        64.21502
251.59        61.45561
252.05        58.66254
252.51        55.83086
252.96        53.18025
253.42        51.38473
253.88        50.76406
254.33        51.35342
254.79        53.62326
255.25        57.62214
255.70        62.78671
256.16          68.347
256.62        73.02343
257.07        75.46816
257.53        75.79574
257.99        74.41321
258.44        71.80793
258.90        69.48697
259.35         67.4744
259.81        66.19599
260.27        64.96466
260.72        63.13623
261.18        61.01102
261.63        58.43569
262.09        56.39375
262.55        55.71395
263.00        56.25052
263.46        57.61955
263.91        58.70123
264.37        58.50858
264.83        57.01403
265.28        54.63322
265.74        52.39587
266.19        51.25818
266.65        51.40953
267.11        52.30939
267.56        53.29417
268.02        53.42301
268.47        52.51678
268.93         50.9292
269.38         49.0495
269.84         47.7194
270.30        47.15006
270.75        47.08278
271.21        47.20095
271.66        47.02507
272.12        46.41754
272.57        45.53106
273.03        44.56778
273.48        43.73536
273.94        43.15366
274.39        42.70457
274.85         42.3027
275.31        41.78007
275.76        41.08119
276.22         40.2925
276.67        39.50639
277.13        38.97794
277.58        38.67109
278.04        38.54077
278.49        38.33384
278.95        37.78474
279.40        36.82728
279.86        35.66402
280.31        34.46875
280.77        33.64079
281.22         33.1766
281.68        32.98896
282.13        32.88546
282.59        32.63388
283.04        32.17006
283.50        31.61953
283.95        31.05397
284.41        30.62025
284.86        30.32658
285.32        30.14219
285.77        30.02542
286.22        29.99256
286.68        30.01887
287.13        30.06621
287.59        30.08937
288.04        29.98577
288.50        29.76069
288.95        29.41144
289.41        29.00886
289.86        28.58326
290.32        28.21431
290.77        27.89983
291.22        27.68355
291.68        27.59028
292.13        27.62419
292.59        27.78871
293.04        28.09209
293.50        28.56103
293.95        29.16796
294.40        29.88457
294.86        30.62132
295.31        31.25208
295.77        31.75336
296.22        32.15786
296.68        32.54347
297.13        33.02187
297.58        33.63216
298.04        34.34113
298.49        35.10397
298.95        35.89083
299.40        36.66202
299.85        37.42563
300.31        38.15939
300.76        38.81834
301.21         39.4001
301.67        39.94458
302.12        40.44044
302.58        40.94522
303.03        41.44893
303.48        41.95866
303.94        42.53085
304.39        43.20332
304.84        43.97571
305.30        44.81149
305.75        45.58756
306.20        46.14687
306.66        46.48132
307.11        46.62588
307.57         46.6885
308.02        46.75039
308.47        46.87331
308.93        47.02451
309.38        47.21042
309.83        47.49876
310.29        47.87531
310.74        48.32034
311.19        48.69904
311.65        48.79081
312.10        48.55754
312.55        48.07162
313.00        47.52899
313.46        47.23388
313.91        47.23999
314.36        47.47813
314.82         47.7761
315.27        47.87629
315.72        47.69554
316.18        47.32832
316.63        46.90036
317.08        46.61803
317.53        46.52483
317.99        46.53876
318.44        46.55554
318.89        46.39893
319.35        46.02675
319.80        45.50874
320.25        44.94053
320.70        44.47054
321.16        44.13905
321.61        43.90982
322.06        43.72308
322.51        43.48641
322.97        43.16323
323.42        42.79298
323.87        42.40582
324.32        42.05474
324.78        41.74865
325.23        41.48319
325.68        41.21688
326.13        40.89455
326.59        40.50619
327.04        40.09712
327.49        39.71657
327.94        39.44912
328.39        39.30721
328.85        39.23378
329.30        39.21691
329.75        39.17116
330.20        39.06143
330.66         38.8923
331.11        38.66463
331.56        38.31863
332.01        37.85665
332.46        37.29122
332.92        36.71188
333.37         36.2937
333.82        36.08626
334.27         36.0741
334.72        36.15678
335.17        36.14897
335.63        35.98447
336.08        35.71496
336.53        35.45206
336.98        35.40356
337.43          35.606
337.88        35.98571
338.34        36.33539
338.79        36.37309
339.24        36.01735
339.69        35.35823
340.14        34.63349
340.59        34.24183
341.05        34.27527
341.50        34.62097
341.95        35.04799
342.40        35.19648
342.85        34.98281
343.30        34.53637
343.75         34.0175
344.20        33.68404
344.66        33.60587
345.11        33.66327
345.56        33.79165
346.01        33.89185
346.46         33.9133
346.91        33.90564
347.36        33.80518
347.81        33.50058
348.26        33.00561
348.72        32.38386
349.17        31.77663
349.62        31.49854
350.07        31.61493
350.52        32.01429
350.97          32.526
351.42        32.89093
351.87        33.02307
352.32        32.98549
352.77        32.80325
353.22        32.52274
353.67        32.18532
354.13        31.80056
354.58        31.40046
355.03         31.0815
355.48        30.87448
355.93         30.7747
356.38        30.76769
356.83        30.81646
357.28        30.89083
357.73        30.97607
358.18        31.04102
358.63        31.03996
359.08         30.9568
359.53        30.80452
359.98        30.57462
360.43        30.25848
360.88        29.87496
361.33         29.4402
361.78        29.03712
362.23        28.79819
362.68        28.74393
363.13        28.82591
363.58        28.94341
364.03        28.93646
364.48        28.75909
364.93        28.45345
365.38        28.06398
365.83        27.67648
366.28         27.3308
366.73        27.00354
367.18        26.70865
367.63        26.46653
368.08        26.27572
368.53        26.14232
368.98        26.02825
369.43        25.86255
369.88        25.63421
370.33        25.36498
370.78        25.09773
371.23        24.91207
371.68        24.82899
372.13        24.81337
372.58        24.84354
373.03        24.88429
373.48         24.9078
373.93        24.91668
374.38        24.87009
374.83        24.70607
375.28        24.42133
375.72        24.02855
376.17        23.61683
376.62        23.29263
377.07        23.09443
377.52         22.9986
377.97        22.96916
378.42        22.94307
378.87        22.89603
379.32        22.84234
379.77        22.78811
380.22        22.74057
380.67        22.69938
381.11        22.65821
381.56        22.59208
382.01         22.4857
382.46        22.33623
382.91        22.14617
383.36         21.9518
383.81        21.80407
384.26        21.71379
384.71        21.67967
385.15         21.6399
385.60        21.50481
386.05        21.26256
386.50        20.94027
386.95        20.64568
387.40        20.54793
387.85         20.6674
388.29        20.93528
388.74        21.20873
389.19        21.27541
389.64        21.09719
390.09        20.73622
390.54        20.32603
390.98        20.07544
391.43        20.05287
391.88        20.17524
392.33        20.32006
392.78        20.31168
393.23        20.12465
393.67         19.8175
394.12         19.5197
394.57        19.33776
395.02         19.2965
395.47        19.35458
395.91        19.45171
396.36        19.46568
396.81        19.37286
397.26         19.2059
397.71          19.039
398.15        18.96489
398.60        19.01961
399.05        19.15384
399.50        19.28073
399.95        19.27744
400.39        19.12168
400.84        18.84937
401.29        18.55738
401.74        18.42321
402.18        18.50066
402.63        18.72669
403.08        18.98069
403.53        19.06885
403.97        18.94824
404.42        18.69013
404.87        18.40616
405.32        18.28039
405.76        18.35266
406.21        18.55435
406.66        18.78585
407.11        18.89372
407.55        18.83974
408.00        18.68167
408.45        18.47334
408.90        18.26154
409.34         18.1021
409.79        18.06264
410.24        18.10692
410.68        18.10258
411.13        18.03939
411.58        17.99577
412.03        17.96734
412.47        17.91936
412.92        17.85021
413.37        17.76156
413.81        17.69925
414.26        17.75028
414.71        17.91631
415.15        18.17657
415.60        18.41923
416.05        18.48789
416.49        18.34315
416.94        18.03744
417.39          17.682
417.83         17.4572
418.28        17.41888
418.73        17.51056
419.17        17.64995
419.62        17.69689
420.07        17.62114
420.51        17.46973
420.96        17.30875
421.41        17.21736
421.85        17.21001
422.30        17.26674
422.74        17.34416
423.19        17.41122
423.64        17.44775
424.08        17.47324
424.53        17.47943
424.98        17.48225
425.42        17.48947
425.87        17.49508
426.31        17.48483
426.76        17.44777
427.21        17.37308
427.65        17.26053
428.10        17.15384
428.54        17.10097
428.99        17.11884
429.44        17.26696
429.88        17.43983
430.33        17.35672
430.77        17.07088
431.22         16.9303
431.66         16.9748
432.11        17.06708
432.56        17.17862
433.00         17.3904
433.45        17.54373
433.89        17.42098
434.34        17.14969
434.78        16.90021
435.23        16.64494
435.67        17.46378
436.12         16.9157
436.57        16.85861
437.01        16.64437
437.46        16.56408
437.90        16.63255
438.35        16.72466
438.79        16.79016
439.24        16.81544
439.68        16.78822
440.13        16.57775
440.57        16.30998
441.02        16.44771
441.46        16.84165
441.91        16.95636
442.35        16.36111
442.80        16.15429
443.24        16.16662
443.69        16.05772
444.13        15.83323
444.58        15.68421
445.02        15.63219
445.47        15.66688
445.91        15.74632
446.36        15.76592
446.80        15.70155
447.24        15.60396
447.69        15.50595
448.13        15.42185
448.58        15.36883
449.02          15.337
449.47        15.31246
449.91         15.2688
450.36        15.20629
450.80        15.13079
451.25        15.07026
451.69        15.04978
452.13        15.07695
452.58        15.13313
453.02        15.19362
453.47        15.22025
453.91        15.20535
454.36        15.16084
454.80        15.09654
455.24        15.03014
455.69         14.9773
456.13        14.91636
456.58        14.87285
457.02        14.87622
457.46        14.92429
457.91        14.97265
458.35         14.9973
458.79        14.99789
459.24        14.96668
459.68        14.90816
460.13        14.88231
460.57        14.83951
461.01        14.77405
461.46        15.08173
461.90        15.16362
462.34        15.01009
462.79        15.11637
463.23        14.98028
463.68        14.85705
464.12        14.76523
464.56        14.83863
465.01        14.95895
465.45        15.07431
465.89        15.12434
466.34         15.1013
466.78        14.97671
467.22        14.81691
467.67        14.83418
468.11        15.00268
468.55        15.01813
468.99        14.88795
469.44        14.86751
469.88        14.96216
470.32        15.02336
470.77         15.0292
471.21         15.0227
471.65        15.00231
472.10        14.95759
472.54        14.90935
472.98        14.92568
473.42        15.01239
473.87        15.10536
474.31        15.18085
474.75        15.29358
475.20        15.40352
475.64        15.35484
476.08        15.20524
476.52         15.1784
476.97        15.29035
477.41        15.44037
477.85        15.57437
478.29        15.65057
478.74        15.65336
479.18        15.56816
479.62         15.4663
480.06        15.46298
480.50        15.55758
480.95        15.64564
481.39        15.68502
481.83         15.6808
482.27        15.63085
482.72        15.54796
483.16        15.47265
483.60         15.4591
484.04        15.52071
484.48         15.7008
484.93        16.01748
485.37        16.19169
485.81         16.4249
486.25        16.95195
486.69         17.8096
487.14        17.34369
487.58         16.8379
488.02        17.38202
488.46        17.01076
488.90        17.10042
489.34        16.91916
489.79        17.04378
490.23        17.38909
490.67        17.59423
491.11        17.62888
491.55        17.55582
491.99        17.42612
492.43        17.35515
492.88        17.37935
493.32        17.42147
493.76        17.49739
494.20        17.66833
494.64        17.93186
495.08        18.26128
495.52        18.60057
495.96        18.87567
496.41        19.06563
496.85        19.15206
497.29        19.17583
497.73        19.29789
498.17        19.50858
498.61        19.59469
499.05        19.57638
499.49        19.68489
499.93        19.93497
500.37        20.15563
500.82          20.332
501.26        20.60709
501.70        20.92181
502.14        20.99791
502.58        20.88199
503.02        20.88977
503.46         21.0458
503.90        21.18786
504.34        21.27094
504.78        21.29395
505.22        21.24935
505.66        21.15103
506.10        21.05149
506.54        21.02715
506.98        21.09938
507.42        21.25347
507.86        21.45351
508.30        21.61413
508.74        21.74986
509.18         21.8398
509.62        21.91362
510.06        22.00048
510.50        22.10831
510.94          22.228
511.38        22.32781
511.82        22.36091
512.26        22.32159
512.70        22.22663
513.14         22.1344
513.58        22.13151
514.02        22.22687
514.46        22.39395
514.90        22.56602
515.34        22.57534
515.78        22.43207
516.22        22.24799
516.66        22.10933
517.10        21.80976
517.54         21.3754
517.98        21.91203
518.42        21.76996
518.86        22.01674
519.30        22.13952
519.74        22.29477
520.18        22.43535
520.62        22.46482
521.06        22.38925
521.50        22.22102
521.93        22.01232
522.37        21.85979
522.81        21.79073
523.25        21.78243
523.69        21.81097
524.13         21.8359
524.57        21.84044
525.01        21.83516
525.45        21.82041
525.89        21.79464
526.32        21.75716
526.76         21.7066
527.20        21.63864
527.64        21.55394
528.08        21.45477
528.52        21.34149
528.96        21.23203
529.40        21.15066
529.83        21.10111
530.27        21.08452
530.71        21.06825
531.15        21.00149
531.59        20.87901
532.03        20.71807
532.46        20.56546
532.90        20.51183
533.34         20.5626
533.78         20.6823
534.22        20.81226
534.66          20.863
535.09         20.8091
535.53        20.68827
535.97        20.53044
536.41        20.38046
536.85        20.26078
537.28        20.17153
537.72        20.12919
538.16         20.0967
538.60        20.17029
539.04        20.25791
539.47        20.35783
539.91         20.4739
540.35        20.60925
540.79        20.58657
541.22        20.67906
541.66        20.75288
542.10        20.90829
542.54        20.80362
542.97        20.99313
543.41          21.096
543.85        21.26185
544.29        21.43524
544.72         21.5827
545.16        21.71462
545.60        21.82126
546.04        21.83505
546.47        21.83134
546.91        22.07052
547.35        22.50072
547.79         22.8152
548.22        22.96506
548.66        23.05233
549.10        23.10822
549.53        23.25045
549.97        23.50341
550.41        23.51973
550.84        23.74133
551.28        23.89913
551.72         24.1322
552.15        24.38396
552.59        24.64713
553.03        24.92361
553.46        25.16611
553.90        25.32786
554.34        25.39972
554.77         25.4024
555.21        25.39054
555.65        25.42521
556.08        25.51817
556.52        25.70466
556.96        25.85265
557.39        26.02508
557.83        26.17188
558.27        26.24654
558.70        26.26404
559.14        26.30225
559.57        26.36084
560.01        26.42561
560.45        26.49374
560.88        26.51366
561.32        26.53415
561.75         26.6703
562.19        26.96815
562.63        27.00892
563.06        26.85655
563.50        26.85174
563.93        26.99683
564.37        27.14007
564.80        27.15681
565.24        27.27902
565.68        27.43925
566.11         27.5679
566.55        27.67698
566.98        27.73248
567.42        27.73861
567.85        28.06103
568.29        27.97939
568.72        28.32084
569.16        28.79576
569.60        29.12992
570.03        29.27444
570.47        29.43148
570.90        29.49388
571.34         29.7385
571.77        29.86405
572.21        30.09561
572.64        30.26964
573.08        30.61253
573.51        30.56767
573.95        30.76738
574.38        31.43432
574.82        31.76934
