SpectraSmart Spectrum 2.9.0.0
--------- Device Information -----------
Spectrum Name :  反射率_0
Saving Time :  2024/04/27 00:44:02
Spectro-Module Model Name : SE2030-DUVN
Spectro-Module Serial Number : OS361AC55029948
Wavelength Start : 200
Wavelength End : 1025
Wavelength Unit : Wavelength(nm)
Spectrum Unit : Reflectance(%)
-----------Spectrum Setting ------------
Integration Time : 20ms
Average : 10
Boxcar : 0
Background removal :  enabled
linearity correction :  enabled
SC :  disabled
Intensity correction :  disabled
DWT denoise :  enabled
savitzky-golay :  disabled
FFT :  disabled
Running average :  disabled
Kalman :  disabled
High pass :  disabled
---------------BEGIN--------------------
Wavelength(nm)             Reflectance(%)
200.29               0
200.75        44.23508
201.21        39.91732
201.67         36.2173
202.13        34.02333
202.58        33.15212
203.04        33.63342
203.50         35.3189
203.96        37.31061
204.42        38.96646
204.88         40.2455
205.34        41.64271
205.80        44.27156
206.26        47.69084
206.72        50.48112
207.18        51.97589
207.64         51.8385
208.10        50.12828
208.55        47.33171
209.01        42.19678
209.47        35.68214
209.93        31.32133
210.39        29.68523
210.85        30.29082
211.31        32.99418
211.77        38.75067
212.23        51.90294
212.69        84.67263
213.14        139.7314
213.60        136.8057
214.06        96.86223
214.52        69.82142
214.98        57.59332
215.44        52.12356
215.90        48.74323
216.36        46.46161
216.81        44.36073
217.27        42.31766
217.73        41.14316
218.19        40.48695
218.65        39.12448
219.11        37.70409
219.57        36.73195
220.02        37.39504
220.48        41.43256
220.94        49.37843
221.40        62.63988
221.86         81.1005
222.32        93.43829
222.77        89.22182
223.23        76.04702
223.69        62.36953
224.15        52.90268
224.61        47.18645
225.06          43.361
225.52        41.19925
225.98        40.34991
226.44        40.47702
226.90        41.55827
227.36        43.01902
227.81         43.7863
228.27         43.6729
228.73        42.81031
229.19        41.84718
229.65         41.5932
230.10        42.06906
230.56        43.04447
231.02        43.79559
231.48        43.24138
231.93        41.33253
232.39        38.85184
232.85        36.69522
233.31        36.02385
233.77        36.91443
234.22        38.98046
234.68        41.47789
235.14        43.35686
235.60        44.29905
236.05        44.60303
236.51        44.62257
236.97        45.09545
237.43        46.27338
237.88         47.8569
238.34        49.55983
238.80         51.2606
239.26        53.02388
239.71        55.47246
240.17        58.30847
240.63        60.91972
241.08         62.9929
241.54           63.88
242.00        65.31083
242.46        71.28249
242.91        85.02628
243.37        109.2725
243.83        144.8191
244.28         175.502
244.74        177.2968
245.20        150.0169
245.66        114.6966
246.11        90.33628
246.57        78.00182
247.03        72.06201
247.48        70.20811
247.94        69.37725
248.40        68.65602
248.85        68.93238
249.31        69.71172
249.77        69.87135
250.22         69.1886
250.68         67.1872
251.14        64.59677
251.59        64.23772
252.05        67.46988
252.51        73.27666
252.96        77.61697
253.42        77.39598
253.88        73.42548
254.33        67.22052
254.79        63.08809
255.25         64.4934
255.70         70.7653
256.16        80.20518
256.62        88.11778
257.07        87.67413
257.53        80.93744
257.99        72.46412
258.44        65.64852
258.90        63.34189
259.35        64.15574
259.81        66.71355
260.27        69.30242
260.72        69.92311
261.18        68.70422
261.63        66.32003
262.09        63.93592
262.55        62.15935
263.00        60.93924
263.46        60.13677
263.91        59.22696
264.37        57.94287
264.83        56.25375
265.28        54.32019
265.74        52.65656
266.19        51.55172
266.65        51.07682
267.11         50.9898
267.56        50.93861
268.02        50.38685
268.47        49.22917
268.93         47.6898
269.38        46.05551
269.84         44.8241
270.30        44.08039
270.75        43.62753
271.21        43.31453
271.66        42.85159
272.12        42.16053
272.57        41.33197
273.03        40.36963
273.48        39.26815
273.94        38.12658
274.39        36.91058
274.85        35.83935
275.31        35.08068
275.76        34.61348
276.22        34.41551
276.67        34.24832
277.13        33.85212
277.58        33.14213
278.04        32.24305
278.49        31.30982
278.95        30.68889
279.40        30.38617
279.86        30.34801
280.31        30.33178
280.77        30.10266
281.22        29.58498
281.68        28.93007
282.13        28.29259
282.59        27.96569
283.04        27.95424
283.50        28.18033
283.95        28.44754
284.41        28.46054
284.86        28.16181
285.32        27.69389
285.77        27.23154
286.22        27.07931
286.68          27.282
287.13        27.68519
287.59        28.15557
288.04        28.44563
288.50        28.51195
288.95        28.41594
289.41         28.2341
289.86        28.00451
290.32        27.80785
290.77        27.63117
291.22        27.55379
291.68        27.68056
292.13        28.02608
292.59        28.59481
293.04        29.34788
293.50        30.22705
293.95        31.19662
294.40        32.27407
294.86        33.44913
295.31        34.69962
295.77        36.02737
296.22        37.40686
296.68        38.87054
297.13        40.45992
297.58        42.18699
298.04        44.04061
298.49        45.95825
298.95        47.85971
299.40        49.70704
299.85        51.52045
300.31        53.35292
300.76        55.26608
301.21        57.27753
301.67        59.37359
302.12        61.46317
302.58        63.50303
303.03        65.43146
303.48        67.30009
303.94        69.17252
304.39        71.07018
304.84        73.03262
305.30        75.05305
305.75        77.06359
306.20         79.0568
306.66        81.03295
307.11        82.95495
307.57        84.81732
308.02          86.498
308.47        88.00736
308.93        89.36837
309.38        90.64888
309.83        92.07908
310.29        93.69866
310.74        95.44538
311.19        97.10699
311.65        98.30789
312.10        98.95554
312.55         99.1627
313.00        99.25578
313.46        99.73951
313.91        100.6962
314.36        102.0129
314.82        103.3633
315.27        104.2272
315.72        104.4652
316.18        104.2821
316.63        103.9739
317.08        104.0499
317.53        104.6322
317.99        105.5361
318.44        106.5404
318.89        107.2572
319.35        107.5635
319.80        107.5936
320.25        107.4772
320.70        107.4165
321.16        107.4874
321.61        107.6693
322.06        107.9137
322.51        108.1613
322.97        108.3744
323.42         108.576
323.87         108.848
324.32        109.3344
324.78        110.0065
325.23        110.8906
325.68        111.6814
326.13        111.8964
326.59        111.4494
327.04        110.5241
327.49         109.557
327.94        109.2693
328.39        109.8298
328.85        111.0008
329.30         112.489
329.75        113.4854
330.20         113.715
330.66        113.3627
331.11        112.7981
331.56        112.5417
332.01        112.7688
332.46        113.3099
332.92        113.9056
333.37        114.2989
333.82         114.341
334.27        114.1886
334.72          114.04
335.17        114.1824
335.63        114.6908
336.08        115.5239
336.53        116.5307
336.98        117.5217
337.43        118.4068
337.88        119.1846
338.34        119.8862
338.79        120.7016
339.24        121.5886
339.69        122.4933
340.14        123.1873
340.59        123.3272
341.05         122.923
341.50        122.1259
341.95        121.3475
342.40        121.2012
342.85        121.8214
343.30        123.0137
343.75        124.4492
344.20        125.5701
344.66        126.1873
345.11        126.4457
345.56        126.4669
346.01        126.4575
346.46        126.5194
346.91        126.6018
347.36         126.711
347.81        126.8839
348.26        127.1132
348.72        127.3789
349.17        127.7063
349.62        128.1568
350.07         128.702
350.52        129.3262
350.97        129.7633
351.42        129.6013
351.87        128.8065
352.32        127.5317
352.77        126.2404
353.22        125.6113
353.67        125.7712
354.13         126.523
354.58        127.4394
355.03        127.7489
355.48         127.253
355.93        126.1915
356.38        125.0001
356.83        124.3361
357.28        124.3258
357.73        124.7107
358.18        125.1233
358.63        124.9913
359.08        124.1618
359.53        122.8527
359.98        121.3177
360.43        119.9037
360.88        118.7255
361.33        117.6948
361.78         116.739
362.23         115.758
362.68        114.7376
363.13        113.7392
363.58        112.8361
364.03        112.1121
364.48        111.5563
364.93        111.1016
365.38        110.6299
365.83        109.9727
366.28        109.0949
366.73        108.0593
367.18        106.9522
367.63        105.9069
368.08        104.9715
368.53        104.1156
368.98        103.3353
369.43        102.6165
369.88        101.9441
370.33        101.3267
370.78        100.7293
371.23        100.0949
371.68        99.40842
372.13         98.6694
372.58         97.9175
373.03        97.22101
373.48        96.58813
373.93        95.99677
374.38        95.38662
374.83        94.66785
375.28        93.83203
375.72          92.901
376.17         92.0098
376.62         91.2433
377.07        90.63808
377.52        90.18869
377.97        89.82816
378.42        89.46258
378.87         89.0582
379.32        88.59233
379.77         88.1853
380.22        88.01437
380.67        88.07365
381.11        88.33957
381.56        88.44293
382.01         87.8758
382.46        86.60807
382.91        84.89499
383.36        83.25841
383.81        82.40766
384.26        82.44147
384.71        83.10908
385.15        84.02637
385.60        84.52177
386.05        84.38325
386.50        83.80946
386.95          82.971
387.40        82.14543
387.85        81.45226
388.29        80.75817
388.74        80.18954
389.19        79.72032
389.64        79.33672
390.09        79.05752
390.54        78.83121
390.98        78.53849
391.43        78.19509
391.88        77.80853
392.33        77.44256
392.78        77.15749
393.23        76.95264
393.67        76.86479
394.12        76.86619
394.57        76.53454
395.02        75.95579
395.47        75.68446
395.91        75.72031
396.36        75.55736
396.81        75.20972
397.26          74.986
397.71        74.85747
398.15        74.62595
398.60        74.36607
399.05        74.01844
399.50        73.66069
399.95        73.52469
400.39         73.5724
400.84        73.44112
401.29        73.09959
401.74        72.75712
402.18        72.42941
402.63         71.9623
403.08          71.485
403.53        71.23564
403.97        71.23836
404.42        71.42621
404.87        71.65827
405.32        71.67772
405.76         71.4103
406.21        71.04884
406.66         70.6993
407.11        70.32098
407.55        70.03861
408.00        70.37623
408.45        70.72095
408.90        70.91317
409.34         70.6739
409.79         70.1851
410.24        69.60272
410.68        69.15906
411.13        68.92438
411.58         68.7785
412.03        68.65312
412.47        68.49126
412.92          68.257
413.37        68.00649
413.81        67.80165
414.26        67.79387
414.71        67.97251
415.15        68.30725
415.60        68.67103
416.05        68.92411
416.49        69.01412
416.94        68.96362
417.39         68.8362
417.83        68.72189
418.28        68.65833
418.73        68.62244
419.17        68.60146
419.62        68.57755
420.07        68.53493
420.51        68.46346
420.96        68.40885
421.41        68.34178
421.85        68.22868
422.30        68.24112
422.74        68.26635
423.19        67.94376
423.64        67.49789
424.08        67.32806
424.53        67.46809
424.98        67.53702
425.42        67.53728
425.87        67.62991
426.31        67.77955
426.76        67.91859
427.21        67.96717
427.65        67.63815
428.10        67.08122
428.54        66.90292
428.99        67.18076
429.44        67.41866
429.88        67.59205
430.33        68.09905
430.77        68.69731
431.22        68.91899
431.66        68.71012
432.11        68.32214
432.56        67.91891
433.00        67.60369
433.45        67.58301
433.89        68.20347
434.34        68.76091
434.78        69.76723
435.23        67.94556
435.67        66.56504
436.12        67.36063
436.57        67.62547
437.01        67.87878
437.46        67.97668
437.90        67.96545
438.35        67.27206
438.79        67.37726
439.24        67.26941
439.68        67.35623
440.13        67.59765
440.57        67.98408
441.02        68.28934
441.46        68.43391
441.91        68.87205
442.35        69.34297
442.80        69.07626
443.24        68.26939
443.69        68.23062
444.13        68.89166
444.58         69.1427
445.02        68.94268
445.47        68.97618
445.91        69.26715
446.36        69.49569
446.80         69.6181
447.24        69.97815
447.69        70.05854
448.13        70.20507
448.58        70.27386
449.02        70.26543
449.47        70.18541
449.91        70.02461
450.36        69.82705
450.80        69.58516
451.25        69.38056
451.69        69.27769
452.13        69.30455
452.58        69.42989
453.02        69.59844
453.47        69.72645
453.91        69.77193
454.36        69.76089
454.80        69.69216
455.24        69.49435
455.69        69.18221
456.13        68.91424
456.58        68.78757
457.02        68.21378
457.46        67.97118
457.91        68.11881
458.35        68.60432
458.79        68.59398
459.24        68.08792
459.68        67.45501
460.13        66.92728
460.57        66.64182
461.01        66.69801
461.46          66.868
461.90        67.04721
462.34        67.66004
462.79        67.59525
463.23        67.80206
463.68          67.859
464.12        67.66447
464.56        67.21116
465.01        66.53978
465.45        65.82802
465.89        65.64835
466.34        65.87774
466.78        66.09264
467.22        65.94173
467.67         65.6095
468.11        65.40345
468.55        65.46384
468.99        65.77276
469.44        65.75307
469.88        65.38855
470.32        65.03227
470.77        64.78668
471.21        64.64983
471.65        64.64149
472.10        64.76543
472.54        64.93488
472.98        64.99874
473.42        64.91288
473.87        64.80814
474.31        64.66949
474.75        64.35827
475.20        63.99563
475.64        63.96535
476.08        64.22762
476.52         64.2325
476.97        63.91437
477.41        63.91486
477.85        63.92682
478.29         63.5591
478.74         63.9522
479.18        64.22853
479.62        63.88501
480.06        63.83284
480.50        63.74527
480.95        63.88931
481.39        64.30309
481.83        63.44011
482.27        63.48362
482.72        64.23928
483.16        63.60931
483.60        63.67976
484.04        63.67923
484.48        63.84102
484.93        64.12632
485.37        63.66722
485.81        63.45419
486.25        63.47854
486.69        65.59912
487.14         65.4639
487.58        63.34643
488.02        64.19315
488.46        63.16643
488.90        62.79629
489.34        63.82273
489.79        64.10136
490.23        64.04436
490.67        63.61018
491.11        63.02939
491.55        62.79133
491.99        62.88269
492.43        62.76798
492.88        62.46473
493.32        62.43087
493.76        62.63218
494.20        62.76488
494.64        62.79311
495.08        62.75883
495.52        62.70257
495.96        62.78154
496.41        62.95854
496.85         63.0148
497.29        62.84251
497.73        62.82007
498.17        62.21864
498.61         62.1068
499.05        62.23946
499.49        62.40329
499.93        62.33361
500.37        62.38786
500.82        62.48898
501.26        62.56654
501.70        62.60429
502.14        62.60732
502.58        62.60251
503.02        62.62532
503.46         62.6817
503.90        62.78046
504.34        62.86458
504.78        62.80399
505.22        62.60248
505.66        62.37166
506.10        62.18392
506.54        62.08141
506.98        62.08537
507.42         62.2047
507.86        62.36454
508.30        62.41949
508.74        62.33797
509.18        62.16723
509.62        61.97072
510.06        61.85043
510.50        61.83575
510.94        61.89075
511.38        61.98119
511.82        62.05373
512.26        62.08899
512.70        62.10648
513.14        62.11149
513.58        62.10995
514.02        62.10675
514.46        62.09408
514.90        62.08081
515.34        62.08641
515.78        62.11084
516.22        62.14574
516.66         62.1746
517.10        62.16909
517.54        62.12357
517.98        62.05164
518.42        61.96047
518.86        61.86166
519.30        61.76508
519.74        61.66971
520.18        61.59647
520.62        61.57529
521.06        61.61063
521.50        61.69793
521.93        61.80567
522.37         61.8609
522.81        61.85458
523.25        61.79844
523.69        61.73494
524.13        61.73437
524.57        61.80527
525.01        61.91704
525.45        62.01788
525.89         62.0249
526.32        61.91553
526.76         61.7426
527.20        61.54124
527.64        61.37072
528.08        61.25471
528.52        61.17385
528.96        61.14265
529.40        61.18293
529.83        61.28467
530.27        61.44641
530.71        61.60378
531.15        61.65912
531.59        61.59435
532.03        61.43429
532.46        61.23806
532.90        61.14564
533.34        61.17541
533.78        61.25172
534.22        61.32273
534.66        61.38417
535.09         61.3714
535.53        61.17116
535.97        60.84471
536.41         60.6454
536.85        60.60643
537.28        60.60227
537.72        60.62447
538.16          60.707
538.60        60.83289
539.04        60.98966
539.47        61.12461
539.91        61.19412
540.35        61.17718
540.79         61.0943
541.22        60.98006
541.66        60.91408
542.10        60.90917
542.54        60.93978
542.97        60.98452
543.41        61.03732
543.85        61.07896
544.29        61.12373
544.72        61.13596
545.16        61.09565
545.60        60.99274
546.04        60.84375
546.47        60.70955
546.91        60.68491
547.35        60.78251
547.79        60.97158
548.22        61.17722
548.66        61.26714
549.10        61.28075
549.53        61.22716
549.97        61.14193
550.41         60.9511
550.84        60.74504
551.28        60.67738
551.72        60.70126
552.15        60.78933
552.59        60.99873
553.03        60.46777
553.46        61.01067
553.90        60.96643
554.34         60.8489
554.77         60.9115
555.21         60.7763
555.65        60.81864
556.08        60.89533
556.52        60.97088
556.96        61.00505
557.39        61.10735
557.83        61.22433
558.27        61.01732
558.70        60.57463
559.14        60.40152
559.57        60.48795
560.01        60.51334
560.45        60.46917
560.88        60.51498
561.32        60.66535
561.75        60.85118
562.19        61.03253
562.63        61.02131
563.06        60.84179
563.50        60.77829
563.93        60.79593
564.37         60.6974
564.80         60.6788
565.24        60.58097
565.68        60.32221
566.11        60.96139
566.55         60.3119
566.98        60.16255
567.42        60.02026
567.85        60.18949
568.29         60.6311
568.72        61.04158
569.16        61.43424
569.60        61.60277
570.03        61.71619
570.47        61.87392
570.90        62.20269
571.34        61.32964
571.77        61.70953
572.21        61.97491
572.64        61.55232
573.08        62.02509
573.51        61.48381
573.95        61.56563
574.38        61.91649
574.82        62.04103
