SpectraSmart Spectrum 2.9.0.0
--------- Device Information -----------
Spectrum Name :  反射率_0
Saving Time :  2024/04/27 00:43:49
Spectro-Module Model Name : SE2030-DUVN
Spectro-Module Serial Number : OS361AC55029948
Wavelength Start : 200
Wavelength End : 1025
Wavelength Unit : Wavelength(nm)
Spectrum Unit : Reflectance(%)
-----------Spectrum Setting ------------
Integration Time : 20ms
Average : 10
Boxcar : 0
Background removal :  enabled
linearity correction :  enabled
SC :  disabled
Intensity correction :  disabled
DWT denoise :  enabled
savitzky-golay :  disabled
FFT :  disabled
Running average :  disabled
Kalman :  disabled
High pass :  disabled
---------------BEGIN--------------------
Wavelength(nm)             Reflectance(%)
200.29               0
200.75        45.83487
201.21        44.38503
201.67         43.4392
202.13         42.9257
202.58        42.68505
203.04        43.09592
203.50        44.61143
203.96        47.67348
204.42         52.1758
204.88        57.63133
205.34        62.28726
205.80        63.66699
206.26         61.5063
206.72        56.98133
207.18        52.20165
207.64        48.64617
208.10        46.14777
208.55        44.22778
209.01        42.48743
209.47        41.87805
209.93        42.78999
210.39        44.59409
210.85        46.40355
211.31        48.18462
211.77        50.63767
212.23        55.30071
212.69        66.78006
213.14        89.85603
213.60        93.84614
214.06         81.7892
214.52        72.48405
214.98        68.31843
215.44        66.73183
215.90        65.81813
216.36         65.5614
216.81        66.14245
217.27        67.98093
217.73        72.30215
218.19        78.50198
218.65        80.94734
219.11        77.84268
219.57        72.62286
220.02         69.6841
220.48        72.40144
220.94        80.75352
221.40        95.83427
221.86        117.1952
222.32        130.8697
222.77        124.6867
223.23        108.4427
223.69        92.12492
224.15        81.09486
224.61        74.65331
225.06        70.36879
225.52          68.209
225.98        67.85709
226.44        68.89975
226.90        71.32275
227.36         74.0514
227.81        75.11428
228.27        74.30016
228.73        72.08436
229.19         69.9471
229.65        69.67509
230.10        71.27657
230.56        74.17778
231.02        76.85675
231.48        76.96312
231.93        74.25135
232.39        70.19101
232.85        66.34957
233.31        64.75347
233.77        65.56261
234.22        67.96503
234.68        70.98354
235.14        73.19506
235.60        74.09824
236.05        74.20412
236.51        73.50671
236.97         72.2043
237.43        70.56129
237.88        68.52961
238.34        66.68317
238.80        66.28621
239.26        67.81464
239.71        71.89796
240.17        77.86521
240.63        83.53222
241.08        87.34311
241.54        88.46527
242.00        88.65465
242.46          92.387
242.91        102.9883
243.37        121.8055
243.83        148.9941
244.28        170.8462
244.74        167.8343
245.20          141.56
245.66        110.4732
246.11        89.53589
246.57         79.1954
247.03        74.97051
247.48        73.74613
247.94         71.3565
248.40        67.78694
248.85        64.74066
249.31        63.23132
249.77        63.38043
250.22        64.84722
250.68        67.23087
251.14        70.04977
251.59        71.47005
252.05        70.79002
252.51        69.55486
252.96         67.5463
253.42        64.93009
253.88         62.0929
254.33        58.83569
254.79        57.79709
255.25        61.07555
255.70         68.0218
256.16        77.60147
256.62        85.54166
257.07        85.48915
257.53         79.4186
257.99        71.51562
258.44         65.1622
258.90        63.27677
259.35        64.48513
259.81        67.43876
260.27         70.3017
260.72        70.89263
261.18        69.39678
261.63        66.61738
262.09        63.90538
262.55        62.05618
263.00        61.00135
263.46        60.50697
263.91        59.92962
264.37        58.84534
264.83        57.21477
265.28        55.27925
265.74        53.62047
266.19        52.61185
266.65         52.3375
267.11        52.49699
267.56        52.73818
268.02        52.52598
268.47        51.72362
268.93        50.55512
269.38        49.20187
269.84         48.0024
270.30        47.04673
270.75        46.21793
271.21        45.54287
271.66        45.00056
272.12        44.56577
272.57        44.22651
273.03        43.87141
273.48        43.29375
273.94        42.51482
274.39        41.55664
274.85        40.61795
275.31        39.83329
275.76        39.20633
276.22        38.72766
276.67        38.28976
277.13        37.84292
277.58        37.31312
278.04        36.76076
278.49        36.15774
278.95         35.5874
279.40        35.01465
279.86        34.49826
280.31        33.96314
280.77        33.42256
281.22        32.83936
281.68        32.28285
282.13        31.77604
282.59        31.44573
283.04        31.25608
283.50        31.18064
283.95        31.11375
284.41        30.91175
284.86        30.54325
285.32        30.09175
285.77        29.62028
286.22        29.27848
286.68        29.09528
287.13        28.99043
287.59        28.93535
288.04        28.83887
288.50        28.69938
288.95        28.51596
289.41        28.31699
289.86         28.0725
290.32        27.82432
290.77        27.56766
291.22        27.35102
291.68        27.23104
292.13        27.21906
292.59        27.33324
293.04        27.56934
293.50        27.93515
293.95        28.42002
294.40        29.02655
294.86        29.75696
295.31        30.60034
295.77        31.55757
296.22        32.61979
296.68        33.76664
297.13        34.95433
297.58        36.18628
298.04        37.47246
298.49         38.8587
298.95        40.43575
299.40        42.19545
299.85        44.10218
300.31        46.06856
300.76        47.94346
301.21        49.70661
301.67        51.42499
302.12        53.14906
302.58        55.03727
303.03        57.08138
303.48         59.2581
303.94        61.53899
304.39        63.82073
304.84        66.10461
305.30        68.42687
305.75          70.757
306.20         73.1342
306.66        75.56236
307.11        77.96915
307.57        80.33331
308.02        82.52357
308.47        84.54234
308.93        86.42701
309.38        88.22034
309.83         90.1115
310.29        92.14485
310.74        94.26881
311.19        96.34467
311.65        98.10837
312.10        99.47063
312.55        100.4939
313.00         101.385
313.46        102.4816
313.91         103.835
314.36        105.3771
314.82        106.8849
315.27        108.0092
315.72        108.6443
316.18        108.9362
316.63        109.0805
317.08        109.4347
317.53        110.0985
317.99        110.9583
318.44        111.8763
318.89         112.593
319.35        113.0254
319.80        113.2568
320.25        113.4023
320.70        113.6432
321.16        114.0287
321.61        114.5489
322.06        115.0796
322.51        115.4336
322.97        115.5583
323.42        115.5197
323.87        115.5226
324.32        115.9204
324.78        116.7356
325.23        117.9393
325.68        119.1332
326.13        119.6614
326.59          119.37
327.04        118.4938
327.49         117.491
327.94        117.1241
328.39        117.5834
328.85        118.6021
329.30        119.9369
329.75        120.8584
330.20        121.1198
330.66        120.9131
331.11        120.5299
331.56        120.3479
332.01         120.508
332.46        120.8528
332.92        121.2528
333.37        121.6905
333.82        122.0585
334.27        122.4477
334.72        122.8152
335.17        123.0544
335.63        123.1576
336.08        123.2068
336.53        123.3607
336.98        123.9433
337.43        125.0054
337.88         126.411
338.34        127.8982
338.79        129.1588
339.24        129.9896
339.69        130.4733
340.14         130.625
340.59        130.4981
341.05         130.208
341.50        129.7709
341.95         129.385
342.40         129.348
342.85        129.7299
343.30        130.4543
343.75        131.3933
344.20        132.3077
344.66        133.0826
345.11          133.74
345.56        134.2146
346.01        134.4278
346.46        134.4023
346.91        134.1841
347.36         133.888
347.81        133.7136
348.26        133.7147
348.72        133.8319
349.17        134.0626
349.62        134.4293
350.07        134.8931
350.52        135.4599
350.97        135.8935
351.42        135.8175
351.87        135.1889
352.32        134.1248
352.77        133.0203
353.22        132.4624
353.67        132.5572
354.13        133.1301
354.58         133.803
355.03        133.8942
355.48        133.2352
355.93        132.0411
356.38        130.7276
356.83        129.9129
357.28         129.715
357.73        129.9066
358.18        130.1209
358.63        129.7831
359.08        128.7541
359.53        127.2509
359.98        125.5726
360.43        124.1366
360.88        123.0526
361.33         122.194
361.78        121.4065
362.23        120.4591
362.68        119.3077
363.13        118.0616
363.58        116.8476
364.03         115.834
364.48        115.0458
364.93        114.3963
365.38         113.787
365.83        113.0803
366.28        112.2348
366.73        111.3001
367.18        110.3076
367.63        109.2994
368.08        108.3003
368.53        107.3042
368.98        106.3368
369.43        105.4368
369.88        104.6133
370.33         103.864
370.78        103.1676
371.23        102.4891
371.68        101.8138
372.13        101.1359
372.58        100.4672
373.03        99.82673
373.48        99.20356
373.93        98.57753
374.38        97.89337
374.83          97.078
375.28        96.12817
375.72        95.05856
376.17        94.00548
376.62        93.05288
377.07        92.24086
377.52        91.57594
377.97        91.00217
378.42        90.43857
378.87        89.86966
379.32        89.28791
379.77        88.81551
380.22        88.62906
380.67        88.71693
381.11        89.03725
381.56        89.24023
382.01        88.84892
382.46        87.81239
382.91          86.358
383.36        84.91074
383.81        84.04906
384.26        83.86401
384.71        84.15221
385.15        84.65524
385.60        84.91688
386.05        84.78326
386.50        84.38618
386.95        83.79379
387.40        83.11878
387.85        82.43628
388.29        81.67052
388.74        80.98762
389.19        80.41428
389.64        79.94966
390.09        79.57757
390.54        79.26443
390.98         78.9287
391.43        78.59647
391.88        78.28194
392.33        77.98341
392.78        77.68931
393.23        77.40133
393.67        77.09914
394.12        76.87441
394.57        76.67758
395.02         76.5184
395.47        76.44754
395.91        76.43157
396.36        76.30494
396.81        76.07593
397.26        75.83453
397.71        75.55786
398.15        75.20197
398.60        74.86607
399.05        74.36134
399.50        73.82925
399.95        73.79356
400.39         74.1291
400.84        73.99158
401.29        73.36516
401.74        72.91408
402.18        72.67467
402.63        72.21329
403.08        71.67316
403.53         71.4502
403.97        71.57545
404.42        71.93816
404.87        72.33403
405.32        72.43114
405.76        72.14381
406.21        71.61061
406.66        71.02293
407.11        70.66576
407.55        70.64287
408.00         70.8829
408.45        71.22076
408.90        71.28816
409.34        70.98879
409.79        70.47658
410.24        69.94073
410.68        69.60732
411.13        69.54504
411.58        69.68476
412.03         69.8715
412.47        69.84979
412.92        69.54433
413.37        69.07864
413.81        68.63806
414.26        68.55275
414.71        68.84824
415.15        69.44106
415.60         70.1114
416.05        70.55001
416.49        70.65269
416.94        70.50333
417.39        70.23494
417.83         70.0472
418.28        70.00879
418.73        70.04594
419.17        70.14089
419.62        70.27267
420.07        70.41696
420.51        70.57404
420.96        70.71362
421.41        70.74128
421.85        70.62434
422.30        70.40417
422.74        70.11039
423.19        70.00504
423.64        70.04179
424.08        69.96946
424.53        69.78165
424.98         69.7617
425.42        69.93766
425.87        70.09328
426.31        70.18549
426.76         70.2991
427.21        70.40356
427.65        70.24108
428.10        69.89918
428.54        70.07307
428.99        70.31109
429.44        70.63883
429.88        70.90302
430.33        71.41342
430.77        71.95418
431.22        72.30199
431.66        72.34732
432.11        71.87457
432.56        71.11273
433.00         70.8753
433.45        71.37522
433.89        72.08325
434.34        72.28541
434.78        73.70174
435.23        72.30704
435.67        70.84062
436.12        71.14616
436.57         71.4083
437.01        72.15326
437.46        72.43944
437.90        72.29355
438.35        71.54528
438.79        71.78158
439.24        71.72758
439.68        71.79778
440.13        72.06963
440.57        72.56447
441.02        72.79761
441.46        72.78193
441.91        73.68763
442.35        74.94702
442.80        74.51847
443.24        72.80982
443.69        72.60624
444.13        73.82371
444.58        74.29326
445.02         73.8281
445.47        73.84659
445.91         74.3224
446.36        74.66209
446.80        74.81706
447.24          74.993
447.69         75.1955
448.13         75.1449
448.58        75.28081
449.02        75.22997
449.47        75.15524
449.91        75.08782
450.36        75.06528
450.80        75.05092
451.25         75.0552
451.69        75.03971
452.13        75.01647
452.58        74.99375
453.02        74.97125
453.47        74.96445
453.91        74.96186
454.36        74.93667
454.80        74.89394
455.24        74.78697
455.69        74.56766
456.13        74.37712
456.58         74.3253
457.02        73.51589
457.46        73.15424
457.91        73.53873
458.35        74.12981
458.79        74.18192
459.24        73.53603
459.68        72.71265
460.13        72.02837
460.57        71.73775
461.01        71.97874
461.46        72.21725
461.90        72.87902
462.34        73.40227
462.79        73.10851
463.23        73.10906
463.68        73.11704
464.12        73.05213
464.56        72.79877
465.01         72.0079
465.45        70.97494
465.89        70.78877
466.34        71.28322
466.78        71.64983
467.22        71.79597
467.67        70.96574
468.11        70.80066
468.55        70.77079
468.99        71.22234
469.44        71.25717
469.88        70.86247
470.32        70.59662
470.77        70.50293
471.21        70.40476
471.65        70.29562
472.10        70.22812
472.54        70.21571
472.98        70.22051
473.42        70.21387
473.87         70.4073
474.31        70.62996
474.75        70.20627
475.20        69.31801
475.64        69.17551
476.08        69.80649
476.52        69.70338
476.97        68.69428
477.41        69.64701
477.85        69.52399
478.29        68.68145
478.74         69.2095
479.18        69.61191
479.62        69.61981
480.06           69.72
480.50        69.57578
480.95        69.53597
481.39        69.64911
481.83        69.17089
482.27        68.96577
482.72        69.65499
483.16        69.34926
483.60        69.17697
484.04        69.48997
484.48        69.60799
484.93        69.65165
485.37          69.605
485.81        68.83566
486.25        68.73499
486.69        70.72997
487.14        71.21444
487.58        68.76093
488.02         69.9722
488.46        68.66691
488.90         68.1635
489.34        69.46595
489.79        70.44426
490.23        69.57361
490.67        69.10419
491.11        68.67009
491.55        68.56021
491.99        68.70721
492.43        68.61016
492.88        68.29042
493.32        68.24364
493.76        68.39503
494.20        68.51736
494.64        68.55192
495.08        68.59268
495.52        68.63721
495.96        68.63239
496.41        68.60053
496.85        68.67662
497.29        68.69391
497.73        68.72314
498.17        67.95788
498.61        67.67884
499.05        67.69674
499.49        67.98735
499.93         68.1834
500.37        68.27631
500.82         68.1815
501.26        68.12117
501.70        68.13147
502.14        68.16119
502.58        68.22916
503.02        68.31477
503.46        68.41484
503.90        68.60708
504.34        68.80547
504.78        68.77007
505.22        68.49478
505.66        68.15981
506.10        67.88096
506.54        67.65864
506.98        67.51454
507.42        67.62912
507.86        67.98479
508.30         67.6473
508.74        67.96683
509.18        67.87049
509.62        67.78935
510.06        67.71753
510.50        67.67725
510.94         67.6375
511.38        67.59513
511.82        67.58965
512.26        67.62193
512.70         67.6883
513.14        67.76368
513.58        67.81377
514.02         67.8313
514.46        67.80273
514.90         67.7468
515.34        67.81157
515.78        67.82016
516.22        67.89359
516.66        67.95173
517.10        67.95782
517.54        67.90198
517.98        67.81131
518.42        67.68955
518.86        67.53681
519.30        67.36773
519.74        67.18434
520.18        67.04314
520.62        67.02859
521.06        67.15277
521.50        67.39744
521.93        67.67435
522.37        67.81395
522.81        67.78613
523.25        67.62885
523.69        67.45023
524.13        67.42564
524.57         67.5831
525.01        67.85336
525.45        68.12126
525.89        68.20231
526.32        68.04826
526.76        67.75289
527.20        67.39535
527.64        67.10165
528.08        66.91882
528.52        66.80653
528.96        66.77348
529.40        66.83304
529.83        66.96711
530.27        67.17994
530.71        67.39018
531.15        67.47057
531.59        67.39659
532.03        67.19706
532.46        66.95017
532.90        66.83333
533.34        66.87257
533.78        66.97967
534.22        67.08467
534.66        67.16203
535.09        67.13779
535.53        66.89632
535.97        66.52078
536.41        66.31226
536.85        66.31143
537.28        66.37182
537.72        66.46677
538.16        66.60606
538.60        66.76271
539.04        66.92953
539.47        67.06055
539.91        67.12781
540.35        67.11185
540.79         67.0265
541.22        66.90153
541.66        66.81097
542.10        66.76865
542.54        66.75938
542.97        66.76401
543.41        66.77989
543.85        66.79276
544.29        66.81808
544.72        66.83324
545.16        66.84289
545.60        66.83254
546.04         66.8018
546.47        66.78618
546.91        66.83836
547.35        66.95898
547.79        67.13525
548.22        67.29316
548.66        67.30563
549.10         67.2317
549.53        67.06521
549.97        66.88433
550.41        66.70645
550.84        66.61738
551.28        66.68221
551.72        66.80804
552.15        66.96673
552.59        67.21182
553.03        66.55737
553.46        67.01502
553.90        66.86782
554.34        66.71358
554.77        66.54481
555.21        66.44342
555.65        66.48922
556.08        66.66371
556.52        66.90345
556.96        67.11371
557.39        67.31767
557.83        67.44006
558.27        67.15712
558.70        66.59671
559.14         66.3585
559.57        66.44475
560.01        66.47031
560.45        66.43257
560.88        66.52917
561.32        66.74304
561.75        66.99323
562.19        67.21196
562.63        67.04687
563.06        66.62794
563.50        66.65331
563.93        67.00686
564.37        67.09361
564.80        66.92805
565.24        66.74728
565.68        66.43911
566.11         67.1198
566.55        66.39591
566.98        66.20296
567.42        65.99336
567.85        66.24734
568.29        66.88079
568.72        67.22814
569.16        67.31905
569.60        67.68786
570.03         67.7583
570.47          68.035
570.90        68.32558
571.34        67.67295
571.77         68.1598
572.21        68.29066
572.64        68.12882
573.08        68.39527
573.51        67.79655
573.95        67.95084
574.38        68.59297
574.82        68.54237
