SpectraSmart Spectrum 2.9.0.0
--------- Device Information -----------
Spectrum Name :  反射率_0
Saving Time :  2024/04/27 00:43:05
Spectro-Module Model Name : SE2030-DUVN
Spectro-Module Serial Number : OS361AC55029948
Wavelength Start : 200
Wavelength End : 1025
Wavelength Unit : Wavelength(nm)
Spectrum Unit : Reflectance(%)
-----------Spectrum Setting ------------
Integration Time : 20ms
Average : 10
Boxcar : 0
Background removal :  enabled
linearity correction :  enabled
SC :  disabled
Intensity correction :  disabled
DWT denoise :  enabled
savitzky-golay :  disabled
FFT :  disabled
Running average :  disabled
Kalman :  disabled
High pass :  disabled
---------------BEGIN--------------------
Wavelength(nm)             Reflectance(%)
200.29               0
200.75        40.74845
201.21        37.85271
201.67        35.54319
202.13        34.10409
202.58        33.29922
203.04        33.19998
203.50        34.04151
203.96        36.03057
204.42        39.11122
204.88        43.14698
205.34        46.87142
205.80        48.40538
206.26        47.36139
206.72        44.26636
207.18        41.02096
207.64        39.19135
208.10        38.90156
208.55        40.55746
209.01        43.02436
209.47        42.81576
209.93        39.41711
210.39        35.42626
210.85        33.71727
211.31        36.36229
211.77        44.85779
212.23        65.23311
212.69        115.1984
213.14        192.0889
213.60        175.7976
214.06         110.744
214.52        70.27988
214.98        53.39728
215.44        47.29022
215.90        45.40962
216.36        45.11871
216.81         43.1419
217.27        38.59587
217.73         32.2458
218.19        25.16315
218.65          23.337
219.11        28.83663
219.57        35.98355
220.02        42.37849
220.48        49.39152
220.94        58.43835
221.40        71.57887
221.86        87.89471
222.32        95.06689
222.77        84.84883
223.23        67.13706
223.69        51.50459
224.15        42.65991
224.61        39.07158
225.06        38.00944
225.52        38.60271
225.98        39.96578
226.44        41.71185
226.90         44.1528
227.36        46.24253
227.81        46.13376
228.27        43.84205
228.73        40.01736
229.19        36.53698
229.65        35.56723
230.10        37.15042
230.56        40.61166
231.02        44.20415
231.48        45.11436
231.93        42.98274
232.39        39.28223
232.85        35.88052
233.31        35.19297
233.77        37.41298
234.22        41.59613
234.68        46.39283
235.14        49.80457
235.60        51.19703
236.05        51.20312
236.51        50.28252
236.97        49.46261
237.43         49.2706
237.88        49.34903
238.34        49.78978
238.80        51.07413
239.26        53.45955
239.71        57.75632
240.17        63.44728
240.63        68.64291
241.08        72.06197
241.54        72.83929
242.00        73.15465
242.46        78.42213
242.91        92.68944
243.37        118.7566
243.83        157.5659
244.28        191.4867
244.74          194.34
245.20        166.1101
245.66        129.8727
246.11        106.8604
246.57        98.06884
247.03        96.74768
247.48        98.59837
247.94        97.23535
248.40         92.4045
248.85        87.69862
249.31        83.92967
249.77        79.97106
250.22        74.98077
250.68        67.57298
251.14        58.77382
251.59        54.25883
252.05        57.39104
252.51        66.07726
252.96        74.05241
253.42        75.84953
253.88        72.28281
254.33        65.89375
254.79        61.35815
255.25        62.48833
255.70          68.771
256.16        78.29241
256.62        86.81026
257.07        87.98228
257.53        83.26311
257.99        76.61287
258.44        70.95335
258.90        68.91155
259.35        69.30154
259.81        71.08222
260.27        72.82487
260.72        72.91044
261.18        71.55023
261.63        69.24763
262.09        67.07453
262.55        65.52979
263.00        64.52158
263.46        63.94462
263.91         63.2569
264.37        62.17874
264.83        60.67162
265.28        58.90137
265.74        57.37578
266.19        56.36209
266.65        55.94257
267.11        55.85891
267.56        55.82592
268.02        55.41738
268.47        54.52168
268.93        53.32143
269.38        51.94537
269.84        50.65774
270.30        49.52146
270.75        48.44156
271.21        47.46088
271.66        46.57493
272.12        45.77192
272.57        45.04434
273.03        44.29556
273.48        43.34528
273.94        42.24409
274.39        41.03356
274.85        39.93007
275.31        39.08232
275.76        38.48446
276.22        38.10217
276.67        37.80372
277.13        37.50865
277.58        37.11878
278.04        36.68114
278.49        36.14688
278.95        35.57373
279.40        34.93036
279.86        34.29845
280.31        33.61876
280.77        32.92776
281.22        32.20701
281.68        31.52556
282.13        30.94381
282.59        30.63353
283.04        30.56122
283.50        30.69161
283.95        30.85737
284.41         30.8075
284.86        30.49286
285.32        30.03192
285.77        29.56784
286.22        29.37175
286.68        29.48602
287.13        29.77343
287.59        30.13272
288.04        30.36005
288.50        30.42248
288.95        30.36092
289.41        30.23119
289.86        30.03711
290.32        29.84986
290.77        29.66299
291.22         29.5576
291.68        29.64072
292.13        29.92709
292.59        30.41701
293.04        31.07686
293.50        31.86185
293.95        32.73696
294.40        33.71631
294.86        34.78147
295.31        35.89354
295.77        37.05681
296.22        38.26213
296.68        39.54899
297.13        40.96771
297.58        42.53546
298.04        44.23236
298.49        46.02005
298.95        47.85635
299.40        49.70071
299.85        51.55881
300.31        53.41722
300.76        55.23637
301.21        57.02072
301.67        58.79163
302.12        60.54349
302.58         62.3637
303.03        64.21843
303.48        66.11789
303.94        68.05312
304.39        69.93634
304.84         71.7853
305.30        73.63493
305.75        75.47141
306.20        77.36741
306.66        79.33864
307.11        81.31185
307.57        83.25134
308.02         84.9928
308.47        86.53496
308.93        87.92554
309.38         89.2235
309.83        90.64385
310.29          92.227
310.74        93.89938
311.19        95.50639
311.65        96.76736
312.10        97.59708
312.55        98.08205
313.00        98.42394
313.46         98.9391
313.91         99.6835
314.36        100.5996
314.82        101.5277
315.27        102.2237
315.72        102.6095
316.18        102.8021
316.63        102.9179
317.08        103.1832
317.53        103.6596
317.99         104.261
318.44        104.9128
318.89        105.4657
319.35        105.8641
319.80        106.1555
320.25        106.3781
320.70        106.5955
321.16        106.8282
321.61        107.0925
322.06        107.3532
322.51          107.57
322.97        107.7187
323.42        107.8141
323.87        107.9419
324.32        108.2603
324.78        108.7532
325.23        109.4563
325.68        110.0998
326.13        110.2522
326.59        109.8371
327.04        109.0238
327.49        108.1945
327.94        107.9856
328.39        108.5408
328.85        109.6361
329.30        111.0167
329.75        111.9516
330.20        112.1938
330.66        111.9138
331.11        111.4327
331.56        111.1965
332.01        111.3606
332.46        111.7667
332.92        112.2311
333.37        112.6208
333.82        112.8138
334.27        112.9357
334.72         113.049
335.17        113.2181
335.63        113.4745
336.08        113.8437
336.53        114.3629
336.98        115.1533
337.43        116.2059
337.88        117.4371
338.34        118.6879
338.79        119.8182
339.24        120.6852
339.69        121.3233
340.14        121.6693
340.59        121.6515
341.05        121.3497
341.50        120.8216
341.95        120.3383
342.40        120.3048
342.85        120.8108
343.30        121.7431
343.75        122.8901
344.20         123.877
344.66        124.5651
345.11        125.0333
345.56        125.3154
346.01        125.4839
346.46        125.5984
346.91        125.6487
347.36        125.6828
347.81         125.801
348.26        126.0141
348.72        126.2759
349.17        126.5904
349.62         126.991
350.07        127.4447
350.52        127.9561
350.97        128.2822
351.42        128.0387
351.87        127.2088
352.32        125.9485
352.77        124.7091
353.22        124.1517
353.67        124.3945
354.13        125.2284
354.58        126.2503
355.03        126.7312
355.48         126.458
355.93        125.6393
356.38          124.62
356.83        123.9241
357.28        123.6687
357.73        123.6583
358.18        123.6361
358.63        123.2146
359.08        122.3016
359.53        121.0596
359.98        119.7006
360.43        118.5035
360.88        117.5418
361.33        116.7381
361.78        115.9699
362.23        115.0538
362.68        113.9683
363.13        112.8048
363.58        111.7005
364.03        110.8476
364.48        110.2693
364.93        109.8687
365.38        109.5238
365.83        109.0527
366.28        108.3956
366.73        107.6111
367.18        106.7234
367.63         105.769
368.08        104.7808
368.53        103.7549
368.98        102.7574
369.43        101.8919
369.88        101.1805
370.33         100.608
370.78        100.1034
371.23        99.54267
371.68        98.88964
372.13        98.16711
372.58        97.43765
373.03        96.80402
373.48        96.27695
373.93        95.80763
374.38        95.30871
374.83        94.65352
375.28         93.8231
375.72        92.85583
376.17         91.8927
376.62        91.02791
377.07        90.30585
377.52         89.7169
377.97        89.22644
378.42        88.79012
378.87         88.3868
379.32        87.99356
379.77         87.6693
380.22        87.49744
380.67        87.45509
381.11        87.53065
381.56        87.45692
382.01        86.90263
382.46        85.86395
382.91        84.53172
383.36         83.2562
383.81         82.5065
384.26        82.34921
384.71        82.61156
385.15        83.08866
385.60        83.41049
386.05        83.43731
386.50         83.2616
386.95        82.87945
387.40        82.30141
387.85        81.58398
388.29        80.69165
388.74        79.86329
389.19        79.22097
389.64        78.78966
390.09        78.54072
390.54        78.37562
390.98        78.10413
391.43        77.72028
391.88        77.26299
392.33        76.83866
392.78        76.53882
393.23        76.36214
393.67        76.38782
394.12        76.53113
394.57        76.14046
395.02         75.3632
395.47        75.12309
395.91        75.38367
396.36        75.26434
396.81        74.76875
397.26        74.42248
397.71         74.2377
398.15        74.01648
398.60        73.84438
399.05        73.57084
399.50        73.25671
399.95        73.30529
400.39        73.58041
400.84        73.27351
401.29        72.45894
401.74        71.94415
402.18        71.79915
402.63        71.54627
403.08        71.23752
403.53        71.12183
403.97        71.19561
404.42         71.4061
404.87        71.59566
405.32        71.50766
405.76        71.09359
406.21        70.46167
406.66        69.82505
407.11        69.52921
407.55         69.6641
408.00        70.09173
408.45         70.6049
408.90        70.81347
409.34         70.5877
409.79        70.03973
410.24        69.39314
410.68        68.97815
411.13        68.88096
411.58        68.97923
412.03        69.14471
412.47        69.17927
412.92        69.00154
413.37        68.71905
413.81        68.42136
414.26        68.29342
414.71        68.34648
415.15        68.54482
415.60        68.79105
416.05        69.00155
416.49        69.13966
416.94        69.21648
417.39        69.26252
417.83        69.31266
418.28        69.38098
418.73        69.44516
419.17        69.49536
419.62         69.5243
420.07        69.52371
420.51        69.48389
420.96        69.43591
421.41        69.35769
421.85        69.22993
422.30        69.16142
422.74        69.08568
423.19        68.93422
423.64        68.71538
424.08        68.61906
424.53        68.65105
424.98        68.70304
425.42        68.77431
425.87        68.98141
426.31        69.23038
426.76        69.12698
427.21        68.74617
427.65        68.55055
428.10        68.58021
428.54         68.6762
428.99         68.8791
429.44        68.96976
429.88        69.05962
430.33         69.8136
430.77        70.81236
431.22        71.13004
431.66        70.71109
432.11         69.7802
432.56        68.78585
433.00        68.89881
433.45        70.17233
433.89        71.01968
434.34        70.74676
434.78        71.51155
435.23        71.11618
435.67        68.63863
436.12        70.02647
436.57        70.01689
437.01        70.27901
437.46        70.47004
437.90        70.68449
438.35        69.57207
438.79        70.03288
439.24        69.89563
439.68        69.96078
440.13        70.32909
440.57        70.94559
441.02        70.96138
441.46        70.49764
441.91        71.24934
442.35        72.65585
442.80        72.39538
443.24        70.80534
443.69        70.61533
444.13        71.75658
444.58        72.15597
445.02        71.76471
445.47        71.74506
445.91        72.11862
446.36        72.41792
446.80        72.60866
447.24        72.80163
447.69        72.97263
448.13        73.07199
448.58        73.10816
449.02        73.04468
449.47        72.91951
449.91        72.79474
450.36        72.70195
450.80        72.56908
451.25        72.43797
451.69        72.35409
452.13        72.33836
452.58        72.35453
453.02        72.39928
453.47        72.48672
453.91        72.59326
454.36        72.71049
454.80        72.79073
455.24        72.68974
455.69        72.39892
456.13        72.10625
456.58        71.92278
457.02        71.30472
457.46        70.92112
457.91        71.10812
458.35        71.71967
458.79        71.72973
459.24        71.13837
459.68        70.39278
460.13        69.77573
460.57        69.54707
461.01        69.84093
461.46        70.05344
461.90        70.53815
462.34        71.37109
462.79         71.2142
463.23        71.24811
463.68         71.0582
464.12        70.76441
464.56        70.35596
465.01        69.83595
465.45        69.29585
465.89        68.93369
466.34        68.73933
466.78        68.96167
467.22        69.54595
467.67        68.76479
468.11        68.72251
468.55        68.59804
468.99        68.92693
469.44         68.8989
469.88        68.51646
470.32        68.17996
470.77        67.95912
471.21        67.87187
471.65        67.93199
472.10        67.96299
472.54        68.19413
472.98        68.22247
473.42        68.08979
473.87        68.00115
474.31        67.90987
474.75        67.42897
475.20        66.76936
475.64        66.78884
476.08        67.38939
476.52        67.46366
476.97        66.89645
477.41        66.89118
477.85        66.92443
478.29         66.3317
478.74        66.84451
479.18        67.46787
479.62        67.13629
480.06        67.22416
480.50        67.19432
480.95        67.28454
481.39        67.52736
481.83        66.73779
482.27        66.71313
482.72        67.25468
483.16        66.70255
483.60        66.74518
484.04        66.73329
484.48        66.95304
484.93        67.29565
485.37        66.68698
485.81        66.94498
486.25         66.1328
486.69        69.00727
487.14          68.949
487.58        66.80193
488.02        67.10502
488.46        66.14249
488.90        65.86884
489.34        67.11037
489.79        67.45576
490.23        67.21507
490.67        66.58305
491.11         65.8586
491.55        65.68072
491.99         65.9828
492.43        65.93052
492.88        65.51673
493.32        65.39552
493.76        65.58131
494.20        65.72161
494.64        65.78528
495.08        65.89352
495.52        66.01369
495.96        66.03633
496.41        65.96608
496.85         65.9463
497.29        65.88386
497.73        65.88197
498.17        65.17355
498.61        65.14722
499.05        65.49068
499.49        65.58111
499.93        65.20307
500.37        65.25249
500.82        65.61355
501.26        65.67937
501.70        65.47201
502.14        65.47737
502.58        65.70199
503.02        65.83204
503.46        65.85381
503.90        65.92995
504.34        66.01027
504.78        65.93807
505.22        65.69915
505.66        65.36511
506.10        65.03555
506.54         64.8049
506.98        64.69653
507.42        64.91522
507.86        64.96497
508.30        65.07008
508.74        65.06775
509.18        65.00361
509.62        64.91292
510.06        64.86264
510.50        64.87389
510.94        64.91197
511.38        64.96152
511.82        65.00139
512.26        65.02456
512.70        65.04846
513.14        65.06503
513.58         65.0582
514.02        65.02877
514.46        64.97325
514.90        64.93137
515.34        64.96931
515.78        65.09131
516.22        65.27325
516.66        65.43767
517.10        65.46075
517.54         65.3195
517.98        65.05682
518.42        64.75782
518.86        64.55772
519.30         64.4947
519.74        64.53548
520.18         64.6272
520.62        64.67057
521.06        64.64895
521.50        64.62496
521.93        64.62055
522.37        64.62505
522.81        64.65217
523.25         64.6924
523.69        64.75376
524.13        64.85113
524.57        64.97406
525.01        65.10888
525.45        65.20557
525.89        65.18191
526.32        65.02271
526.76        64.78521
527.20        64.51774
527.64        64.30238
528.08        64.17001
528.52        64.09606
528.96        64.09721
529.40        64.19598
529.83         64.3755
530.27        64.62988
530.71         64.8699
531.15        64.95964
531.59          64.873
532.03        64.64451
532.46        64.35896
532.90        64.20155
533.34        64.20281
533.78        64.27472
534.22        64.35065
534.66        64.40488
535.09        64.36604
535.53        64.12692
535.97        63.76025
536.41        63.54298
536.85        63.51234
537.28        63.52834
537.72        63.58274
538.16        63.71297
538.60        63.89757
539.04        64.12267
539.47        64.31387
539.91        64.39772
540.35        64.34827
540.79        64.19254
541.22        63.99893
541.66        63.90226
542.10        63.92689
542.54         64.0347
542.97        64.16135
543.41        64.23399
543.85        64.22189
544.29        64.16238
544.72        64.07287
545.16        64.01692
545.60        64.00022
546.04        64.00913
546.47        64.04842
546.91        64.13609
547.35        64.26651
547.79        64.38911
548.22        64.46774
548.66        64.55692
549.10        64.64954
549.53         64.4323
549.97        64.01665
550.41        63.70897
550.84        63.60878
551.28        63.73936
551.72        64.00144
552.15        64.13986
552.59        64.14841
553.03        64.02921
553.46        64.15078
553.90        64.13489
554.34        64.08786
554.77        64.03091
555.21        64.00591
555.65        64.06131
556.08        64.18888
556.52        64.33149
556.96        64.41813
557.39        64.50565
557.83        64.52905
558.27        64.15343
558.70        63.53593
559.14        63.30787
559.57        63.47435
560.01        63.66536
560.45        63.80088
560.88        63.92895
561.32         64.0409
561.75        64.13702
562.19        64.22354
562.63        64.10725
563.06        63.87756
563.50        63.96398
563.93        64.24727
564.37         64.3403
564.80        64.24838
565.24        64.07619
565.68        63.73568
566.11        64.35246
566.55        63.63219
566.98        63.49765
567.42         63.4197
567.85        63.50187
568.29        64.04764
568.72        64.41955
569.16        64.78919
569.60         65.0071
570.03        65.09663
570.47        65.46182
570.90        66.21398
571.34        64.87751
571.77        65.35188
572.21        65.98058
572.64        65.49949
573.08        65.81712
573.51        65.01182
573.95        65.20303
574.38        66.01824
574.82        65.92757
