SpectraSmart Spectrum 2.9.0.0
--------- Device Information -----------
Spectrum Name :  反射率_0
Saving Time :  2024/04/27 00:44:21
Spectro-Module Model Name : SE2030-DUVN
Spectro-Module Serial Number : OS361AC55029948
Wavelength Start : 200
Wavelength End : 1025
Wavelength Unit : Wavelength(nm)
Spectrum Unit : Reflectance(%)
-----------Spectrum Setting ------------
Integration Time : 20ms
Average : 10
Boxcar : 0
Background removal :  enabled
linearity correction :  enabled
SC :  disabled
Intensity correction :  disabled
DWT denoise :  enabled
savitzky-golay :  disabled
FFT :  disabled
Running average :  disabled
Kalman :  disabled
High pass :  disabled
---------------BEGIN--------------------
Wavelength(nm)             Reflectance(%)
200.29               0
200.75        54.37027
201.21         52.3917
201.67        51.42103
202.13        50.55732
202.58        49.45047
203.04         48.6023
203.50        48.96336
203.96        52.39594
204.42        59.64676
204.88        69.95844
205.34        79.77116
205.80        83.49683
206.26        80.12727
206.72        71.90327
207.18        63.32566
207.64        57.84862
208.10        55.46633
208.55         55.8743
209.01        57.69411
209.47        57.44172
209.93         54.4912
210.39        51.42728
210.85        50.66432
211.31        54.20457
211.77        63.91657
212.23        86.49931
212.69        142.1528
213.14        231.6007
213.60        220.7674
214.06        151.8072
214.52         107.307
214.98        88.56793
215.44        81.89968
215.90        79.57758
216.36        79.64284
216.81        80.19735
217.27        80.88223
217.73        83.99924
218.19        88.99329
218.65         90.4836
219.11        87.26273
219.57        81.98372
220.02          79.549
220.48        84.31744
220.94        96.50493
221.40         117.905
221.86        147.3048
222.32        163.8322
222.77        151.2426
223.23        124.8464
223.69        99.94506
224.15        84.41335
224.61        76.51532
225.06        72.23243
225.52        70.66785
225.98        70.71708
226.44        71.77125
226.90        74.07937
227.36        76.43733
227.81        76.66228
228.27        74.70129
228.73        71.23154
229.19        68.10542
229.65        67.51344
230.10        69.49848
230.56         73.3633
231.02        77.40126
231.48        78.90899
231.93        77.39626
232.39        74.27608
232.85        71.19289
233.31        70.32716
233.77        71.85535
234.22        74.93232
234.68        78.32137
235.14        80.17448
235.60        79.91976
236.05        78.16368
236.51        75.39886
236.97         72.9206
237.43        71.45443
237.88        70.81103
238.34        70.91121
238.80         71.8433
239.26        73.71465
239.71        77.37757
240.17        82.59029
240.63        88.56698
241.08          94.626
241.54        99.60595
242.00        104.7226
242.46        113.6828
242.91        130.0872
243.37        156.4759
243.83        193.5675
244.28        225.0257
244.74        225.8271
245.20         195.434
245.66        158.3879
246.11        136.7625
246.57        131.0152
247.03        134.7173
247.48        139.3951
247.94        132.2606
248.40        116.0919
248.85        99.61064
249.31        87.60818
249.77        81.34184
250.22         79.4441
250.68        80.00561
251.14        83.12207
251.59        88.27422
252.05        93.81439
252.51        99.63033
252.96        102.2311
253.42        99.47341
253.88        92.70219
254.33        83.41723
254.79         76.7007
255.25        76.56651
255.70        82.27441
256.16        91.98205
256.62        100.6646
257.07        100.9191
257.53         94.6235
257.99        86.31168
258.44        79.59225
258.90        77.65676
259.35        78.96609
259.81        82.11426
260.27        85.00154
260.72        85.15934
261.18        82.93161
261.63        79.28518
262.09        75.90134
262.55        73.81295
263.00        72.88493
263.46        72.74682
263.91        72.54768
264.37        71.67898
264.83        70.04704
265.28        67.97362
265.74        66.10811
266.19        64.83569
266.65        64.27731
267.11        64.09628
267.56        64.00074
268.02        63.57277
268.47        62.68774
268.93        61.54978
269.38        60.21849
269.84        58.85323
270.30        57.50942
270.75        56.12492
271.21        54.86664
271.66        53.91122
272.12        53.27649
272.57        52.88504
273.03        52.50549
273.48          51.735
273.94        50.57856
274.39        49.14454
274.85        47.76772
275.31        46.73936
275.76        46.08087
276.22        45.71744
276.67        45.45188
277.13        45.13628
277.58        44.64879
278.04        44.07645
278.49        43.39801
278.95        42.73024
279.40        42.03387
279.86        41.36297
280.31        40.62206
280.77        39.82167
281.22        38.93163
281.68        38.06605
282.13        37.26503
282.59        36.68759
283.04        36.30145
283.50        36.07816
283.95        35.93246
284.41         35.7559
284.86        35.51134
285.32        35.26755
285.77         35.0222
286.22        34.84787
286.68        34.75725
287.13        34.67486
287.59         34.6268
288.04        34.60239
288.50        34.61286
288.95        34.62172
289.41        34.59172
289.86         34.3829
290.32        34.03976
290.77        33.60996
291.22        33.23263
291.68         33.0902
292.13        33.22352
292.59        33.61639
293.04        34.21848
293.50        34.96515
293.95        35.81234
294.40        36.77527
294.86        37.85625
295.31        39.04523
295.77        40.33793
296.22        41.70033
296.68        43.10839
297.13        44.51572
297.58        45.93037
298.04        47.37624
298.49        48.88693
298.95        50.53712
299.40        52.32078
299.85        54.20899
300.31        56.17104
300.76        58.13141
301.21        60.07721
301.67        62.04934
302.12        63.99854
302.58        65.94874
303.03        67.85844
303.48        69.74813
303.94        71.69414
304.39         73.7373
304.84        75.91024
305.30        78.20303
305.75        80.48082
306.20        82.63663
306.66        84.65474
307.11        86.51819
307.57        88.31432
308.02        90.05843
308.47        91.78824
308.93        93.49205
309.38        95.12538
309.83         96.7531
310.29        98.38755
310.74        100.0161
311.19        101.5656
311.65        102.8798
312.10        103.9041
312.55        104.6729
313.00        105.3414
313.46        106.1634
313.91        107.1702
314.36        108.3259
314.82         109.461
315.27        110.3158
315.72        110.8065
316.18        111.0436
316.63        111.1708
317.08        111.4687
317.53        112.0102
317.99        112.7011
318.44        113.4251
318.89        113.9573
319.35        114.2335
319.80        114.3345
320.25        114.3656
320.70        114.4953
321.16        114.7681
321.61        115.1692
322.06        115.6104
322.51        115.9603
322.97        116.1678
323.42        116.2836
323.87         116.415
324.32        116.7581
324.78        117.3093
325.23        118.0852
325.68        118.8321
326.13        119.1525
326.59        118.9585
327.04        118.4011
327.49         117.791
327.94         117.657
328.39        118.1266
328.85        119.0096
329.30        120.1283
329.75        120.8745
330.20        121.0571
330.66        120.8191
331.11        120.4759
331.56        120.4501
332.01        120.8749
332.46        121.5912
332.92        122.3589
333.37        122.9605
333.82        123.2352
334.27        123.3144
334.72        123.2989
335.17        123.3298
335.63        123.4716
336.08         123.754
336.53        124.1997
336.98         124.903
337.43        125.8531
337.88        126.9763
338.34        128.1651
338.79        129.3681
339.24        130.4444
339.69        131.3944
340.14        132.0353
340.59        132.1069
341.05        131.6554
341.50        130.8007
341.95        129.9512
342.40         129.725
342.85        130.2656
343.30        131.3986
343.75        132.8215
344.20        134.0058
344.66         134.764
345.11        135.2243
345.56        135.4713
346.01        135.6549
346.46        135.8571
346.91        136.0345
347.36        136.2018
347.81        136.4181
348.26        136.6785
348.72        136.9448
349.17        137.2484
349.62        137.6636
350.07        138.1681
350.52         138.766
350.97        139.1555
351.42        138.8627
351.87        137.8604
352.32         136.329
352.77        134.8401
353.22        134.2321
353.67        134.6471
354.13        135.8272
354.58        137.2002
355.03        137.7475
355.48        137.2009
355.93        135.8707
356.38        134.3177
356.83        133.3923
357.28        133.2734
357.73        133.6474
358.18        134.0802
358.63        133.8922
359.08        132.9064
359.53        131.3918
359.98        129.6577
360.43        128.1227
360.88        126.9174
361.33        125.9234
361.78        125.0293
362.23         124.078
362.68        123.0371
363.13        121.9833
363.58         121.014
364.03        120.2501
364.48        119.6883
364.93        119.2472
365.38        118.7857
365.83        118.1011
366.28        117.1532
366.73        116.0221
367.18        114.8179
367.63        113.7088
368.08        112.7515
368.53        111.9017
368.98        111.1449
369.43        110.4498
369.88        109.7928
370.33        109.1879
370.78        108.5892
371.23        107.9231
371.68        107.1722
372.13        106.3365
372.58         105.481
373.03        104.7159
373.48        104.0583
373.93        103.4782
374.38        102.8805
374.83         102.118
375.28        101.1732
375.72        100.0859
376.17        99.04086
376.62        98.19046
377.07        97.58148
377.52         97.1826
377.97        96.88374
378.42        96.51923
378.87        96.04423
379.32        95.47342
379.77        94.95483
380.22         94.7059
380.67        94.73062
381.11        94.97809
381.56        95.09892
382.01        94.62701
382.46        93.51991
382.91        92.01695
383.36        90.53859
383.81        89.64804
384.26        89.43474
384.71         89.6994
385.15        90.19768
385.60        90.49528
386.05        90.43842
386.50        90.14244
386.95        89.65256
387.40        89.04841
387.85        88.39624
388.29        87.62766
388.74        86.92353
389.19        86.31768
389.64        85.81395
390.09        85.38969
390.54        85.02565
390.98        84.66389
391.43        84.33589
391.88        84.04863
392.33        83.76832
392.78        83.44159
393.23        83.06757
393.67         82.6249
394.12        82.25132
394.57         81.9912
395.02        81.84846
395.47        81.77085
395.91        81.71574
396.36        81.58312
396.81         81.3745
397.26        81.12564
397.71        80.83255
398.15        80.49336
398.60        80.21731
399.05        79.81855
399.50         79.3848
399.95         79.3591
400.39        79.63903
400.84         79.3757
401.29        78.61729
401.74        78.32612
402.18        78.42065
402.63        77.82684
403.08        76.76894
403.53        76.34522
403.97        76.61874
404.42        77.07098
404.87        77.45724
405.32        77.56343
405.76        77.30289
406.21        76.79459
406.66        76.19939
407.11        75.83513
407.55        75.81075
408.00        75.82314
408.45        75.84866
408.90         76.2447
409.34        76.74359
409.79        76.42214
410.24        75.48801
410.68         75.0257
411.13        75.11533
411.58        75.16156
412.03        75.06726
412.47        74.95415
412.92        74.78131
413.37        74.56552
413.81        74.35644
414.26        74.29245
414.71        74.36436
415.15        74.55701
415.60         74.7906
416.05         75.0087
416.49        75.17877
416.94        75.30162
417.39        75.36279
417.83        75.32533
418.28        75.20218
418.73        75.00922
419.17        74.81043
419.62        74.71539
420.07        74.73563
420.51        74.80959
420.96        74.92635
421.41        74.96484
421.85        74.86993
422.30        74.86718
422.74        74.84091
423.19        74.48025
423.64        73.87747
424.08         73.6405
424.53        73.80125
424.98        73.90878
425.42        73.94894
425.87        74.31677
426.31         74.8362
426.76        74.75259
427.21        74.18545
427.65         73.9199
428.10        73.95367
428.54        74.20297
428.99        73.97858
429.44        73.88274
429.88        73.85258
430.33        74.47884
430.77        75.40524
431.22         75.8799
431.66        75.75188
432.11        75.03738
432.56        74.07784
433.00        73.86147
433.45        74.58931
433.89        75.48869
434.34        75.72646
434.78         77.2167
435.23        75.31131
435.67        74.04018
436.12        74.29541
436.57        74.55599
437.01         75.0593
437.46        75.49644
437.90        75.50894
438.35         74.1603
438.79        74.74783
439.24        74.62064
439.68         74.7322
440.13        75.04512
440.57         75.5485
441.02        75.82996
441.46         75.8187
441.91        76.35947
442.35        77.08221
442.80        76.61697
443.24          75.308
443.69         75.3263
444.13        76.52358
444.58        76.98095
445.02        76.61557
445.47        76.54894
445.91        76.84604
446.36        77.05076
446.80        77.12896
447.24        77.49813
447.69        77.55948
448.13        77.66441
448.58        77.65362
449.02        77.53539
449.47        77.37409
449.91        77.25179
450.36        77.22392
450.80         77.2428
451.25         77.3067
451.69        77.34763
452.13        77.36583
452.58        77.36597
453.02        77.36857
453.47        77.41323
453.91        77.48817
454.36        77.58925
454.80        77.65511
455.24        77.48008
455.69        77.04935
456.13        76.65963
456.58        76.42758
457.02        75.64297
457.46        75.43581
457.91        75.75843
458.35         76.5267
458.79        76.57774
459.24        75.89574
459.68        74.96275
460.13        74.11553
460.57        73.77155
461.01        74.09727
461.46         74.3806
461.90        74.66042
462.34        76.08064
462.79        75.22913
463.23        75.47903
463.68        75.69202
464.12        75.51806
464.56        74.92721
465.01        74.08941
465.45        73.29418
465.89        73.17426
466.34        73.53815
466.78        73.87437
467.22        74.16823
467.67        72.98008
468.11        73.20268
468.55        73.21254
468.99        73.69485
469.44        73.72858
469.88        73.30067
470.32        72.93874
470.77        72.70983
471.21        72.53019
471.65        72.41432
472.10         72.3905
472.54        72.44934
472.98        72.54472
473.42        72.63586
473.87        72.85187
474.31         73.0302
474.75        72.71301
475.20        72.02946
475.64        71.68449
476.08        71.76331
476.52        71.54597
476.97         70.9641
477.41         71.2527
477.85        71.61935
478.29        70.90114
478.74         71.5508
479.18        72.12759
479.62        71.82928
480.06        71.87844
480.50        71.82578
480.95        71.69545
481.39        71.49147
481.83        71.27798
482.27        71.33981
482.72        71.42033
483.16        71.58207
483.60        71.71867
484.04        71.80334
484.48        71.96405
484.93        72.11325
485.37        71.90466
485.81        71.34274
486.25        71.15344
486.69        73.49585
487.14        73.49831
487.58        70.85111
488.02        71.98461
488.46        70.77752
488.90        70.13056
489.34        72.11385
489.79        72.36253
490.23        71.99021
490.67         71.1907
491.11        70.43488
491.55         70.4064
491.99        70.96336
492.43         71.0346
492.88        70.57476
493.32        70.39429
493.76        70.55108
494.20        70.67281
494.64        70.73262
495.08        70.89291
495.52        71.07829
495.96        70.99526
496.41        70.68083
496.85         70.5926
497.29        70.61482
497.73        70.51998
498.17        69.54324
498.61        69.56583
499.05        70.22881
499.49         70.5172
499.93        70.14289
500.37        70.18373
500.82        70.54895
501.26         70.4482
501.70        70.33023
502.14        70.15438
502.58        70.12682
503.02        70.18188
503.46        70.33379
503.90        70.62357
504.34         70.9214
504.78        70.98328
505.22        70.74156
505.66        70.33562
506.10        69.94328
506.54        69.62815
506.98        69.36388
507.42        70.07352
507.86        69.74403
508.30        69.94604
508.74        70.05134
509.18        70.12241
509.62        70.16911
510.06        69.97585
510.50        70.05984
510.94        69.98682
511.38        69.91105
511.82        69.84256
512.26        69.79131
512.70        69.75195
513.14        69.72403
513.58        69.73865
514.02         69.8032
514.46        69.86826
514.90        69.89587
515.34        70.08935
515.78        70.06888
516.22        70.04682
516.66        69.94838
517.10        70.05266
517.54        70.26688
517.98        70.11423
518.42        69.67181
518.86         69.4556
519.30        69.50053
519.74        69.55381
520.18         69.5801
520.62        69.56641
521.06        69.53734
521.50        69.65496
521.93        69.87682
522.37        69.95583
522.81        69.87912
523.25        69.76055
523.69        69.66817
524.13        69.66378
524.57         69.7608
525.01        69.93284
525.45        70.09624
525.89         70.1142
526.32        69.95313
526.76        69.68398
527.20        69.37841
527.64        69.15429
528.08        69.04874
528.52        69.02423
528.96        69.06397
529.40        69.14169
529.83        69.23452
530.27        69.35579
530.71        69.46577
531.15         69.5069
531.59        69.46954
532.03        69.36298
532.46        69.21859
532.90        69.13938
533.34        69.13614
533.78        69.14624
534.22        69.14267
534.66        69.16795
535.09        69.16035
535.53         68.9729
535.97        68.66058
536.41        68.48786
536.85        68.48322
537.28        68.51469
537.72        68.56289
538.16         68.6485
538.60         68.7552
539.04        68.87579
539.47         68.9788
539.91         69.0614
540.35        69.10384
540.79        69.10617
541.22        69.08077
541.66        69.07389
542.10         69.0859
542.54        69.10693
542.97        69.10645
543.41        69.06839
543.85        68.98344
544.29        68.87666
544.72        68.76063
545.16        68.69362
545.60        68.67604
546.04        68.69868
546.47         68.7652
546.91        68.88641
547.35        69.05722
547.79        69.21613
548.22        69.31254
548.66        69.41157
549.10        69.57556
549.53        69.24059
549.97        69.22733
550.41        68.96133
550.84        68.74324
551.28        68.75777
551.72        68.96333
552.15        69.02726
552.59        68.93421
553.03        69.03731
553.46        69.11586
553.90        69.13287
554.34        69.00943
554.77        68.95652
555.21        68.78339
555.65        68.78536
556.08        68.89095
556.52        69.07596
556.96        69.24264
557.39        69.30547
557.83        69.24739
558.27        68.98274
558.70        68.61131
559.14        68.47567
559.57        68.56062
560.01        68.62348
560.45         68.6356
560.88        68.72256
561.32        68.87852
561.75        68.97136
562.19        69.00494
562.63        68.92828
563.06        68.80379
563.50         68.8409
563.93        68.96773
564.37        69.05891
564.80         69.2697
565.24        68.98582
565.68        68.26102
566.11        68.83305
566.55        68.26792
566.98        68.33086
567.42        68.35715
567.85         68.5699
568.29        68.93509
568.72        69.28686
569.16        69.67472
569.60        69.85461
570.03        69.90621
570.47        70.08972
570.90        70.51656
571.34        69.52943
571.77        70.16982
572.21         70.2803
572.64        70.09592
573.08        70.27895
573.51        69.68768
573.95        69.67786
574.38        70.10913
574.82        70.27238
