SpectraSmart Spectrum 2.9.0.0
--------- Device Information -----------
Spectrum Name :  反射率_0
Saving Time :  2024/04/27 00:43:18
Spectro-Module Model Name : SE2030-DUVN
Spectro-Module Serial Number : OS361AC55029948
Wavelength Start : 200
Wavelength End : 1025
Wavelength Unit : Wavelength(nm)
Spectrum Unit : Reflectance(%)
-----------Spectrum Setting ------------
Integration Time : 20ms
Average : 10
Boxcar : 0
Background removal :  enabled
linearity correction :  enabled
SC :  disabled
Intensity correction :  disabled
DWT denoise :  enabled
savitzky-golay :  disabled
FFT :  disabled
Running average :  disabled
Kalman :  disabled
High pass :  disabled
---------------BEGIN--------------------
Wavelength(nm)             Reflectance(%)
200.29               0
200.75        36.91469
201.21        34.73421
201.67        32.97158
202.13        31.97936
202.58        31.62917
203.04        31.95014
203.50        33.55344
203.96        37.40955
204.42        43.57961
204.88         51.6447
205.34        58.68089
205.80        60.16508
206.26        55.71461
206.72         47.4963
207.18        39.44998
207.64        34.53223
208.10        32.53382
208.55        32.74704
209.01        34.24329
209.47        34.46747
209.93        32.60564
210.39        30.71074
210.85        29.62856
211.31        29.60476
211.77        30.79061
212.23        33.88517
212.69        43.12117
213.14        66.35749
213.60        77.48212
214.06        70.88486
214.52        63.00968
214.98        58.14303
215.44        54.61403
215.90        50.46462
216.36        46.50921
216.81        44.18901
217.27        44.37584
217.73        48.38688
218.19        54.68778
218.65        55.15591
219.11        48.50832
219.57        40.21171
220.02        36.61997
220.48        41.96046
220.94        56.60854
221.40        82.82919
221.86         119.468
222.32        141.4864
222.77        128.7379
223.23        98.83949
223.69        70.40659
224.15        53.47725
224.61        46.00601
225.06        42.98788
225.52        42.98991
225.98        44.78791
226.44        47.70821
226.90        52.16636
227.36         56.6758
227.81        58.39241
228.27        57.00336
228.73        53.29716
229.19        49.57867
229.65        48.63176
230.10        50.55726
230.56        54.47026
231.02        58.32312
231.48        58.87029
231.93        55.75653
232.39        50.81099
232.85        46.17786
233.31        44.56977
233.77        46.21558
234.22        50.03971
234.68         54.6561
235.14        58.00533
235.60        59.41942
236.05        59.60939
236.51        58.88928
236.97        58.01356
237.43        57.44716
237.88        56.86732
238.34        56.69298
238.80        58.03497
239.26         61.3364
239.71        67.38811
240.17        75.33948
240.63         82.1086
241.08        85.57151
241.54        84.92572
242.00        82.52242
242.46        84.20399
242.91        93.91578
243.37        112.9748
243.83        142.9346
244.28        172.3218
244.74        180.8481
245.20        166.7458
245.66        142.6355
246.11        120.8277
246.57        103.5676
247.03        87.71602
247.48        74.36478
247.94        67.90429
248.40         68.3222
248.85        72.03166
249.31         76.6087
249.77        80.04541
250.22        82.31545
250.68        84.11631
251.14        84.69308
251.59        82.26808
252.05        77.36454
252.51        71.98393
252.96        67.82446
253.42        66.56006
253.88        67.62891
254.33        69.61906
254.79         72.9971
255.25        77.81945
255.70        83.60363
256.16        90.18761
256.62        94.97157
257.07        94.12273
257.53        89.41962
257.99        83.53796
258.44        78.52831
258.90        76.49104
259.35        76.34488
259.81        77.50795
260.27        78.81746
260.72         78.9752
261.18        78.16676
261.63        76.54725
262.09        75.13567
262.55        74.37755
263.00        74.09863
263.46        74.23172
263.91        73.98551
264.37        72.80717
264.83        70.70824
265.28        68.03517
265.74        65.65415
266.19        64.23978
266.65        63.92922
267.11        64.30663
267.56        64.86294
268.02        64.80759
268.47        63.92648
268.93        62.53645
269.38        60.88942
269.84        59.44636
270.30        58.32193
270.75        57.33152
271.21        56.48566
271.66        55.73787
272.12        55.04716
272.57        54.41061
273.03        53.69264
273.48        52.63589
273.94        51.29836
274.39        49.75242
274.85        48.27636
275.31         47.0811
275.76        46.18001
276.22        45.53537
276.67        45.02328
277.13        44.59316
277.58        44.13097
278.04        43.68292
278.49        43.13825
278.95         42.4824
279.40        41.66495
279.86        40.79873
280.31        39.87867
280.77        39.04215
281.22        38.27327
281.68        37.61988
282.13         37.0683
282.59        36.70679
283.04        36.48538
283.50        36.40919
283.95        36.37513
284.41        36.24311
284.86        35.98029
285.32        35.65829
285.77        35.35024
286.22        35.24401
286.68        35.35799
287.13         35.5742
287.59        35.81293
288.04        35.89433
288.50        35.80706
288.95        35.58716
289.41        35.29836
289.86        34.94661
290.32        34.61168
290.77        34.28442
291.22        34.06894
291.68         34.0968
292.13        34.38326
292.59        34.93185
293.04        35.66058
293.50        36.45108
293.95        37.25747
294.40        38.11017
294.86        39.07448
295.31        40.24432
295.77         41.6364
296.22         43.1817
296.68        44.79911
297.13        46.35122
297.58        47.81653
298.04        49.24026
298.49        50.68039
298.95        52.25205
299.40        53.96381
299.85        55.77821
300.31        57.64919
300.76        59.47854
301.21        61.25567
301.67         63.0365
302.12         64.8099
302.58        66.65421
303.03        68.53252
303.48        70.44315
303.94        72.40981
304.39        74.39589
304.84        76.41695
305.30        78.48369
305.75        80.50845
306.20        82.45747
306.66        84.33453
307.11        86.10829
307.57        87.82344
308.02        89.42879
308.47        90.95723
308.93        92.42673
309.38        93.85147
309.83        95.38332
310.29        97.04027
310.74        98.76084
311.19        100.4129
311.65        101.7474
312.10        102.6818
312.55        103.2901
313.00        103.7296
313.46        104.2555
313.91        104.9179
314.36        105.6812
314.82        106.4595
315.27        107.1317
315.72        107.6388
316.18        108.0518
316.63        108.3925
317.08        108.7444
317.53        109.1351
317.99        109.5254
318.44         109.905
318.89        110.2296
319.35        110.4848
319.80        110.6946
320.25        110.8809
320.70        111.0798
321.16        111.3007
321.61        111.5737
322.06         111.868
322.51        112.1434
322.97        112.3702
323.42        112.5524
323.87        112.7574
324.32        113.1225
324.78        113.6233
325.23        114.3012
325.68        114.8993
326.13        115.0123
326.59         114.575
327.04        113.7557
327.49        112.9261
327.94        112.7047
328.39        113.2327
328.85        114.2921
329.30        115.6525
329.75         116.611
330.20        116.9307
330.66        116.7756
331.11        116.4392
331.56        116.3242
332.01        116.5691
332.46        117.0064
332.92        117.4856
333.37        117.9432
333.82        118.2614
334.27        118.5499
334.72        118.7738
335.17        118.8388
335.63        118.7572
336.08          118.62
336.53        118.6255
336.98        119.1575
337.43        120.2781
337.88        121.8311
338.34        123.5179
338.79        124.9572
339.24        125.9139
339.69         126.478
340.14        126.6534
340.59        126.4865
341.05        126.0991
341.50        125.5109
341.95        124.9618
342.40        124.8125
342.85        125.1555
343.30        125.9198
343.75        126.9432
344.20        127.9211
344.66         128.725
345.11        129.3876
345.56        129.9125
346.01        130.3286
346.46        130.6635
346.91        130.9156
347.36        131.0693
347.81        131.1306
348.26        131.1146
348.72        131.0149
349.17        130.9678
349.62        131.2201
350.07        131.7837
350.52        132.5973
350.97        133.2937
351.42        133.2814
351.87        132.4762
352.32         131.089
352.77         129.639
353.22        128.8878
353.67        128.9894
354.13        129.7134
354.58        130.6291
355.03        130.9666
355.48        130.5162
355.93        129.5147
356.38        128.3784
356.83        127.7286
357.28        127.6869
357.73        128.0137
358.18        128.3442
358.63         128.114
359.08        127.1872
359.53        125.7842
359.98        124.2044
360.43        122.8645
360.88        121.8766
361.33        121.1155
361.78        120.4344
362.23        119.6117
362.68        118.6022
363.13        117.5108
363.58        116.4476
364.03        115.5559
364.48        114.8575
364.93        114.2739
365.38        113.7268
365.83        113.1122
366.28        112.3951
366.73        111.6129
367.18        110.7784
367.63        109.9042
368.08        109.0078
368.53        108.0927
368.98        107.1941
369.43        106.3668
369.88        105.6232
370.33        104.9512
370.78        104.3277
371.23        103.7161
371.68        103.0982
372.13        102.4727
372.58        101.8379
373.03        101.1896
373.48        100.5211
373.93        99.82925
374.38        99.09345
374.83         98.2944
375.28        97.43909
375.72        96.51756
376.17        95.64366
376.62        94.86809
377.07        94.21285
377.52        93.68756
377.97        93.21537
378.42        92.68266
378.87        92.07379
379.32        91.39667
379.77        90.81141
380.22        90.55012
380.67        90.61958
381.11         90.9721
381.56        91.24426
382.01        90.93172
382.46        89.96702
382.91        88.57433
383.36        87.18603
383.81         86.3954
384.26        86.29104
384.71        86.66102
385.15        87.21199
385.60        87.43165
386.05        87.16627
386.50        86.58192
386.95        85.80932
387.40        85.05262
387.85        84.40845
388.29          83.769
388.74        83.26698
389.19        82.87869
389.64        82.58631
390.09        82.38397
390.54        82.22768
390.98        82.01469
391.43        81.75971
391.88        81.47268
392.33        81.16534
392.78        80.83236
393.23        80.48241
393.67        80.15327
394.12        79.92527
394.57        79.60061
395.02        79.24734
395.47        79.20134
395.91        79.39295
396.36        79.33332
396.81        79.01528
397.26        78.71864
397.71        78.42096
398.15        78.03947
398.60        77.69239
399.05        77.09456
399.50        76.44998
399.95        76.61365
400.39        77.35586
400.84        77.24165
401.29        76.29474
401.74        75.76351
402.18        75.71565
402.63         75.3793
403.08        74.84357
403.53        74.58451
403.97         74.6221
404.42        74.82464
404.87         75.0521
405.32        75.05826
405.76        74.78258
406.21        74.39989
406.66        74.01342
407.11        73.69074
407.55        73.56711
408.00        73.74689
408.45         74.1336
408.90        74.47775
409.34        74.57065
409.79        74.13219
410.24        73.37035
410.68        72.93292
411.13         72.9014
411.58         72.9278
412.03        72.91264
412.47        72.85129
412.92        72.68748
413.37        72.46048
413.81        72.23437
414.26         72.1673
414.71         72.2557
415.15        72.48307
415.60        72.73213
416.05        72.88444
416.49        72.90601
416.94        72.82221
417.39        72.71706
417.83        72.70681
418.28        72.82369
418.73        73.02491
419.17         73.2519
419.62        73.41576
420.07        73.48244
420.51        73.45663
420.96          73.401
421.41         73.3549
421.85        73.30757
422.30        73.31094
422.74        73.26724
423.19        73.15488
423.64        72.93739
424.08        72.63605
424.53        72.33654
424.98        72.24866
425.42        72.42376
425.87        72.79987
426.31        73.19328
426.76        73.27295
427.21         73.0626
427.65        72.70878
428.10        72.29521
428.54        72.70515
428.99        72.62202
429.44        72.91156
429.88        73.16196
430.33        73.84143
430.77        74.60812
431.22        74.74947
431.66        74.29437
432.11        73.75684
432.56        73.36276
433.00        73.33022
433.45        73.78661
433.89        74.40517
434.34        74.48479
434.78        75.76084
435.23         74.2529
435.67        72.53123
436.12        73.44139
436.57        73.55492
437.01        73.77734
437.46        74.03101
437.90        74.42383
438.35        73.35417
438.79        74.05466
439.24        73.95718
439.68        73.97565
440.13        74.16224
440.57        74.51981
441.02        74.55468
441.46        74.32097
441.91        74.86609
442.35        75.79481
442.80         75.7155
443.24         74.8074
443.69        74.74575
444.13        75.48288
444.58        75.75871
445.02        75.52791
445.47        75.55413
445.91        75.86168
446.36        76.03556
446.80        76.01661
447.24        76.51774
447.69        76.42339
448.13        76.61443
448.58        76.76868
449.02        76.88631
449.47        76.93794
449.91        76.86905
450.36         76.7161
450.80        76.47047
451.25        76.24178
451.69        76.13498
452.13        76.18653
452.58        76.35051
453.02         76.5456
453.47        76.64471
453.91        76.60253
454.36        76.48552
454.80         76.3462
455.24        76.08465
455.69        75.68201
456.13        75.52881
456.58        75.80225
457.02        74.84434
457.46        74.84043
457.91        75.74355
458.35        75.80593
458.79        75.82339
459.24        75.20084
459.68        74.30474
460.13        73.47279
460.57        73.10731
461.01        73.36314
461.46        73.78467
461.90        74.46091
462.34        75.20484
462.79         75.2878
463.23        75.33626
463.68        75.11919
464.12        74.87294
464.56        74.56902
465.01        73.78148
465.45        72.79284
465.89        72.70478
466.34        73.27139
466.78        73.53847
467.22        73.52498
467.67        72.40193
468.11        72.70834
468.55        72.79465
468.99        73.22542
469.44        73.26675
469.88        72.89717
470.32        72.54242
470.77        72.29117
471.21         72.1235
471.65         72.0591
472.10        72.11939
472.54        72.22993
472.98        72.24752
473.42        72.13393
473.87        72.04187
474.31        71.93797
474.75        71.61552
475.20        71.18951
475.64         71.1664
476.08         71.5484
476.52        71.52735
476.97        70.95741
477.41         71.3707
477.85        71.64342
478.29        70.68203
478.74        70.73668
479.18        71.76683
479.62        71.30564
480.06        71.46966
480.50         71.2615
480.95        71.30874
481.39        71.67028
481.83        70.65322
482.27        71.05914
482.72        71.34721
483.16        71.16553
483.60        71.14038
484.04        71.28442
484.48        71.42382
484.93        71.52899
485.37        71.35705
485.81         70.9448
486.25        70.95604
486.69        72.80582
487.14        73.45043
487.58        70.77071
488.02        71.57293
488.46        69.94148
488.90        70.22534
489.34        71.48456
489.79        72.57556
490.23        71.60761
490.67        70.86837
491.11        70.18756
491.55        70.10458
491.99        70.51739
492.43        70.49798
492.88         70.0463
493.32        69.90475
493.76        70.10112
494.20         70.2412
494.64        70.29386
495.08        70.37196
495.52        70.44518
495.96        70.45527
496.41        70.37552
496.85         70.2534
497.29        70.03344
497.73        69.91344
498.17        69.14001
498.61        69.32948
499.05        70.06747
499.49        70.36675
499.93        69.95743
500.37        69.99162
500.82        70.38557
501.26        70.39767
501.70        70.05611
502.14        70.03014
502.58        70.35885
503.02        70.13428
503.46        70.32683
503.90        70.34111
504.34        70.42091
504.78         70.3885
505.22        70.21224
505.66        69.94988
506.10        69.74221
506.54        69.62084
506.98          69.459
507.42        70.19782
507.86        69.81458
508.30        69.39708
508.74        69.77936
509.18        69.66099
509.62        69.48693
510.06        69.38694
510.50         69.4071
510.94        69.46601
511.38        69.52532
511.82        69.56136
512.26         69.5601
512.70        69.54072
513.14        69.52309
513.58        69.53464
514.02        69.58168
514.46         69.6475
514.90        69.72263
515.34        69.79447
515.78        69.85258
516.22        69.89861
516.66        69.91508
517.10        69.87391
517.54         69.7762
517.98        69.63712
518.42        69.48869
518.86        69.38127
519.30        69.32893
519.74        69.32074
520.18        69.34533
520.62        69.36933
521.06        69.38899
521.50        69.44146
521.93        69.50552
522.37        69.50209
522.81        69.43416
523.25        69.32483
523.69        69.22851
524.13        69.22769
524.57        69.33064
525.01        69.50076
525.45        69.66927
525.89        69.72363
526.32        69.63028
526.76        69.45133
527.20        69.22308
527.64        69.00967
528.08        68.84151
528.52        68.70033
528.96        68.61784
529.40        68.64198
529.83        68.76769
530.27        68.98933
530.71        69.22167
531.15        69.33287
531.59        69.29368
532.03        69.13258
532.46        68.92451
532.90        68.84164
533.34        68.90535
533.78        69.02443
534.22        69.12083
534.66        69.16135
535.09        69.07173
535.53        68.73805
535.97        68.26242
536.41        67.97829
536.85        67.93539
537.28        67.98238
537.72        68.08215
538.16         68.2254
538.60        68.38145
539.04        68.54994
539.47        68.69619
539.91        68.81126
540.35        68.87468
540.79        68.88533
541.22        68.85625
541.66        68.83849
542.10        68.83589
542.54        68.83853
542.97        68.82549
543.41        68.79391
543.85        68.73553
544.29        68.67171
544.72        68.59856
545.16        68.54766
545.60        68.51388
546.04        68.49751
546.47        68.52109
546.91        68.61419
547.35        68.76972
547.79        68.96651
548.22        69.14394
548.66        69.21927
549.10          69.235
549.53        69.11991
549.97        68.93802
550.41        68.69907
550.84        68.48882
551.28        68.50423
551.72        68.69749
552.15        68.80984
552.59        68.83977
553.03        68.82562
553.46        69.11176
553.90        69.12852
554.34        68.94395
554.77        69.10104
555.21        68.81628
555.65        68.85121
556.08        68.95271
556.52        69.09825
556.96         69.2163
557.39        69.22501
557.83         69.3308
558.27        68.95919
558.70        68.33432
559.14        68.09386
559.57        68.23905
560.01        68.35496
560.45        68.40844
560.88        68.57307
561.32        68.82169
561.75        69.06246
562.19        69.24531
562.63        69.07499
563.06        68.67829
563.50        68.68938
563.93        68.99589
564.37         69.0659
564.80        68.91363
565.24        68.73425
565.68        68.42189
566.11        69.13785
566.55        68.40723
566.98        68.28472
567.42        68.17764
567.85        68.32729
568.29         68.7022
568.72        69.10119
569.16        69.55721
569.60        69.69326
570.03        69.68204
570.47        69.94335
570.90        70.37042
571.34        69.23834
571.77        69.81825
572.21         70.3543
572.64        70.12327
573.08         70.2036
573.51        69.43044
573.95        69.60719
574.38        70.53307
574.82        70.54333
