SpectraSmart Spectrum 2.9.0.0
--------- Device Information -----------
Spectrum Name :  反射率_0
Saving Time :  2024/04/27 00:42:49
Spectro-Module Model Name : SE2030-DUVN
Spectro-Module Serial Number : OS361AC55029948
Wavelength Start : 200
Wavelength End : 1025
Wavelength Unit : Wavelength(nm)
Spectrum Unit : Reflectance(%)
-----------Spectrum Setting ------------
Integration Time : 20ms
Average : 10
Boxcar : 0
Background removal :  enabled
linearity correction :  enabled
SC :  disabled
Intensity correction :  disabled
DWT denoise :  enabled
savitzky-golay :  disabled
FFT :  disabled
Running average :  disabled
Kalman :  disabled
High pass :  disabled
---------------BEGIN--------------------
Wavelength(nm)             Reflectance(%)
200.29               0
200.75        53.49833
201.21        49.21992
201.67        45.30436
202.13        42.64181
202.58        41.05066
203.04         40.4471
203.50        40.98773
203.96        42.78662
204.42        45.72414
204.88        49.56847
205.34        53.38255
205.80        55.71938
206.26        55.99093
206.72        54.43363
207.18        51.87551
207.64        48.75635
208.10        44.99738
208.55        40.44885
209.01        34.83965
209.47        31.76391
209.93        33.51077
210.39        37.44391
210.85        42.02594
211.31        48.00148
211.77        57.65738
212.23        77.43716
212.69        122.8506
213.14        187.6778
213.60        164.4116
214.06        102.3512
214.52        65.87624
214.98        51.45928
215.44        47.04115
215.90        46.83646
216.36        48.68189
216.81        49.89617
217.27        49.83186
217.73        49.93613
218.19        49.72352
218.65        47.64737
219.11        44.89633
219.57        42.36762
220.02        41.96204
220.48        45.75684
220.94        54.05759
221.40        68.24071
221.86        88.06264
222.32        100.8912
222.77        95.52248
223.23        80.69128
223.69        65.31764
224.15        54.20376
224.61        46.94213
225.06        41.61718
225.52        38.42972
225.98        37.50885
226.44        38.38615
226.90        40.81459
227.36        43.50594
227.81        44.21187
228.27        42.68521
228.73         39.6654
229.19         36.7327
229.65        35.71901
230.10        36.67443
230.56        38.94285
231.02        41.22157
231.48        41.47424
231.93        39.45946
232.39         36.3871
232.85        33.52688
233.31        32.49205
233.77        33.43805
234.22         35.7406
234.68        38.62918
235.14        41.05804
235.60        42.64534
236.05        43.73508
236.51        44.38277
236.97        44.67216
237.43        44.69933
237.88        44.37431
238.34        43.94856
238.80        44.17238
239.26        45.38675
239.71        48.01772
240.17         51.8693
240.63        56.13161
241.08        60.17776
241.54        63.51568
242.00         66.9591
242.46        72.88569
242.91        83.64103
243.37        100.5588
243.83        124.5105
244.28        146.4144
244.74        150.7838
245.20        136.2741
245.66        115.5584
246.11        100.6245
246.57        92.73181
247.03        88.61685
247.48        85.97635
247.94        81.94827
248.40        77.33968
248.85         73.7777
249.31        71.91649
249.77         71.3646
250.22        71.63161
250.68        72.15116
251.14        73.00779
251.59        74.25043
252.05        75.71729
252.51        77.73694
252.96        77.91142
253.42        74.60901
253.88        68.68774
254.33        61.18412
254.79         56.1017
255.25        56.57035
255.70        61.86102
256.16        70.40383
256.62        77.61575
257.07        76.92541
257.53        70.24381
257.99        61.84696
258.44        55.19811
258.90        53.11426
259.35        54.24091
259.81        57.20942
260.27        60.02724
260.72        60.32472
261.18        58.34082
261.63        55.05268
262.09         52.0729
262.55        50.57398
263.00        50.40056
263.46        51.03055
263.91        51.49417
264.37        50.87471
264.83        49.11617
265.28        46.69975
265.74        44.41528
266.19        42.93155
266.65        42.38344
267.11        42.38886
267.56        42.55935
268.02        42.30342
268.47        41.46737
268.93        40.30407
269.38        38.99181
269.84        37.83532
270.30        36.91623
270.75        36.10957
271.21        35.43526
271.66        34.88669
272.12        34.43584
272.57        34.07183
273.03        33.67938
273.48        33.05661
273.94        32.22333
274.39        31.22201
274.85        30.25143
275.31         29.4673
275.76        28.88577
276.22        28.48401
276.67        28.15471
277.13        27.81889
277.58        27.40462
278.04        26.95003
278.49        26.45648
278.95        26.02545
279.40         25.6274
279.86        25.29961
280.31        24.91796
280.77        24.39654
281.22        23.72024
281.68        22.99307
282.13        22.35303
282.59        22.05189
283.04        22.08625
283.50        22.38015
283.95        22.75145
284.41        22.91171
284.86        22.79065
285.32        22.50648
285.77        22.18612
286.22        22.06316
286.68        22.18314
287.13        22.43065
287.59        22.73632
288.04        22.95999
288.50        23.07699
288.95        23.11363
289.41        23.10383
289.86        23.03372
290.32        22.95425
290.77        22.86861
291.22        22.83848
291.68        22.94536
292.13        23.20729
292.59        23.63107
293.04        24.20951
293.50        24.93623
293.95        25.79148
294.40        26.78228
294.86        27.87756
295.31        29.01969
295.77        30.20219
296.22        31.41875
296.68        32.71375
297.13        34.15018
297.58        35.74304
298.04        37.46659
298.49        39.26055
298.95        41.04776
299.40        42.78816
299.85        44.50326
300.31        46.22284
300.76        47.97482
301.21        49.78123
301.67        51.65374
302.12         53.5475
302.58        55.47722
303.03        57.39843
303.48        59.32994
303.94        61.31618
304.39        63.36193
304.84        65.48113
305.30        67.66119
305.75        69.79566
306.20        71.81173
306.66        73.70379
307.11        75.46514
307.57        77.14566
308.02        78.71966
308.47        80.22248
308.93        81.65558
309.38        83.05733
309.83        84.60205
310.29        86.30937
310.74        88.12504
311.19         89.8602
311.65        91.17348
312.10        91.97678
312.55        92.37444
313.00        92.63223
313.46        93.16939
313.91         94.0642
314.36        95.22576
314.82        96.43787
315.27        97.35849
315.72         97.8735
316.18        98.11793
316.63        98.23763
317.08          98.507
317.53        99.00021
317.99        99.61472
318.44        100.2516
318.89        100.7251
319.35        100.9824
319.80        101.1027
320.25        101.1652
320.70        101.2908
321.16         101.518
321.61        101.8415
322.06         102.218
322.51        102.5887
322.97         102.913
323.42        103.2068
323.87        103.5147
324.32        103.9316
324.78        104.4309
325.23        105.0522
325.68        105.5905
326.13        105.7321
326.59        105.4274
327.04        104.8103
327.49        104.1818
327.94        104.0472
328.39        104.5217
328.85        105.4256
329.30        106.5714
329.75        107.3601
330.20        107.5921
330.66        107.3999
331.11        107.0553
331.56        106.9273
332.01        107.1431
332.46        107.5694
332.92        108.0333
333.37         108.412
333.82        108.5914
334.27        108.6821
334.72        108.7534
335.17        108.8889
335.63        109.1226
336.08        109.4767
336.53        109.9698
336.98        110.6858
337.43        111.6104
337.88        112.6748
338.34        113.7516
338.79        114.7483
339.24         115.543
339.69        116.1629
340.14        116.5315
340.59        116.5494
341.05        116.2892
341.50        115.8221
341.95        115.4189
342.40        115.4889
342.85        116.1147
343.30        117.1577
343.75        118.4195
344.20        119.5469
344.66        120.3991
345.11        121.0638
345.56        121.4918
346.01        121.6284
346.46        121.5264
346.91        121.2114
347.36        120.9125
347.81        121.0102
348.26        121.5558
348.72        122.4156
349.17        123.3484
349.62        123.9937
350.07        124.2367
350.52        124.2066
350.97        123.9079
351.42        123.3653
351.87        122.6567
352.32        121.7864
352.77        121.0076
353.22        120.6883
353.67        120.8723
354.13        121.4637
354.58        122.1402
355.03        122.3046
355.48        121.8091
355.93        120.8178
356.38        119.7066
356.83        119.0513
357.28        118.9638
357.73        119.2455
358.18        119.5506
358.63          119.33
359.08        118.4548
359.53        117.1283
359.98        115.6608
360.43        114.4906
360.88        113.7245
361.33        113.2286
361.78        112.7997
362.23        112.1267
362.68        111.1461
363.13        109.9838
363.58        108.8254
364.03        107.9368
364.48        107.3635
364.93        106.9886
365.38        106.6514
365.83        106.1106
366.28        105.3027
366.73        104.3201
367.18        103.2533
367.63        102.2347
368.08        101.3169
368.53        100.4655
368.98        99.68328
369.43         98.9725
369.88        98.32578
370.33        97.75242
370.78        97.22334
371.23        96.68778
371.68        96.12571
372.13        95.52635
372.58        94.91346
373.03        94.33286
373.48        93.78074
373.93        93.23392
374.38        92.62476
374.83        91.85638
375.28        90.92577
375.72        89.86488
376.17        88.82771
376.62        87.92876
377.07         87.2138
377.52        86.67431
377.97        86.24562
378.42        85.83091
378.87        85.40114
379.32        84.94935
379.77         84.5799
380.22        84.44521
380.67        84.53666
381.11        84.82224
381.56        84.98408
382.01          84.598
382.46        83.62292
382.91        82.26035
383.36        80.91759
383.81        80.14857
384.26        80.03627
384.71        80.39313
385.15        80.93438
385.60        81.16009
386.05        80.92065
386.50        80.36792
386.95        79.64773
387.40        78.99107
387.85         78.4833
388.29        78.00092
388.74        77.61976
389.19         77.2496
389.64        76.87215
390.09        76.52015
390.54        76.19363
390.98        75.86472
391.43        75.56537
391.88        75.27801
392.33        75.03001
392.78        74.77982
393.23          74.509
393.67        74.39462
394.12        74.43665
394.57        73.87234
395.02        73.27765
395.47        73.13326
395.91        73.49097
396.36        73.45341
396.81        73.00933
397.26        72.67567
397.71        72.45307
398.15        72.17837
398.60        71.95358
399.05        71.54884
399.50         71.0954
399.95        71.27419
400.39        71.87777
400.84          71.661
401.29        70.70543
401.74        70.20784
402.18        70.24807
402.63        70.10995
403.08        69.80997
403.53        69.66759
403.97        69.67622
404.42        69.76004
404.87        69.81431
405.32        69.65749
405.76        69.25817
406.21        68.74493
406.66        68.25504
407.11        67.94975
407.55        67.93968
408.00        68.24153
408.45        68.70152
408.90        69.01065
409.34        68.97559
409.79        68.41823
410.24        67.60194
410.68        67.17122
411.13        67.21981
411.58        67.44024
412.03        67.66351
412.47        67.71724
412.92         67.5108
413.37        67.14217
413.81         66.7529
414.26        66.60482
414.71        66.72147
415.15        67.04725
415.60        67.43356
416.05        67.69845
416.49        67.78073
416.94        67.72957
417.39        67.62907
417.83        67.59616
418.28        67.66792
418.73        67.79299
419.17        67.94138
419.62        68.07378
420.07        68.16356
420.51         68.2103
420.96        68.22775
421.41         68.1681
421.85        68.01657
422.30        67.88646
422.74        67.74306
423.19         67.5854
423.64        67.42181
424.08        67.37742
424.53        67.46307
424.98        67.61025
425.42        67.80703
425.87         68.1638
426.31        68.53684
426.76        68.40942
427.21        67.87294
427.65        67.55368
428.10        67.52254
428.54        67.53073
428.99        67.63982
429.44        67.72025
429.88        67.85738
430.33        68.65466
430.77        69.70306
431.22        70.00843
431.66        69.55228
432.11         68.8902
432.56        68.32944
433.00          68.328
433.45        68.95983
433.89        69.63103
434.34        69.71682
434.78        70.76114
435.23        69.36169
435.67         68.3593
436.12        68.59378
436.57        68.85855
437.01        69.41179
437.46        69.61204
437.90         69.4623
438.35        69.00009
438.79        69.04022
439.24        69.02467
439.68        69.15353
440.13        69.49429
440.57         70.0048
441.02        70.22528
441.46        70.17155
441.91        70.74132
442.35        71.57587
442.80        71.40272
443.24         70.4342
443.69         70.3384
444.13        71.06638
444.58        71.33733
445.02        71.11699
445.47        71.14333
445.91        71.43592
446.36        71.69065
446.80        71.87217
447.24        72.10548
447.69        72.33888
448.13        72.35192
448.58        72.22834
449.02        72.20972
449.47        72.28001
449.91        72.29498
450.36        72.31085
450.80        71.84473
451.25         72.0452
451.69        72.03109
452.13        72.13714
452.58         72.3254
453.02        72.52777
453.47        72.62278
453.91        72.56526
454.36        72.40398
454.80        72.17412
455.24        71.91313
455.69        71.65965
456.13        71.44833
456.58         71.3286
457.02        71.04704
457.46        70.73705
457.91        70.90244
458.35        71.31691
458.79        71.23489
459.24        70.66624
459.68        69.94521
460.13        69.36826
460.57        69.10368
461.01        69.24391
461.46         69.6758
461.90        70.24526
462.34        70.66521
462.79        70.65423
463.23        70.79592
463.68        70.90881
464.12        70.66899
464.56        70.09462
465.01        69.28391
465.45        68.44118
465.89        68.32486
466.34        68.75661
466.78        68.83487
467.22         68.5182
467.67         68.1702
468.11        67.97857
468.55        68.15429
468.99        68.48596
469.44        68.53225
469.88        68.23238
470.32        67.94736
470.77        67.74928
471.21        67.57977
471.65        67.45473
472.10        67.39509
472.54        67.39046
472.98        67.39195
473.42        67.37347
473.87        67.48064
474.31        67.59039
474.75        67.29466
475.20        66.71993
475.64        66.54337
476.08        66.81714
476.52        66.74189
476.97        66.21878
477.41        66.57764
477.85        67.04842
478.29        66.09314
478.74        66.38946
479.18        66.96107
479.62        66.69823
480.06        66.78205
480.50        66.61189
480.95        66.76836
481.39        66.68398
481.83        66.41643
482.27        66.20294
482.72        66.43278
483.16        66.08727
483.60        66.15551
484.04        66.29881
484.48        66.61194
484.93        66.93243
485.37         66.8757
485.81        66.54872
486.25        66.27505
486.69        68.57407
487.14        68.67024
487.58        66.01108
488.02        66.82246
488.46          65.497
488.90        65.40217
489.34         66.5689
489.79        67.42319
490.23        66.59571
490.67        66.09879
491.11        65.69712
491.55        65.58762
491.99        65.71013
492.43        65.59999
492.88         65.2826
493.32        65.20952
493.76         65.3847
494.20        65.51458
494.64        65.56234
495.08        65.63793
495.52        65.72816
495.96        65.72247
496.41        65.63538
496.85        65.69117
497.29        65.74022
497.73        65.67921
498.17        64.78378
498.61        64.67693
499.05        65.07609
499.49        65.26287
499.93        64.96366
500.37        64.97335
500.82        65.24735
501.26        65.17065
501.70        65.32996
502.14        65.38866
502.58        65.51371
503.02        65.59421
503.46        65.62543
503.90        65.64534
504.34        65.62758
504.78        65.52902
505.22        65.34595
505.66        65.12164
506.10         64.9366
506.54        64.79682
506.98        64.69794
507.42        64.97339
507.86        65.14674
508.30        64.96273
508.74        65.11828
509.18        64.96898
509.62        64.81798
510.06        64.73331
510.50        64.74657
510.94        64.81137
511.38        64.88832
511.82        64.93858
512.26        64.94585
512.70        64.93247
513.14        64.90463
513.58        64.86915
514.02        64.83387
514.46         64.7914
514.90        64.76554
515.34        64.79745
515.78         64.8875
516.22        65.01923
516.66        65.14326
517.10        65.17967
517.54          65.112
517.98        64.96763
518.42        64.79099
518.86        64.65483
519.30        64.58367
519.74        64.55882
520.18        64.56732
520.62        64.58537
521.06        64.60534
521.50        64.64165
521.93        64.69213
522.37        64.72989
522.81        64.75763
523.25        64.76832
523.69        64.78037
524.13        64.82978
524.57         64.9135
525.01        65.00938
525.45        65.07591
525.89        65.04676
526.32         64.9052
526.76        64.70162
527.20        64.46391
527.64         64.2406
528.08        64.05736
528.52        63.90428
528.96        63.81334
529.40         63.8308
529.83        63.95078
530.27        64.16255
530.71        64.38515
531.15        64.49474
531.59        64.46305
532.03        64.31879
532.46        64.12506
532.90        64.03192
533.34        64.06064
533.78        64.13113
534.22        64.19004
534.66        64.23518
535.09        64.20146
535.53        63.97281
535.97        63.61889
536.41        63.41154
536.85        63.38641
537.28        63.41013
537.72        63.46722
538.16        63.58162
538.60        63.73216
539.04        63.90812
539.47        64.05713
539.91        64.13995
540.35          64.134
540.79         64.0541
541.22        63.93695
541.66        63.86579
542.10        63.85503
542.54        63.88602
542.97        63.92236
543.41        63.93351
543.85        63.89899
544.29        63.84362
544.72        63.77418
545.16        63.71743
545.60        63.66676
546.04        63.67642
546.47        63.74606
546.91        63.73161
547.35        63.68854
547.79         63.9211
548.22        64.32238
548.66        64.44943
549.10        64.33711
549.53        64.17506
549.97        64.04946
550.41        63.79597
550.84        63.48642
551.28        63.49797
551.72        63.82221
552.15        63.53567
552.59        63.87745
553.03        63.72569
553.46        64.00143
553.90        64.02718
554.34        63.96811
554.77         63.8477
555.21        63.73492
555.65        63.74168
556.08        63.86705
556.52        64.06351
556.96        64.22742
557.39        64.29342
557.83        64.22424
558.27        63.87368
558.70         63.3726
559.14        63.16662
559.57        63.25328
560.01        63.35419
560.45         63.4372
560.88        63.57616
561.32        63.76295
561.75        64.00933
562.19        64.24899
562.63        64.10563
563.06        63.69131
563.50          63.647
563.93        63.89116
564.37         63.9413
564.80        63.81975
565.24        63.70999
565.68        63.48039
566.11        64.16928
566.55        63.47599
566.98        63.28095
567.42        63.08816
567.85        63.29959
568.29        63.85746
568.72        64.32293
569.16         64.6935
569.60        64.85611
570.03        64.98858
570.47        65.06598
570.90        65.26054
571.34        64.46299
571.77        64.90226
572.21        65.32674
572.64         65.0045
573.08        65.51323
573.51        64.48311
573.95        64.59351
574.38        65.25643
574.82        65.62837
