SpectraSmart Spectrum 2.9.0.0
--------- Device Information -----------
Spectrum Name :  反射率_0
Saving Time :  2024/04/27 00:43:31
Spectro-Module Model Name : SE2030-DUVN
Spectro-Module Serial Number : OS361AC55029948
Wavelength Start : 200
Wavelength End : 1025
Wavelength Unit : Wavelength(nm)
Spectrum Unit : Reflectance(%)
-----------Spectrum Setting ------------
Integration Time : 20ms
Average : 10
Boxcar : 0
Background removal :  enabled
linearity correction :  enabled
SC :  disabled
Intensity correction :  disabled
DWT denoise :  enabled
savitzky-golay :  disabled
FFT :  disabled
Running average :  disabled
Kalman :  disabled
High pass :  disabled
---------------BEGIN--------------------
Wavelength(nm)             Reflectance(%)
200.29               0
200.75        39.39324
201.21        37.83045
201.67        36.71085
202.13        35.75201
202.58         34.7929
203.04        33.98049
203.50        34.36892
203.96          38.322
204.42        46.81179
204.88        59.21123
205.34        71.43245
205.80        76.70944
206.26        73.73085
206.72        64.97964
207.18        55.82374
207.64        50.70192
208.10        49.76057
208.55        52.75434
209.01        57.82097
209.47        58.22403
209.93        52.32315
210.39        45.34976
210.85        41.37643
211.31        42.46796
211.77        49.60823
212.23        67.79308
212.69        114.2866
213.14        192.4193
213.60        188.9106
214.06        133.9086
214.52        96.60962
214.98        79.62146
215.44        71.93606
215.90        66.66405
216.36        63.36071
216.81        62.49957
217.27        64.34516
217.73        70.95124
218.19        79.60762
218.65        77.68117
219.11        64.20604
219.57        48.88471
220.02        39.74585
220.48        40.14984
220.94        49.08434
221.40        67.54746
221.86         94.8485
222.32        112.8028
222.77        105.8038
223.23        85.95115
223.69        66.47196
224.15        54.84282
224.61        49.70828
225.06        47.33633
225.52        46.84278
225.98        47.37774
226.44        48.47659
226.90          50.507
227.36        52.38921
227.81        52.13407
228.27        49.78439
228.73        46.07489
229.19          42.817
229.65        42.12538
230.10        44.02819
230.56         47.7751
231.02        51.78542
231.48         53.5038
231.93        52.44099
232.39        49.89733
232.85        47.28205
233.31        46.44175
233.77        47.58692
234.22        50.02746
234.68         52.8794
235.14         54.9092
235.60        55.69811
236.05        55.66135
236.51        55.06057
236.97        54.46749
237.43        54.23536
237.88         54.3145
238.34         54.6623
238.80         55.4935
239.26        57.01347
239.71        59.76343
240.17        64.00152
240.63        70.21159
241.08        78.35979
241.54        87.47153
242.00        97.23175
242.46        108.2675
242.91        122.5628
243.37        141.4747
243.83          165.08
244.28        183.2367
244.74        180.4338
245.20        156.8587
245.66        130.7707
246.11        117.5735
246.57        117.2236
247.03        125.4347
247.48        133.6125
247.94        127.9522
248.40        111.4088
248.85        93.21276
249.31        79.70244
249.77        73.49335
250.22         73.2609
250.68        77.29009
251.14        84.50858
251.59        90.25346
252.05          91.422
252.51         90.3396
252.96        87.47279
253.42        83.97026
253.88        80.37896
254.33        76.07175
254.79        73.84428
255.25        75.83488
255.70        81.32186
256.16        89.29366
256.62        95.64462
257.07        94.43712
257.53        87.76377
257.99        79.56627
258.44         72.9171
258.90        70.50964
259.35        70.96829
259.81        73.16482
260.27        75.34546
260.72        75.47924
261.18        73.80728
261.63         70.9833
262.09        68.43374
262.55        67.03184
263.00        66.60534
263.46        66.83506
263.91        66.81519
264.37        65.80788
264.83        63.78997
265.28        61.19379
265.74        58.83012
266.19        57.33043
266.65        56.82445
267.11        56.88397
267.56        57.13249
268.02        57.00021
268.47        56.30369
268.93        55.29888
269.38        54.00512
269.84        52.51055
270.30        50.89702
270.75        49.13602
271.21        47.54271
271.66        46.53625
272.12        46.16358
272.57         46.2592
273.03        46.43587
273.48        46.03785
273.94        44.98816
274.39        43.48417
274.85        41.91131
275.31        40.65034
275.76        39.77012
276.22        39.16647
276.67        38.70139
277.13        38.29459
277.58        37.84073
278.04         37.4115
278.49        36.92245
278.95        36.36705
279.40        35.69945
279.86        35.00586
280.31        34.27429
280.77        33.61519
281.22        33.01182
281.68        32.50687
282.13        32.08017
282.59        31.80023
283.04        31.61934
283.50         31.5293
283.95        31.46534
284.41        31.34161
284.86        31.13706
285.32        30.91934
285.77        30.68722
286.22        30.50747
286.68        30.40067
287.13        30.30386
287.59        30.27917
288.04         30.3718
288.50        30.58873
288.95        30.87048
289.41        31.11052
289.86        31.07783
290.32        30.79532
290.77        30.33888
291.22        29.90217
291.68        29.75409
292.13        29.95556
292.59        30.46301
293.04         31.1804
293.50        31.96687
293.95        32.76812
294.40        33.63616
294.86        34.62078
295.31        35.78406
295.77        37.13721
296.22        38.61387
296.68        40.16513
297.13        41.71173
297.58        43.23888
298.04        44.77367
298.49         46.3259
298.95        47.93072
299.40        49.58568
299.85        51.28368
300.31        53.03013
300.76        54.81161
301.21        56.62931
301.67        58.49665
302.12        60.37127
302.58        62.27752
303.03        64.16424
303.48        66.05444
303.94        67.95015
304.39        69.78812
304.84        71.58973
305.30        73.37025
305.75         75.1269
306.20        76.95075
306.66        78.85883
307.11        80.78593
307.57        82.65456
308.02        84.23283
308.47        85.52353
308.93        86.60711
309.38        87.63139
309.83        88.94373
310.29         90.6037
310.74        92.48837
311.19        94.35503
311.65        95.77728
312.10        96.62875
312.55        97.04457
313.00        97.27328
313.46        97.70292
313.91        98.41833
314.36        99.33868
314.82        100.3109
315.27        101.1057
315.72        101.6338
316.18        101.9972
316.63        102.2807
317.08        102.6601
317.53        103.1805
317.99        103.7675
318.44        104.3399
318.89        104.7436
319.35        104.9378
319.80         104.982
320.25        104.9702
320.70        105.0501
321.16        105.2643
321.61        105.6155
322.06        106.0146
322.51        106.3252
322.97        106.4924
323.42        106.5461
323.87        106.6195
324.32        106.9528
324.78        107.5452
325.23        108.4017
325.68        109.1836
326.13        109.3435
326.59         108.784
327.04        107.7251
327.49        106.6346
327.94         106.276
328.39        106.8273
328.85        108.0267
329.30        109.5834
329.75        110.6963
330.20        111.0847
330.66        110.9463
331.11        110.5759
331.56        110.3822
332.01        110.5189
332.46        110.8163
332.92        111.1712
333.37        111.5977
333.82        111.9999
334.27        112.4639
334.72        112.9063
335.17         113.148
335.63        113.1661
336.08        113.0603
336.53        113.0323
336.98        113.4764
337.43        114.4665
337.88        115.8502
338.34        117.3443
338.79        118.5907
339.24        119.3762
339.69        119.7974
340.14        119.8895
340.59        119.7367
341.05        119.4582
341.50        119.0568
341.95        118.7083
342.40        118.6779
342.85        119.0326
343.30        119.7183
343.75        120.6294
344.20        121.5573
344.66        122.4048
345.11        123.1911
345.56        123.8563
346.01        124.3295
346.46        124.6187
346.91        124.7417
347.36        124.7888
347.81         124.929
348.26         125.192
348.72        125.5105
349.17        125.8469
349.62        126.1733
350.07        126.4552
350.52        126.7324
350.97        126.8399
351.42         126.512
351.87        125.7548
352.32        124.6808
352.77        123.6616
353.22        123.2391
353.67        123.5003
354.13        124.2698
354.58        125.1841
355.03        125.5839
355.48        125.2808
355.93        124.4597
356.38        123.4519
356.83        122.7621
357.28         122.503
357.73        122.4948
358.18        122.4851
358.63        122.0863
359.08        121.2093
359.53        120.0139
359.98        118.7181
360.43        117.6136
360.88        116.7711
361.33        116.1008
361.78        115.4651
362.23        114.6566
362.68        113.6437
363.13        112.5227
363.58        111.4274
364.03        110.5467
364.48        109.9093
364.93        109.4228
365.38        108.9901
365.83        108.4677
366.28        107.8088
366.73        107.0701
367.18        106.2514
367.63        105.3478
368.08        104.3817
368.53        103.3565
368.98        102.3692
369.43        101.5744
369.88        100.9998
370.33        100.6102
370.78        100.2798
371.23        99.79593
371.68        99.10085
372.13        98.24175
372.58        97.34337
373.03        96.60946
373.48        96.07696
373.93        95.66964
374.38         95.2486
374.83         94.6021
375.28        93.69469
375.72        92.60267
376.17        91.51407
376.62        90.58959
377.07        89.89148
377.52         89.3862
377.97        89.01757
378.42        88.70698
378.87        88.41595
379.32        88.12825
379.77        87.90404
380.22        87.82889
380.67        87.88596
381.11        88.06634
381.56        88.09388
382.01        87.62617
382.46        86.64815
382.91        85.33399
383.36        84.06717
383.81        83.36793
384.26        83.30413
384.71        83.69702
385.15        84.25037
385.60         84.4416
386.05        84.12369
386.50        83.46106
386.95        82.62132
387.40        81.87211
387.85        81.31024
388.29        80.79909
388.74        80.42323
389.19        80.09363
389.64        79.78849
390.09        79.54572
390.54        79.32597
390.98        79.03566
391.43        78.69689
391.88        78.30272
392.33        77.94631
392.78        77.70141
393.23        77.56026
393.67        77.63924
394.12        77.83537
394.57        77.41665
395.02         76.5513
395.47        76.26843
395.91        76.55064
396.36        76.46179
396.81        75.99918
397.26        75.72575
397.71        75.62108
398.15        75.38101
398.60        75.08495
399.05        74.71542
399.50         74.3419
399.95        74.17056
400.39         74.1695
400.84        74.00008
401.29        73.66084
401.74        73.38318
402.18        73.18845
402.63        72.92324
403.08        72.64626
403.53        72.48601
403.97        72.44019
404.42        72.45977
404.87        72.49567
405.32        72.43095
405.76        72.23295
406.21        72.08733
406.66        71.96527
407.11        71.61722
407.55        71.21989
408.00        71.18217
408.45        71.47663
408.90        71.90475
409.34        72.16008
409.79        71.55212
410.24         70.3957
410.68         69.8825
411.13        70.11049
411.58        70.41758
412.03        70.60303
412.47        70.63406
412.92        70.41788
413.37        70.00752
413.81         69.5562
414.26        69.35375
414.71         69.4258
415.15        69.71315
415.60        70.06923
416.05         70.3131
416.49        70.38449
416.94          70.341
417.39        70.24629
417.83        70.17995
418.28        70.17854
418.73        70.20368
419.17        70.26997
419.62        70.41179
420.07        70.60776
420.51        70.81807
420.96        71.00505
421.41        71.03413
421.85        70.86758
422.30        70.67535
422.74        70.43005
423.19        70.09922
423.64        69.73253
424.08        69.54919
424.53        69.58015
424.98        69.74592
425.42        70.00401
425.87        70.38124
426.31         70.7505
426.76        70.68867
427.21        70.30669
427.65        70.21387
428.10        70.40472
428.54        70.52442
428.99        70.61727
429.44        70.54298
429.88        70.46739
430.33        71.22118
430.77        72.36854
431.22        72.65706
431.66        72.03384
432.11        71.25237
432.56        70.65687
433.00        70.41353
433.45        70.72787
433.89        71.65774
434.34        72.40379
434.78        73.18163
435.23        72.29182
435.67        69.86642
436.12        70.80386
436.57        70.97701
437.01        71.61955
437.46        71.84406
437.90        71.65281
438.35        70.92352
438.79        71.03065
439.24        70.97559
439.68        71.10785
440.13        71.60721
440.57        72.34081
441.02        72.39329
441.46         71.8839
441.91        72.40984
442.35        73.54829
442.80        73.38571
443.24        72.20227
443.69        72.21648
444.13          73.272
444.58        73.80113
445.02        73.26169
445.47        73.03554
445.91        73.09051
446.36        73.18814
446.80         73.3298
447.24        73.60905
447.69        73.95519
448.13         74.1064
448.58        74.16911
449.02        74.19999
449.47        74.25653
449.91        74.23994
450.36        74.18411
450.80        74.12979
451.25        74.09895
451.69         74.0347
452.13        73.95634
452.58        73.88235
453.02        73.82583
453.47        73.80909
453.91        73.81773
454.36        73.85375
454.80        73.91172
455.24        73.79484
455.69        73.47549
456.13        73.36703
456.58        73.57449
457.02        72.51952
457.46        72.40211
457.91        72.57369
458.35        73.31104
458.79         73.3687
459.24        72.77962
459.68        71.99187
460.13        71.24593
460.57        71.00688
461.01        71.46893
461.46        70.83222
461.90        71.69193
462.34        72.22443
462.79        72.20639
463.23        72.34223
463.68        72.28361
464.12        72.29287
464.56        72.20138
465.01        71.31641
465.45         70.0097
465.89        69.84289
466.34         70.6191
466.78        70.97029
467.22        70.81655
467.67        70.31139
468.11        70.40447
468.55        70.33668
468.99        70.33389
469.44         70.1721
469.88        69.87444
470.32        69.64503
470.77        69.52672
471.21        69.47686
471.65        69.48804
472.10        69.58648
472.54        69.71368
472.98        69.75031
473.42        69.66087
473.87        69.58546
474.31        69.48701
474.75        69.14587
475.20        68.71346
475.64        68.69785
476.08        69.04401
476.52        69.06898
476.97        68.71164
477.41        68.52097
477.85        68.69999
478.29        67.99294
478.74        68.88546
479.18        68.91279
479.62        68.68664
480.06        68.57746
480.50        68.51127
480.95         68.5792
481.39        68.80628
481.83        68.09892
482.27        68.19631
482.72        68.74007
483.16        68.33021
483.60        68.49206
484.04        68.64922
484.48        68.92259
484.93        69.10899
485.37        68.96464
485.81        68.20488
486.25        67.84965
486.69         70.0382
487.14        70.15438
487.58        68.01093
488.02        68.80842
488.46        67.46278
488.90        67.92535
489.34         69.0078
489.79        70.17496
490.23        69.00967
490.67        68.38622
491.11        67.89537
491.55        67.64202
491.99        67.61307
492.43        67.44088
492.88        67.17413
493.32        67.23956
493.76        67.57738
494.20        67.79504
494.64        67.83183
495.08         67.7893
495.52        67.71832
495.96        67.70591
496.41        67.76223
496.85        67.86569
497.29         67.8499
497.73        67.85553
498.17        67.09838
498.61        66.90466
499.05        67.04104
499.49        67.27248
499.93        67.28078
500.37        67.32649
500.82        67.34051
501.26        67.39355
501.70        67.48418
502.14          67.548
502.58         67.6037
503.02        67.69639
503.46        67.82674
503.90        67.99469
504.34        68.12132
504.78        68.07648
505.22        67.84489
505.66        67.45194
506.10        67.04364
506.54        66.85354
506.98        66.87418
507.42        67.00488
507.86        67.22031
508.30        66.90771
508.74        67.20099
509.18        67.09518
509.62        66.96409
510.06        66.87512
510.50        66.85265
510.94        66.84727
511.38        66.84512
511.82        66.86005
512.26        66.88876
512.70        66.94499
513.14        67.00787
513.58        67.03695
514.02        67.02741
514.46        66.98209
514.90        66.95208
515.34        67.02415
515.78        67.20189
516.22        67.44453
516.66        67.66258
517.10        67.71396
517.54        67.57226
517.98        67.29753
518.42        66.96333
518.86        66.68731
519.30        66.51603
519.74        66.41804
520.18        66.40285
520.62         66.4804
521.06        66.63691
521.50        66.87234
521.93        67.11951
522.37        67.24171
522.81        67.21846
523.25        67.07677
523.69        66.89861
524.13          66.824
524.57        66.87772
525.01        67.00327
525.45        67.13711
525.89        67.17546
526.32         67.0872
526.76        66.94202
527.20        66.74775
527.64        66.53516
528.08        66.33434
528.52        66.08854
528.96        65.88387
529.40        65.97482
529.83        66.30802
530.27        66.57463
530.71        66.69776
531.15        66.79313
531.59        66.83472
532.03        66.71083
532.46        66.46616
532.90         66.2942
533.34        66.22245
533.78        66.16238
534.22        66.10902
534.66        66.13608
535.09        66.18624
535.53        66.11632
535.97        65.93516
536.41        65.82379
536.85        65.79453
537.28        65.73598
537.72        65.68066
538.16        65.73425
538.60        65.89689
539.04          66.132
539.47        66.34787
539.91        66.44715
540.35        66.39504
540.79        66.23095
541.22         66.0264
541.66        65.91655
542.10        65.92908
542.54         66.0265
542.97        66.14433
543.41        66.21293
543.85        66.19663
544.29        66.12616
544.72         66.0284
545.16        65.96264
545.60        65.93259
546.04        65.98866
546.47        66.09675
546.91        66.07915
547.35        65.99139
547.79        66.09454
548.22        66.35288
548.66        66.57076
549.10        66.73307
549.53        66.67182
549.97        66.44708
550.41        66.21638
550.84        66.08501
551.28        66.05558
551.72        66.06963
552.15        66.17291
552.59        66.43324
553.03        65.86825
553.46         66.4369
553.90        66.37682
554.34         66.2618
554.77        66.09853
555.21        65.96616
555.65        65.95824
556.08        66.05473
556.52        66.15227
556.96        66.19736
557.39        66.31442
557.83        66.44212
558.27         66.2168
558.70        65.72829
559.14        65.54405
559.57        65.65836
560.01        65.64574
560.45        65.53673
560.88        65.71826
561.32        66.13186
561.75        66.34929
562.19        66.34337
562.63        66.23174
563.06        66.06852
563.50         65.9754
563.93        65.93078
564.37        65.93221
564.80         65.9938
565.24        66.01665
565.68        65.83098
566.11        66.51333
566.55        65.70998
566.98        65.59087
567.42        65.57512
567.85        65.68605
568.29        65.91862
568.72        66.25501
569.16        66.72329
569.60        66.87867
570.03        66.89552
570.47        67.04435
570.90        67.52635
571.34        66.40184
571.77        67.11471
572.21        67.45209
572.64        67.38747
573.08        67.40569
573.51        66.54364
573.95        66.54256
574.38        67.30998
574.82        67.22436
