SpectraSmart Spectrum 2.9.0.0
--------- Device Information -----------
Spectrum Name :  反射率_0
Saving Time :  2024/04/27 00:42:37
Spectro-Module Model Name : SE2030-DUVN
Spectro-Module Serial Number : OS361AC55029948
Wavelength Start : 200
Wavelength End : 1025
Wavelength Unit : Wavelength(nm)
Spectrum Unit : Reflectance(%)
-----------Spectrum Setting ------------
Integration Time : 20ms
Average : 10
Boxcar : 0
Background removal :  enabled
linearity correction :  enabled
SC :  disabled
Intensity correction :  disabled
DWT denoise :  enabled
savitzky-golay :  disabled
FFT :  disabled
Running average :  disabled
Kalman :  disabled
High pass :  disabled
---------------BEGIN--------------------
Wavelength(nm)             Reflectance(%)
200.29               0
200.75        47.85484
201.21        42.20947
201.67        36.46271
202.13        32.21863
202.58        29.32046
203.04        27.33804
203.50        26.44169
203.96        27.23931
204.42        30.01435
204.88        34.62596
205.34        39.96964
205.80        43.82198
206.26        45.17049
206.72        44.37008
207.18        41.93363
207.64        38.05766
208.10         32.4902
208.55        24.25513
209.01        13.66364
209.47        8.493399
209.93        12.90154
210.39        21.76473
210.85        29.75916
211.31        35.41644
211.77        40.50272
212.23         48.0038
212.69        64.96708
213.14        99.37926
213.60        108.4229
214.06        91.78821
214.52        76.86901
214.98        67.75044
215.44        60.80787
215.90        53.26881
216.36        46.12202
216.81        41.22336
217.27        39.36476
217.73        41.26342
218.19        44.52068
218.65        40.80251
219.11          30.496
219.57        20.27521
220.02         15.5597
220.48        18.80315
220.94        29.97676
221.40        51.16904
221.86        81.52343
222.32        100.6587
222.77        91.78615
223.23        68.32848
223.69        46.63246
224.15        36.14339
224.61         34.4264
225.06        36.44642
225.52        39.46735
225.98         40.8635
226.44        40.34298
226.90        39.14335
227.36        37.56063
227.81        35.93742
228.27        34.66249
228.73        33.36631
229.19        32.48874
229.65        32.63166
230.10        33.69515
230.56        35.54564
231.02        37.26551
231.48         37.3528
231.93        35.67157
232.39        33.08316
232.85        30.69894
233.31        30.00299
233.77        31.09067
234.22        33.40787
234.68        36.10498
235.14        37.96566
235.60        38.60396
236.05        38.42243
236.51        37.67207
236.97        36.87811
237.43        36.39896
237.88        36.12601
238.34        36.29942
238.80        37.57485
239.26        40.27524
239.71        44.95905
240.17        51.38807
240.63        58.13725
241.08        63.98442
241.54        68.15584
242.00        71.42529
242.46        76.64145
242.91        86.31155
243.37        101.1317
243.83        121.8855
244.28        140.8812
244.74        144.3438
245.20        131.2392
245.66        111.8986
246.11         95.3562
246.57        82.89384
247.03        72.51471
247.48        63.45893
247.94        56.31895
248.40        52.38709
248.85        51.03151
249.31        51.76699
249.77         54.1412
250.22        57.92843
250.68        63.25565
251.14        69.66461
251.59        74.05285
252.05        74.31477
252.51        72.10806
252.96        67.64599
253.42        61.68706
253.88        55.27062
254.33        48.75055
254.79        45.18263
255.25        46.97086
255.70         53.3708
256.16        62.97373
256.62        71.69872
257.07        73.27882
257.53        68.97874
257.99        62.59797
258.44        57.13059
258.90        55.18181
259.35        55.67097
259.81        57.51225
260.27        59.27909
260.72         59.3321
261.18        57.85349
261.63        55.44101
262.09        53.16752
262.55        51.63416
263.00        50.75317
263.46        50.32561
263.91        49.78844
264.37        48.74343
264.83        47.16666
265.28        45.28362
265.74         43.6078
266.19        42.47883
266.65        41.97584
267.11        41.84767
267.56         41.8128
268.02        41.44089
268.47        40.62792
268.93        39.55091
269.38        38.36012
269.84        37.33089
270.30        36.52295
270.75        35.82862
271.21        35.23204
271.66        34.66423
272.12        34.09401
272.57        33.53024
273.03        32.92026
273.48        32.16712
273.94        31.31566
274.39        30.37768
274.85        29.49641
275.31        28.75192
275.76         28.1401
276.22        27.65508
276.67        27.22565
277.13        26.81846
277.58        26.37486
278.04        25.92721
278.49        25.43134
278.95        24.92212
279.40        24.37183
279.86         23.8397
280.31        23.29578
280.77        22.78162
281.22        22.28156
281.68        21.83352
282.13        21.44951
282.59        21.20494
283.04        21.07512
283.50        21.04739
283.95        21.04777
284.41        20.96544
284.86        20.78011
285.32        20.54822
285.77        20.32637
286.22        20.24365
286.68        20.31742
287.13        20.47092
287.59        20.66075
288.04        20.78407
288.50        20.82998
288.95        20.81484
289.41        20.75887
289.86        20.63835
290.32        20.49625
290.77        20.33355
291.22        20.22566
291.68        20.27673
292.13        20.49518
292.59        20.86323
293.04        21.32136
293.50        21.78382
293.95        22.21981
294.40        22.66943
294.86        23.15091
295.31        23.68631
295.77        24.29724
296.22        24.96188
296.68        25.71914
297.13        26.62299
297.58        27.67277
298.04        28.84151
298.49        30.04843
298.95        31.17698
299.40        32.19071
299.85        33.13402
300.31        34.05058
300.76        35.00302
301.21         36.0218
301.67        37.09645
302.12        38.23259
302.58        39.49786
303.03        40.85983
303.48        42.32754
303.94        43.82955
304.39        45.21264
304.84        46.47943
305.30        47.68647
305.75        48.91872
306.20        50.37397
306.66        52.08615
307.11         53.9563
307.57        55.86432
308.02        57.55448
308.47        58.99546
308.93        60.27351
309.38        61.50022
309.83        62.93534
310.29        64.63595
310.74        66.50887
311.19        68.40643
311.65        70.06069
312.10        71.37502
312.55        72.42374
313.00        73.34322
313.46         74.3609
313.91        75.52666
314.36        76.79206
314.82        78.06513
315.27        79.20724
315.72        80.14938
316.18        80.95003
316.63        81.63905
317.08        82.30807
317.53         82.9899
317.99        83.64639
318.44         84.2611
318.89        84.78355
319.35        85.19868
319.80        85.53422
320.25        85.81902
320.70        86.09758
321.16        86.38488
321.61        86.70424
322.06        87.02897
322.51        87.32057
322.97        87.55719
323.42        87.75153
323.87        87.96459
324.32        88.31563
324.78        88.79036
325.23        89.41496
325.68        89.98856
326.13        90.19258
326.59        89.96579
327.04        89.43237
327.49         88.8661
327.94        88.72755
328.39        89.12439
328.85        89.89521
329.30        90.87034
329.75        91.52409
330.20        91.68369
330.66        91.47136
331.11        91.13417
331.56          91.008
332.01        91.20644
332.46        91.60983
332.92        92.05406
333.37        92.40648
333.82        92.55985
334.27        92.61287
334.72        92.64117
335.17        92.74414
335.63        92.95953
336.08        93.30298
336.53        93.77088
336.98        94.40076
337.43        95.17824
337.88        96.06088
338.34        96.97431
338.79        97.89684
339.24        98.73067
339.69         99.4612
340.14        99.98611
340.59        100.1656
341.05        100.0325
341.50        99.65918
341.95        99.25579
342.40        99.13763
342.85        99.39344
343.30        99.94057
343.75        100.6793
344.20        101.4261
344.66        102.0925
345.11        102.7062
345.56        103.2111
346.01        103.5299
346.46        103.6708
346.91        103.6612
347.36        103.5871
347.81        103.6059
348.26         103.753
348.72        103.9724
349.17         104.248
349.62        104.5797
350.07        104.9377
350.52        105.3432
350.97        105.6254
351.42        105.5093
351.87        104.9786
352.32        104.1299
352.77        103.2933
353.22         102.957
353.67        103.2036
354.13        103.8815
354.58        104.6614
355.03        104.9531
355.48        104.5976
355.93        103.7694
356.38        102.7978
356.83        102.1796
357.28        102.0206
357.73        102.1492
358.18        102.2954
358.63        102.0349
359.08        101.2727
359.53        100.1799
359.98        98.99498
360.43        98.04922
360.88        97.41886
361.33        96.98846
361.78        96.61607
362.23        96.08642
362.68        95.35174
363.13         94.5102
363.58         93.6478
364.03        92.88004
364.48        92.23699
364.93        91.65885
365.38        91.13667
365.83        90.67123
366.28         90.2462
366.73        89.86665
367.18        89.46106
367.63        88.90919
368.08        88.19659
368.53          87.363
368.98        86.51004
369.43        85.80316
369.88        85.28245
370.33        84.89672
370.78        84.57252
371.23        84.18834
371.68        83.70231
372.13        83.14931
372.58        82.55787
373.03        81.96973
373.48        81.39799
373.93        80.82227
374.38        80.23451
374.83        79.63385
375.28        79.02361
375.72        78.39664
376.17        77.80981
376.62        77.24681
377.07        76.71814
377.52         76.2458
377.97        75.81668
378.42        75.42082
378.87        75.05664
379.32        74.69433
379.77        74.40448
380.22        74.29264
380.67        74.34238
381.11        74.53703
381.56        74.61729
382.01        74.23704
382.46        73.37494
382.91        72.21488
383.36        71.08286
383.81        70.41956
384.26        70.29572
384.71        70.55279
385.15         71.0155
385.60         71.3684
386.05        71.48431
386.50        71.43853
386.95        71.21405
387.40        70.79669
387.85        70.23084
388.29         69.4944
388.74        68.79512
389.19        68.24719
389.64        67.87466
390.09        67.64184
390.54        67.48907
390.98        67.29355
391.43        67.05749
391.88        66.80598
392.33        66.56464
392.78         66.3513
393.23        66.16498
393.67        66.00596
394.12        65.91203
394.57        65.70014
395.02        65.39799
395.47        65.30862
395.91        65.24908
396.36        65.13439
396.81        64.92695
397.26        64.76315
397.71        64.61902
398.15        64.42378
398.60        64.25845
399.05        63.95735
399.50        63.60529
399.95         63.6558
400.39        63.99046
400.84        63.74046
401.29        62.97947
401.74        62.67922
402.18        62.81194
402.63        62.48355
403.08        61.81102
403.53        61.54341
403.97        61.71301
404.42        61.98159
404.87        62.18965
405.32        62.19792
405.76        61.95077
406.21        61.52542
406.66        61.06133
407.11        60.80691
407.55        60.83778
408.00        60.98659
408.45        61.16489
408.90        61.35577
409.34        61.41241
409.79        61.03595
410.24        60.40032
410.68          60.052
411.13        60.05917
411.58        60.14893
412.03        60.23145
412.47        60.26775
412.92        60.20086
413.37        60.07443
413.81        59.94236
414.26        59.93906
414.71        60.06489
415.15        60.29993
415.60        60.55662
416.05        60.75219
416.49        60.85548
416.94        60.88185
417.39        60.87059
417.83        60.86945
418.28        60.90118
418.73        60.95159
419.17        61.00911
419.62        61.05914
420.07        61.08193
420.51        61.05916
420.96        61.03199
421.41        60.96874
421.85        60.84553
422.30        60.86196
422.74        60.89553
423.19        60.57002
423.64         59.9957
424.08        59.87467
424.53        60.20436
424.98         60.4116
425.42        60.46426
425.87        60.73301
426.31        61.12143
426.76        61.14487
427.21        60.85114
427.65        60.63885
428.10         60.5434
428.54        60.52568
428.99        60.64925
429.44        60.54732
429.88        60.40167
430.33        61.26206
430.77        62.61604
431.22        62.90393
431.66        62.13426
432.11         61.3004
432.56        60.80061
433.00        60.84421
433.45         61.4871
433.89        62.25686
434.34         62.8606
434.78        62.95218
435.23        62.10531
435.67        60.20317
436.12         61.0908
436.57        61.40604
437.01        62.01126
437.46        62.31834
437.90        62.30523
438.35        61.77553
438.79        61.76965
439.24        61.80595
439.68         62.1053
440.13        62.33343
440.57        62.49796
441.02        62.69689
441.46        62.87725
441.91         63.2868
442.35        63.68411
442.80        63.41731
443.24        62.67067
443.69        62.65002
444.13        63.28614
444.58        63.53479
445.02        63.36006
445.47        63.38786
445.91        63.63927
446.36         63.8592
446.80        64.02135
447.24        64.21772
447.69        64.44091
448.13        64.49073
448.58         64.6424
449.02        64.66233
449.47        64.64564
449.91        64.58354
450.36        64.50814
450.80        64.40738
451.25         64.3228
451.69        64.26871
452.13        64.26678
452.58        64.30912
453.02        64.37799
453.47        64.44896
453.91         64.4912
454.36        64.50864
454.80        64.49831
455.24        64.33253
455.69        64.00325
456.13        63.81493
456.58        63.82193
457.02        62.98751
457.46        62.48643
457.91        62.62874
458.35         63.3741
458.79        63.48442
459.24        62.97075
459.68        62.21836
460.13        61.39722
460.57        61.69562
461.01        61.51175
461.46        61.53849
461.90        61.61837
462.34        62.68267
462.79        62.23168
463.23        62.41247
463.68        62.40031
464.12        62.18672
464.56        61.77261
465.01           61.17
465.45        60.51709
465.89        60.38057
466.34         60.6467
466.78        60.60825
467.22        60.27125
467.67        60.10191
468.11        60.16604
468.55        60.23283
468.99        60.24701
469.44        60.15547
469.88        59.96021
470.32        59.73202
470.77        59.52128
471.21        59.37601
471.65        59.30216
472.10        59.28143
472.54        59.31456
472.98        59.35383
473.42        59.36517
473.87        59.54513
474.31         59.7352
474.75         59.3391
475.20        58.56264
475.64        58.36544
476.08        58.73393
476.52        58.72386
476.97        58.27906
477.41         58.1866
477.85        58.56404
478.29        57.95464
478.74        58.29655
479.18        58.62257
479.62        58.46181
480.06        58.48036
480.50        58.33459
480.95        58.38181
481.39        58.65654
481.83        57.83899
482.27        58.16279
482.72        58.28937
483.16        58.07188
483.60        58.09953
484.04        58.11438
484.48        58.35068
484.93        58.64285
485.37        58.29289
485.81        57.54114
486.25        57.61026
486.69        59.47118
487.14        59.79539
487.58        57.72456
488.02        58.53155
488.46        57.66311
488.90        57.30294
489.34        58.09016
489.79         58.8704
490.23        58.43275
490.67        58.01624
491.11        57.40509
491.55        57.22338
491.99        57.42073
492.43        57.33848
492.88        56.99155
493.32        56.88412
493.76        57.02694
494.20        57.13879
494.64        57.18876
495.08        57.26939
495.52        57.35326
495.96        57.34487
496.41        57.25168
496.85        57.21879
497.29        57.15305
497.73        57.11003
498.17        56.44274
498.61        56.36493
499.05        56.62315
499.49        56.80842
499.93        56.66602
500.37        56.61678
500.82        56.62815
501.26        56.67082
501.70        56.74888
502.14        56.82552
502.58        56.88176
503.02        56.96443
503.46        57.08159
503.90        56.94467
504.34        57.05048
504.78        56.94785
505.22        56.78246
505.66        56.59501
506.10        56.46155
506.54        56.35824
506.98        56.26701
507.42        56.69764
507.86        56.65756
508.30        56.76328
508.74        56.71094
509.18        56.56243
509.62        56.36744
510.06        56.22702
510.50        56.17919
510.94        56.18307
511.38        56.22176
511.82         56.2662
512.26        56.30346
512.70        56.34929
513.14        56.38878
513.58        56.40386
514.02        56.39396
514.46         56.3391
514.90        56.26812
515.34        56.32561
515.78        56.37038
516.22        56.49699
516.66        56.60946
517.10        56.62639
517.54        56.53154
517.98        56.36298
518.42        56.16697
518.86        56.01262
519.30        55.92687
519.74        55.88947
520.18        55.90216
520.62        55.96533
521.06        56.07004
521.50        56.21853
521.93         56.3742
522.37        56.45655
522.81        56.45553
523.25        56.38337
523.69        56.29076
524.13        56.26392
524.57        56.31662
525.01        56.41534
525.45        56.50927
525.89        56.51542
526.32        56.41001
526.76        56.24541
527.20        56.04918
527.64        55.86714
528.08        55.72208
528.52        55.60078
528.96        55.52845
529.40        55.54348
529.83         55.6414
530.27         55.8154
530.71         55.9964
531.15         56.0795
531.59        56.03888
532.03        55.89345
532.46        55.70281
532.90        55.60438
533.34        55.61729
533.78        55.67635
534.22         55.7132
534.66        55.69059
535.09        55.55322
535.53        55.21553
535.97         54.7896
536.41        54.58933
536.85        54.65686
537.28        54.84756
537.72        55.08679
538.16        55.29632
538.60        55.42908
539.04        55.50317
539.47        55.51431
539.91        55.49341
540.35        55.44234
540.79        55.35763
541.22        55.25227
541.66         55.1709
542.10        55.11921
542.54        55.09139
542.97         55.0812
543.41        55.09764
543.85        55.12937
544.29         55.1844
544.72         55.2251
545.16        55.22721
545.60        55.17724
546.04         55.0874
546.47        55.01415
546.91        55.04578
547.35        55.18953
547.79        55.41275
548.22        55.63346
548.66        55.71171
549.10        55.68401
549.53        55.57012
549.97        55.42255
550.41        55.20715
550.84        55.01473
551.28        54.97416
551.72         55.0413
552.15        55.17065
552.59        55.38164
553.03        54.97574
553.46        55.61116
553.90         55.5041
554.34         55.0638
554.77        55.60145
555.21        55.11629
555.65        55.00193
556.08        55.26941
556.52        55.39563
556.96        55.48792
557.39        55.55943
557.83        55.58092
558.27        55.33038
558.70        54.88128
559.14         54.5922
559.57        54.50923
560.01        54.49013
560.45        54.54032
560.88        54.77266
561.32        55.10319
561.75        55.29997
562.19        55.33939
562.63        55.14658
563.06        54.85162
563.50        54.92864
563.93        55.25263
564.37        55.32415
564.80        55.14636
565.24        54.92574
565.68        54.61676
566.11         55.1693
566.55        54.61361
566.98        54.61394
567.42         54.6515
567.85        54.76151
568.29        54.93666
568.72        55.24369
569.16        55.71056
569.60        55.79307
570.03        55.62598
570.47         55.9582
570.90        56.15876
571.34        55.20924
571.77        55.92871
572.21        56.11405
572.64        56.01415
573.08        56.31855
573.51        55.63348
573.95        55.65317
574.38        56.06787
574.82        56.42379
