SpectraSmart Spectrum 2.9.0.0
--------- Device Information -----------
Spectrum Name :  反射率_0
Saving Time :  2024/04/27 00:44:49
Spectro-Module Model Name : SE2030-DUVN
Spectro-Module Serial Number : OS361AC55029948
Wavelength Start : 200
Wavelength End : 1025
Wavelength Unit : Wavelength(nm)
Spectrum Unit : Reflectance(%)
-----------Spectrum Setting ------------
Integration Time : 20ms
Average : 10
Boxcar : 0
Background removal :  enabled
linearity correction :  enabled
SC :  disabled
Intensity correction :  disabled
DWT denoise :  enabled
savitzky-golay :  disabled
FFT :  disabled
Running average :  disabled
Kalman :  disabled
High pass :  disabled
---------------BEGIN--------------------
Wavelength(nm)             Reflectance(%)
200.29               0
200.75        31.06676
201.21        27.36409
201.67        25.11789
202.13        25.00295
202.58        26.82751
203.04        30.97626
203.50        37.09565
203.96        42.53269
204.42         45.0802
204.88        44.58775
205.34        41.81058
205.80        39.47492
206.26        38.56378
206.72         37.9808
207.18        37.65327
207.64        37.44713
208.10         37.2912
208.55        38.02351
209.01        38.46387
209.47         36.1073
209.93         31.6613
210.39        27.34394
210.85        25.26187
211.31        26.59522
211.77        32.15828
212.23        46.43962
212.69        82.26967
213.14        138.3553
213.60         128.271
214.06        82.66374
214.52        55.12967
214.98        46.29018
215.44        46.78369
215.90        51.02394
216.36        56.71101
216.81        60.75513
217.27        62.16234
217.73        62.76499
218.19        60.63568
218.65        51.91592
219.11        40.80172
219.57         31.9562
220.02        27.72202
220.48        28.48616
220.94        33.60255
221.40        44.18206
221.86        60.65343
222.32        74.09399
222.77        74.62505
223.23        66.92284
223.69        57.47173
224.15        50.58782
224.61        46.15442
225.06        42.56243
225.52        39.93339
225.98        38.19759
226.44        37.12666
226.90        36.83624
227.36        36.59858
227.81        35.22541
228.27        32.89643
228.73        30.09745
229.19        28.07745
229.65        28.27549
230.10        30.60459
230.56        34.42822
231.02        38.34846
231.48        40.08521
231.93        39.21289
232.39        36.90967
232.85        34.39522
233.31          33.269
233.77        33.76183
234.22        35.30358
234.68        37.34239
235.14        39.18399
235.60        40.55516
236.05        41.76786
236.51        42.74445
236.97        43.21309
237.43        43.16325
237.88        42.65575
238.34        42.10451
238.80        42.53897
239.26        44.43219
239.71        48.13559
240.17        53.57933
240.63        60.02653
241.08        66.61765
241.54         72.6049
242.00        78.08176
242.46          84.353
242.91        93.13016
243.37         104.676
243.83        118.6721
244.28        127.9725
244.74        122.6895
245.20        104.6839
245.66        85.77409
246.11        74.34667
246.57        70.45618
247.03        71.77267
247.48        74.61643
247.94        73.09094
248.40        67.75214
248.85        61.53016
249.31        57.42134
249.77        57.05546
250.22        60.08405
250.68        66.27422
251.14        74.03458
251.59        77.26571
252.05        73.34875
252.51        65.90279
252.96        58.74876
253.42        55.61775
253.88        56.09423
254.33        57.83209
254.79        60.89136
255.25        65.08461
255.70        69.89098
256.16        75.36574
256.62        79.00059
257.07        77.18869
257.53        71.82516
257.99        65.56209
258.44        60.46958
258.90         58.4978
259.35        58.55555
259.81        59.85992
260.27        61.22285
260.72        61.28421
261.18        60.18495
261.63        58.28152
262.09        56.44263
262.55        55.06741
263.00        54.07053
263.46        53.36687
263.91        52.50095
264.37        51.22836
264.83        49.54762
265.28        47.63397
265.74        45.93842
266.19        44.70716
266.65        44.01527
267.11        43.64797
267.56         43.3975
268.02        42.94867
268.47        42.21883
268.93         41.3428
269.38         40.3884
269.84        39.50803
270.30        38.73604
270.75        38.00781
271.21        37.36698
271.66        36.83633
272.12        36.40159
272.57        36.02132
273.03        35.61657
273.48        35.04496
273.94        34.33402
274.39        33.52189
274.85        32.71563
275.31        31.93567
275.76        31.18906
276.22        30.49307
276.67        29.89066
277.13        29.52446
277.58        29.33863
278.04        29.29694
278.49        29.18705
278.95        28.80467
279.40        28.08527
279.86        27.19166
280.31        26.23894
280.77         25.4852
281.22        24.95211
281.68        24.60523
282.13        24.36884
282.59        24.20778
283.04        24.07224
283.50        24.00291
283.95        23.96003
284.41        23.88408
284.86        23.76699
285.32        23.63484
285.77        23.53533
286.22         23.6017
286.68        23.83978
287.13        24.16189
287.59        24.49159
288.04        24.66862
288.50        24.67907
288.95        24.56184
289.41        24.37903
289.86        24.15989
290.32        23.97418
290.77        23.81699
291.22        23.76731
291.68         23.9268
292.13        24.30626
292.59        24.90281
293.04         25.6568
293.50        26.47943
293.95        27.33173
294.40        28.23945
294.86        29.22533
295.31        30.32059
295.77        31.54028
296.22        32.85214
296.68        34.25494
297.13        35.73824
297.58        37.30438
298.04        38.95997
298.49        40.68933
298.95        42.48148
299.40        44.31404
299.85         46.1855
300.31        48.09479
300.76        50.02428
301.21        51.97748
301.67        53.97041
302.12        55.97087
302.58        58.01655
303.03        60.06401
303.48        62.12777
303.94        64.22448
304.39        66.31473
304.84        68.41895
305.30        70.55145
305.75         72.6629
306.20        74.76831
306.66        76.87444
307.11         78.9353
307.57         80.9485
308.02        82.80286
308.47         84.5101
308.93        86.09843
309.38        87.61731
309.83        89.26575
310.29        91.07693
310.74        92.98525
311.19        94.81834
311.65        96.26415
312.10        97.22927
312.55         97.8007
313.00        98.21467
313.46        98.84454
313.91        99.75928
314.36        100.8919
314.82        102.0323
315.27        102.8514
315.72        103.2524
316.18        103.3745
316.63        103.4097
317.08        103.7022
317.53        104.3359
317.99        105.1919
318.44        106.0992
318.89        106.7498
319.35        107.0545
319.80        107.1112
320.25        107.0752
320.70        107.1961
321.16        107.5388
321.61        108.0648
322.06        108.6283
322.51        109.0045
322.97        109.1215
323.42        109.0551
323.87        108.9902
324.32        109.2437
324.78        109.8441
325.23        110.7761
325.68         111.698
326.13        112.0546
326.59        111.7234
327.04        110.9093
327.49        110.0388
327.94         109.816
328.39        110.4078
328.85        111.5696
329.30        113.0203
329.75        113.9817
330.20        114.1946
330.66        113.8476
331.11        113.3055
331.56        113.0789
332.01        113.3355
332.46        113.8941
332.92        114.5144
333.37        114.9698
333.82        115.1101
334.27        115.0892
334.72        115.0215
335.17        115.0582
335.63        115.2612
336.08        115.6381
336.53        116.2023
336.98        117.0321
337.43        118.1065
337.88        119.3592
338.34        120.6479
338.79        121.8577
339.24        122.8484
339.69        123.6364
340.14        124.1334
340.59        124.2354
341.05        124.0053
341.50        123.4964
341.95        122.9945
342.40        122.9294
342.85        123.3989
343.30        124.2955
343.75        125.3775
344.20        126.2193
344.66        126.6903
345.11        126.9028
345.56        126.9777
346.01        127.1204
346.46        127.4071
346.91        127.7705
347.36        128.1656
347.81         128.547
348.26        128.8829
348.72        129.1723
349.17        129.4435
349.62        129.7748
350.07         130.159
350.52        130.5825
350.97        130.8447
351.42        130.6353
351.87        129.9387
352.32        128.8846
352.77        127.8457
353.22        127.3592
353.67        127.5211
354.13        128.1666
354.58        128.9508
355.03        129.2456
355.48        128.8787
355.93        128.0306
356.38        127.0436
356.83        126.4365
357.28        126.3119
357.73        126.4755
358.18         126.629
358.63        126.3103
359.08        125.4118
359.53         124.117
359.98        122.6767
360.43        121.4369
360.88        120.4866
361.33        119.7198
361.78        119.0077
362.23        118.1561
362.68        117.1306
363.13        116.0305
363.58        114.9535
364.03         114.026
364.48        113.2706
364.93        112.6173
365.38        112.0197
365.83        111.4221
366.28        110.7937
366.73        110.1498
367.18        109.4532
367.63        108.6414
368.08        107.7125
368.53        106.6908
368.98        105.6509
369.43        104.7095
369.88         103.905
370.33        103.2227
370.78        102.6177
371.23        102.0135
371.68        101.3856
372.13        100.7412
372.58        100.1304
373.03        99.63167
373.48        99.23473
373.93        98.88667
374.38        98.46094
374.83        97.77341
375.28        96.80174
375.72        95.60938
376.17         94.3964
376.62        93.34146
377.07        92.51733
377.52        91.90221
377.97        91.43983
378.42        91.04629
378.87        90.68253
379.32        90.32684
379.77         90.0527
380.22        89.96641
380.67         90.0434
381.11        90.26218
381.56        90.29754
382.01        89.72794
382.46         88.5388
382.91        86.95789
383.36        85.43169
383.81         84.5624
384.26         84.4378
384.71         84.8468
385.15        85.50174
385.60        85.88967
386.05        85.83656
386.50        85.48731
386.95        84.91402
387.40        84.24098
387.85        83.55367
388.29         82.7721
388.74        82.08946
389.19        81.56965
389.64        81.21493
390.09        80.99944
390.54        80.84956
390.98        80.61147
391.43        80.28881
391.88        79.92043
392.33        79.55833
392.78        79.19763
393.23        78.84292
393.67        78.61064
394.12        78.57666
394.57        78.05872
395.02        77.92934
395.47        77.82252
395.91        77.93932
396.36        77.87051
396.81        77.62164
397.26        77.40474
397.71        77.17432
398.15        76.85061
398.60        76.55247
399.05        76.01401
399.50        75.41418
399.95        75.60889
400.39        76.38248
400.84        76.17105
401.29        75.08387
401.74        74.83305
402.18        75.34696
402.63        75.04948
403.08        74.06143
403.53         73.6007
403.97        73.71985
404.42        73.85835
404.87         73.8924
405.32        73.80167
405.76        73.53217
406.21        73.21313
406.66        72.91793
407.11        72.59676
407.55        72.38969
408.00        72.59587
408.45        73.08185
408.90        73.30267
409.34         73.0931
409.79        72.51121
410.24        71.77783
410.68        71.32163
411.13        71.22327
411.58        71.26699
412.03        71.32906
412.47         71.2915
412.92        71.08514
413.37        70.78419
413.81        70.48898
414.26         70.4094
414.71        70.55332
415.15        70.88187
415.60         71.2547
416.05        71.51242
416.49         71.5983
416.94        71.54164
417.39        71.43173
417.83        71.39418
418.28        71.46729
418.73        71.61112
419.17        71.75764
419.62        71.80354
420.07         71.7165
420.51        71.51388
420.96        71.30531
421.41        71.16552
421.85        71.08739
422.30        71.20357
422.74        71.34061
423.19        71.14136
423.64        70.65624
424.08        70.43831
424.53         70.5284
424.98        70.59051
425.42        70.63245
425.87         70.9113
426.31        71.30211
426.76        71.31472
427.21        70.97776
427.65         70.6889
428.10        70.53446
428.54        70.48943
428.99        70.61176
429.44         70.6831
429.88        70.77582
430.33        71.38245
430.77        72.18127
431.22        72.54878
431.66        72.36655
432.11        71.68513
432.56        70.85081
433.00        70.63138
433.45        71.18323
433.89        72.12241
434.34        72.71478
434.78        73.35236
435.23        72.10941
435.67        70.46561
436.12        70.52271
436.57        70.60379
437.01        71.09381
437.46        71.89434
437.90        71.08784
438.35        70.91695
438.79        70.92282
439.24        70.94788
439.68        70.94634
440.13        71.19068
440.57        71.64778
441.02        71.51604
441.46        70.96811
441.91        71.64687
442.35        73.01552
442.80        72.78262
443.24        71.28706
443.69        71.26974
444.13        72.59222
444.58         73.0612
445.02        72.60139
445.47        72.40556
445.91         72.5853
446.36        72.77716
446.80        72.96729
447.24        73.33827
447.69        73.75497
448.13        73.74105
448.58        73.39505
449.02        73.30209
449.47        73.47349
449.91        73.42271
450.36        73.18189
450.80        73.03302
451.25        73.01838
451.69        73.00036
452.13        72.99347
452.58        73.02747
453.02        73.09465
453.47        73.18409
453.91        73.27023
454.36         73.3616
454.80        73.45009
455.24        73.32426
455.69        72.95691
456.13        72.78337
456.58         72.9643
457.02        71.80309
457.46        71.90845
457.91        72.12411
458.35        72.83422
458.79        72.85723
459.24        72.18981
459.68        71.31788
460.13        70.56188
460.57        70.22025
461.01        70.42937
461.46        70.78075
461.90        71.32954
462.34        72.17033
462.79        71.59116
463.23        71.88305
463.68        72.37688
464.12        72.31966
464.56        71.67249
465.01        70.93488
465.45        70.28378
465.89        69.92368
466.34        69.82525
466.78         69.9945
467.22        70.40088
467.67        69.72991
468.11        69.94535
468.55        69.87241
468.99        70.04394
469.44        70.01392
469.88        69.79104
470.32        69.59073
470.77        69.44215
471.21        69.33651
471.65        69.27652
472.10        69.27716
472.54        69.30184
472.98         69.2756
473.42        69.17147
473.87        69.11411
474.31        69.06116
474.75        68.78279
475.20        68.42056
475.64        68.48753
476.08        68.91673
476.52         68.9641
476.97        68.53107
477.41         68.3078
477.85        68.59924
478.29        67.66611
478.74        68.56699
479.18        69.34245
479.62         68.5541
480.06        68.52258
480.50         68.4854
480.95        68.65759
481.39        69.08363
481.83        67.75388
482.27         68.2891
482.72        68.51523
483.16        68.13077
483.60        68.18317
484.04        68.26888
484.48        68.53123
484.93        68.75742
485.37        68.55058
485.81        68.05563
486.25        67.79392
486.69        69.73613
487.14        70.24491
487.58        67.98125
488.02        68.42915
488.46        67.91325
488.90        67.42847
489.34        68.68478
489.79        69.71834
490.23        68.55889
490.67        68.04247
491.11        67.62983
491.55         67.4909
491.99        67.56248
492.43        67.47723
492.88        67.26669
493.32        67.32101
493.76        67.60024
494.20        67.77093
494.64         67.7868
495.08        67.73729
495.52         67.6549
495.96        67.59219
496.41         67.5501
496.85        67.51952
497.29        67.40808
497.73        67.30629
498.17        66.76575
498.61        66.63026
499.05        66.75006
499.49        66.89127
499.93        66.80624
500.37        66.97341
500.82         67.2692
501.26        67.43887
501.70        67.45903
502.14        67.47288
502.58        67.52172
503.02        67.58634
503.46        67.67622
503.90        67.81387
504.34        67.93146
504.78        67.90155
505.22         67.7036
505.66         67.3908
506.10        67.06841
506.54        66.87209
506.98        66.81929
507.42         67.0094
507.86        67.04198
508.30        67.11448
508.74        67.09604
509.18        66.99802
509.62        66.87379
510.06        66.83015
510.50        66.89034
510.94        67.01143
511.38        67.13647
511.82        67.17856
512.26        67.11745
512.70        66.98597
513.14        66.83666
513.58        66.75137
514.02        66.75378
514.46        66.81772
514.90        66.90749
515.34        66.96658
515.78        66.97546
516.22        66.94941
516.66        66.90576
517.10        66.87122
517.54        66.85354
517.98        66.84311
518.42        66.82455
518.86        66.77645
519.30        66.69737
519.74        66.59939
520.18        66.50922
520.62        66.46342
521.06        66.47372
521.50        66.53693
521.93        66.63007
522.37        66.69405
522.81        66.72218
523.25        66.71751
523.69        66.71806
524.13        66.78906
524.57        66.92905
525.01        67.09994
525.45        67.23207
525.89        67.21657
526.32        67.03291
526.76        66.75359
527.20        66.42989
527.64        66.16494
528.08        66.00163
528.52        65.85709
528.96        65.77313
529.40        65.94747
529.83        66.29965
530.27        66.50452
530.71        66.52306
531.15        66.56779
531.59        66.62983
532.03         66.5521
532.46        66.35865
532.90        66.22271
533.34        66.16236
533.78        66.10036
534.22        66.03364
534.66        66.03646
535.09        66.05542
535.53        65.94633
535.97        65.73283
536.41        65.61874
536.85        65.62027
537.28        65.62212
537.72        65.63437
538.16        65.72487
538.60        65.88522
539.04        66.08793
539.47        66.26724
539.91        66.36785
540.35        66.36061
540.79        66.26698
541.22         66.1288
541.66        66.03596
542.10        66.00613
542.54        66.02024
542.97        66.03798
543.41         66.0245
543.85        65.95357
544.29        65.86507
544.72        65.78765
545.16        65.73659
545.60        65.70281
546.04         65.9473
546.47        65.96281
546.91        66.08678
547.35         66.1683
547.79        66.12741
548.22        66.02156
548.66        66.18208
549.10        66.57515
549.53        66.57175
549.97        66.23138
550.41        66.01585
550.84        66.02718
551.28        66.09296
551.72        66.14527
552.15         66.2646
552.59        66.46854
553.03        65.80915
553.46        66.35537
553.90        65.89674
554.34        65.97923
554.77        66.19026
555.21        66.04399
555.65        66.15753
556.08        66.46644
556.52        66.47792
556.96         66.2678
557.39        66.25772
557.83        66.41537
558.27        66.20848
558.70        65.71913
559.14        65.54139
559.57        65.65985
560.01        65.72906
560.45        65.72495
560.88        65.78166
561.32        65.91116
561.75        66.06743
562.19        66.22897
562.63        66.19402
563.06        66.01748
563.50        66.06545
563.93        66.23731
564.37        66.25057
564.80        66.12663
565.24        65.90899
565.68        65.51112
566.11        66.14899
566.55        65.46576
566.98        65.37245
567.42          65.298
567.85        65.53114
568.29        65.99876
568.72        66.37127
569.16        66.71571
569.60        66.82736
570.03        66.88325
570.47        67.26666
570.90        67.62457
571.34        66.58286
571.77        67.30237
572.21        67.53075
572.64        66.94705
573.08        67.64832
573.51        66.61353
573.95         66.6234
574.38        67.02604
574.82        67.16998
