SpectraSmart Spectrum 2.9.0.0
--------- Device Information -----------
Spectrum Name :  反射率_0
Saving Time :  2024/04/27 00:44:34
Spectro-Module Model Name : SE2030-DUVN
Spectro-Module Serial Number : OS361AC55029948
Wavelength Start : 200
Wavelength End : 1025
Wavelength Unit : Wavelength(nm)
Spectrum Unit : Reflectance(%)
-----------Spectrum Setting ------------
Integration Time : 20ms
Average : 10
Boxcar : 0
Background removal :  enabled
linearity correction :  enabled
SC :  disabled
Intensity correction :  disabled
DWT denoise :  enabled
savitzky-golay :  disabled
FFT :  disabled
Running average :  disabled
Kalman :  disabled
High pass :  disabled
---------------BEGIN--------------------
Wavelength(nm)             Reflectance(%)
200.29               0
200.75        42.59904
201.21        47.07133
201.67        51.00678
202.13         52.1501
202.58        50.31371
203.04        46.15554
203.50        40.86856
203.96        38.47924
204.42        41.71423
204.88        49.86858
205.34        59.55249
205.80        64.29298
206.26        62.37606
206.72        56.38892
207.18        49.75201
207.64        44.94606
208.10        41.90059
208.55        39.73149
209.01        37.69468
209.47        36.20214
209.93        36.01591
210.39        37.16871
210.85        39.10671
211.31        42.15854
211.77        47.56451
212.23        58.69451
212.69        86.19087
213.14        135.9242
213.60         139.842
214.06        109.9382
214.52        87.45323
214.98        75.60409
215.44        68.34275
215.90        61.35844
216.36        55.92907
216.81        54.83377
217.27        59.34131
217.73        71.82049
218.19        88.80211
218.65        91.00191
219.11        74.46699
219.57        53.40437
220.02        40.58236
220.48        41.78657
220.94        56.06092
221.40        85.02244
221.86        128.0619
222.32        157.8461
222.77        149.6212
223.23        120.8535
223.69        91.65982
224.15        73.63814
224.61        65.15791
225.06        60.94547
225.52         59.5435
225.98        59.54135
226.44        60.31384
226.90        62.36224
227.36        64.85649
227.81        66.03966
228.27        65.74195
228.73        64.28831
229.19        62.89408
229.65        63.13958
230.10        65.06632
230.56          68.134
231.02        71.17535
231.48        72.35751
231.93        71.31284
232.39        69.12939
232.85        66.83546
233.31        65.78748
233.77        66.16833
234.22        67.55127
234.68        69.31063
235.14         70.5817
235.60        71.10541
236.05         71.2155
236.51        71.17364
236.97         71.6011
237.43        72.71033
237.88        74.28172
238.34        76.00393
238.80        77.80607
239.26        79.74894
239.71        82.44111
240.17          85.501
240.63        88.49398
241.08        91.18159
241.54        92.82083
242.00        94.77448
242.46        100.1468
242.91        111.7973
243.37        131.6946
243.83        161.0442
244.28        188.2129
244.74          193.42
245.20         174.552
245.66        147.7601
246.11         128.492
246.57        118.0915
247.03        112.5148
247.48          107.82
247.94        99.53327
248.40        89.70422
248.85        81.29816
249.31        76.14477
249.77        74.33318
250.22        75.00172
250.68        77.55385
251.14        80.93365
251.59        81.79441
252.05        79.00033
252.51        74.95375
252.96        70.91978
253.42        68.27656
253.88        67.09776
254.33        66.48902
254.79        67.88143
255.25        72.31898
255.70        79.19035
256.16        87.74367
256.62        94.80769
257.07        95.48117
257.53         91.2736
257.99        85.35635
258.44        79.98325
258.90        77.39245
259.35        76.56237
259.81        76.88539
260.27        77.42168
260.72        77.19657
261.18        76.38067
261.63        75.00471
262.09        73.78695
262.55        72.85667
263.00        72.07224
263.46        71.50522
263.91        70.65159
264.37        69.31305
264.83        67.50362
265.28        65.40067
265.74        63.57614
266.19         62.3489
266.65         61.8213
267.11        61.70888
267.56        61.74862
268.02        61.54322
268.47        60.95322
268.93        60.13619
269.38        59.10518
269.84        57.95872
270.30        56.73995
270.75        55.41875
271.21        54.15709
271.66        53.12981
272.12        52.37128
272.57        51.79812
273.03        51.27402
273.48         50.5489
273.94        49.62291
274.39        48.53252
274.85        47.44032
275.31        46.39565
275.76        45.40755
276.22        44.52218
276.67        43.69204
277.13        42.97739
277.58        42.31631
278.04        41.72299
278.49        41.15381
278.95        40.68385
279.40        40.23883
279.86        39.87333
280.31        39.42097
280.77        38.78484
281.22        37.92407
281.68        36.97528
282.13        36.06514
282.59        35.47614
283.04        35.19878
283.50        35.17149
283.95        35.22715
284.41        35.12332
284.86        34.79687
285.32         34.3619
285.77        33.92058
286.22        33.68739
286.68        33.69613
287.13         33.8281
287.59        33.99716
288.04        34.02346
288.50        33.89225
288.95        33.62931
289.41        33.32697
289.86        33.03689
290.32        32.82662
290.77        32.66634
291.22        32.56704
291.68        32.52376
292.13        32.54061
292.59        32.67294
293.04        32.96226
293.50        33.48552
293.95         34.2466
294.40        35.22024
294.86        36.37553
295.31        37.65043
295.77         39.0206
296.22        40.47199
296.68        41.98257
297.13         43.5066
297.58        45.04583
298.04        46.60548
298.49        48.21396
298.95        49.94417
299.40        51.78938
299.85        53.72923
300.31        55.71693
300.76        57.65321
301.21        59.52942
301.67        61.39542
302.12        63.26053
302.58        65.23324
303.03        67.28259
303.48        69.40354
303.94         71.5843
304.39        73.73565
304.84         75.8668
305.30        78.00263
305.75        80.11086
306.20        82.24055
306.66        84.40414
307.11        86.53862
307.57        88.60854
308.02        90.44497
308.47        92.05578
308.93        93.48983
309.38        94.84841
309.83        96.41585
310.29        98.24319
310.74        100.2454
311.19        102.1897
311.65        103.6617
312.10         104.551
312.55        104.9835
313.00        105.2742
313.46        105.9149
313.91        106.9913
314.36        108.3883
314.82        109.8224
315.27        110.8483
315.72        111.3285
316.18        111.4398
316.63        111.4008
317.08         111.602
317.53        112.1501
317.99        112.9121
318.44        113.7358
318.89        114.3468
319.35        114.6582
319.80        114.7608
320.25        114.7816
320.70         114.917
321.16         115.221
321.61        115.6824
322.06        116.1646
322.51        116.4615
322.97        116.5152
323.42        116.3933
323.87        116.3221
324.32        116.6876
324.78        117.5189
325.23        118.7829
325.68        120.0397
326.13        120.5631
326.59         120.184
327.04        119.1531
327.49        117.9988
327.94        117.5942
328.39        118.1506
328.85        119.3743
329.30        120.9304
329.75        121.9197
330.20        122.0519
330.66        121.5743
331.11        120.8967
331.56        120.5862
332.01        120.8351
332.46        121.4299
332.92        122.1518
333.37        122.8281
333.82        123.2896
334.27        123.6643
334.72         123.956
335.17        124.1347
335.63        124.2243
336.08        124.2936
336.53        124.4675
336.98        125.0217
337.43        126.0006
337.88         127.283
338.34        128.6929
338.79        130.0566
339.24        131.1917
339.69        132.1398
340.14        132.7561
340.59        132.8382
341.05        132.4499
341.50        131.6829
341.95        130.9252
342.40        130.7716
342.85         131.356
343.30        132.5103
343.75        133.9389
344.20        135.1215
344.66        135.8724
345.11        136.3166
345.56        136.5249
346.01        136.6288
346.46        136.7107
346.91        136.7384
347.36        136.7578
347.81        136.8716
348.26        137.0893
348.72        137.3724
349.17        137.7204
349.62        138.1546
350.07        138.6421
350.52        139.1942
350.97        139.5632
351.42         139.364
351.87        138.5698
352.32        137.3131
352.77        136.0705
353.22        135.5416
353.67        135.8484
354.13        136.7922
354.58        137.8755
355.03        138.2092
355.48        137.5721
355.93        136.2291
356.38        134.7441
356.83        133.9683
357.28        134.0634
357.73        134.7283
358.18        135.4314
358.63        135.3269
359.08        134.2147
359.53        132.4078
359.98        130.3793
360.43        128.8051
360.88        127.8552
361.33        127.3227
361.78        126.9204
362.23        126.2055
362.68        125.0777
363.13        123.7149
363.58        122.3509
364.03         121.317
364.48        120.6734
364.93        120.2692
365.38        119.9132
365.83         119.322
366.28        118.4214
366.73        117.3258
367.18        116.1363
367.63        114.9991
368.08        113.9721
368.53        113.0073
368.98        112.1255
369.43        111.3593
369.88        110.7002
370.33        110.1516
370.78        109.6268
371.23        108.9791
371.68        108.1742
372.13        107.2331
372.58        106.2698
373.03        105.4741
373.48        104.8749
373.93        104.4063
374.38        103.9187
374.83        103.1808
375.28        102.1545
375.72        100.9154
376.17        99.68124
376.62        98.64778
377.07        97.88725
377.52         97.3668
377.97        96.99248
378.42        96.62577
378.87        96.21888
379.32        95.76511
379.77        95.39671
380.22        95.30828
380.67         95.4897
381.11        95.89566
381.56        96.12464
382.01        95.62807
382.46        94.35848
382.91        92.58593
383.36        90.83998
383.81        89.83755
384.26        89.69056
384.71        90.15765
385.15        90.88778
385.60        91.26295
386.05        91.08604
386.50        90.53649
386.95        89.76598
387.40        89.01635
387.85        88.39042
388.29        87.76125
388.74        87.23615
389.19        86.74843
389.64        86.28333
390.09        85.85983
390.54        85.49315
390.98        85.17442
391.43        84.93892
391.88        84.75903
392.33        84.58913
392.78        84.33545
393.23        83.98281
393.67        83.61128
394.12         83.3232
394.57        82.90018
395.02        82.44687
395.47        82.39552
395.91        82.64664
396.36        82.58141
396.81        82.16988
397.26        81.74079
397.71        81.34866
398.15        80.94682
398.60         80.6599
399.05        80.33115
399.50        79.98759
399.95        79.96128
400.39        80.15625
400.84        79.78575
401.29        78.96226
401.74        78.76457
402.18        79.08572
402.63        78.65667
403.08        77.64771
403.53        77.24757
403.97        77.49614
404.42        77.77692
404.87        77.93359
405.32         77.9004
405.76        77.61345
406.21        77.30479
406.66        76.99179
407.11        76.42406
407.55        75.85277
408.00        75.80736
408.45        76.25677
408.90        76.93192
409.34        77.42361
409.79        76.85017
410.24        75.55137
410.68        74.96645
411.13        75.20637
411.58        75.43652
412.03        75.48499
412.47        75.46793
412.92        75.30762
413.37        75.01675
413.81        74.68379
414.26        74.50771
414.71        74.49753
415.15        74.62806
415.60        74.81139
416.05        74.97864
416.49        75.09869
416.94        75.18347
417.39        75.24376
417.83        75.27348
418.28        75.28566
418.73        75.28125
419.17        75.26913
419.62        75.27193
420.07        75.27461
420.51        75.23701
420.96        75.20944
421.41        75.13321
421.85        74.97167
422.30        75.03326
422.74        75.13332
423.19        74.63403
423.64        73.71774
424.08        73.53364
424.53        74.07486
424.98        74.33434
425.42        74.25063
425.87        74.57272
426.31        75.15636
426.76        74.99498
427.21        74.26991
427.65        74.15457
428.10        74.58266
428.54        74.75404
428.99        74.69846
429.44        74.38614
429.88        74.10355
430.33        74.97775
430.77        76.45323
431.22        76.87035
431.66        76.13093
432.11        75.03628
432.56        74.03561
433.00        73.82417
433.45        74.65209
433.89         75.7142
434.34        75.96275
434.78        77.76919
435.23        75.90379
435.67        73.46762
436.12        74.03757
436.57        74.35352
437.01        75.37856
437.46        75.78994
437.90        75.61698
438.35        74.33244
438.79        74.66005
439.24        74.44027
439.68        74.42425
440.13         74.7162
440.57        75.27341
441.02        75.44238
441.46        75.25528
441.91        75.98688
442.35        77.15237
442.80        76.92096
443.24        75.60941
443.69        75.53608
444.13        76.60861
444.58        77.06041
445.02        76.78051
445.47        76.58462
445.91         76.5975
446.36        76.72524
446.80        76.95982
447.24        77.36346
447.69         77.7796
448.13        77.72495
448.58        77.31339
449.02        77.19177
449.47         77.3968
449.91        77.41782
450.36        77.28493
450.80        77.29928
451.25         77.4492
451.69        77.49061
452.13        77.42297
452.58        77.31123
453.02        77.19732
453.47        77.15453
453.91        77.18581
454.36        77.26141
454.80         77.3195
455.24        77.21218
455.69        76.92717
456.13        76.64375
456.58        76.45148
457.02        75.94612
457.46        75.39195
457.91        75.71494
458.35        76.56229
458.79        76.66771
459.24        76.02633
459.68        75.12054
460.13        74.23598
460.57        74.19314
461.01         74.4697
461.46        74.63603
461.90        74.72564
462.34        76.46564
462.79        75.46922
463.23        75.36119
463.68        75.89078
464.12        75.66743
464.56         75.0344
465.01        74.23197
465.45        73.50721
465.89        73.45506
466.34        73.87745
466.78        74.02684
467.22        73.90072
467.67        73.19764
468.11        73.33435
468.55        73.38909
468.99        73.65115
469.44        73.65186
469.88        73.38459
470.32        73.15145
470.77        73.00163
471.21        72.88931
471.65        72.81261
472.10        72.78452
472.54         72.7987
472.98        72.78404
473.42        72.70357
473.87        72.80434
474.31          72.934
474.75        72.41294
475.20        71.51799
475.64        71.44636
476.08        72.11282
476.52         72.2466
476.97        71.74608
477.41        71.55114
477.85        71.92735
478.29        71.29095
478.74         72.0939
479.18        72.82114
479.62        71.86455
480.06        71.75079
480.50        71.70998
480.95        71.90573
481.39        72.37094
481.83        71.16007
482.27        71.35036
482.72        72.09836
483.16        71.39167
483.60        71.48129
484.04        71.69349
484.48        72.01971
484.93        72.23946
485.37        72.22603
485.81        71.06126
486.25        71.17254
486.69        73.61916
487.14        74.03964
487.58        71.27702
488.02        71.88824
488.46        70.66885
488.90        70.42272
489.34        71.92507
489.79        72.96982
490.23        71.92533
490.67        71.35342
491.11        70.92342
491.55        70.81642
491.99        70.95364
492.43        70.82508
492.88        70.46284
493.32        70.37827
493.76        70.57884
494.20        70.74622
494.64        70.84095
495.08        70.94515
495.52        71.05112
495.96        71.12768
496.41        71.14433
496.85        71.17104
497.29        71.07942
497.73        70.89967
498.17        69.90106
498.61        69.91029
499.05        70.55644
499.49        70.84333
499.93        70.44903
500.37        70.38781
500.82        70.62681
501.26        70.63291
501.70        70.41595
502.14        70.86104
502.58        70.97104
503.02        71.15145
503.46        71.09319
503.90        70.99043
504.34        70.85107
504.78        70.64324
505.22        70.39762
505.66        70.13998
506.10        69.93289
506.54         69.8214
506.98        69.80705
507.42        70.05881
507.86        70.17313
508.30        70.31757
508.74        70.35564
509.18        70.32063
509.62        70.23444
510.06        70.14594
510.50        70.07846
510.94         70.0143
511.38        69.96515
511.82        69.94976
512.26        69.97195
512.70        70.03571
513.14         70.1214
513.58        70.19199
514.02        70.23557
514.46        70.25201
514.90        70.26206
515.34        70.30418
515.78        70.37916
516.22        70.46773
516.66        70.52751
517.10        70.49258
517.54        70.35573
517.98        70.15082
518.42        69.92514
518.86        69.75213
519.30        69.65741
519.74        69.62022
520.18        69.63649
520.62        69.69514
521.06        69.78526
521.50        69.91407
521.93        70.04813
522.37        70.10876
522.81        70.09156
523.25        70.00821
523.69        69.91676
524.13        69.91652
524.57        70.01769
525.01        70.17393
525.45        70.32085
525.89        70.35326
526.32        70.23942
526.76        70.04787
527.20        69.79632
527.64        69.51765
528.08        69.24307
528.52        68.96612
528.96        68.76385
529.40        68.75428
529.83        68.94138
530.27        69.29397
530.71        69.66959
531.15        69.84342
531.59        69.76499
532.03        69.49557
532.46        69.15514
532.90        68.98815
533.34        69.03767
533.78        69.18683
534.22        69.34441
534.66        69.45821
535.09        69.44214
535.53        69.18846
535.97         68.7821
536.41        68.52939
536.85        68.47703
537.28        68.47836
537.72        68.52229
538.16        68.64575
538.60        68.82829
539.04        69.05567
539.47        69.26963
539.91        69.42345
540.35         69.4879
540.79        69.47637
541.22        69.41534
541.66        69.37657
542.10        69.37052
542.54        69.37778
542.97        69.37492
543.41        69.35744
543.85        69.31073
544.29        69.25486
544.72         69.1788
545.16        69.09406
545.60        68.99561
546.04        68.91917
546.47         68.8914
546.91         68.8991
547.35        68.97378
547.79        69.19457
548.22         69.4837
548.66        69.68462
549.10        69.79524
549.53        69.66885
549.97        69.39252
550.41        69.12484
550.84        68.98608
551.28        69.00839
551.72        69.10101
552.15        69.24181
552.59        69.48809
553.03         68.8294
553.46        69.34863
553.90        69.25858
554.34        69.16592
554.77        69.06925
555.21        69.04118
555.65        69.06031
556.08        69.22567
556.52        69.41098
556.96        69.56083
557.39         69.6375
557.83        69.60693
558.27        69.28977
558.70          68.797
559.14        68.58408
559.57        68.64782
560.01        68.67037
560.45         68.6478
560.88        68.80042
561.32        69.09078
561.75        69.29356
562.19         69.3909
562.63        69.29371
563.06        69.09452
563.50        69.19729
563.93        69.47434
564.37        69.53236
564.80         69.3864
565.24         69.1507
565.68        68.73605
566.11        69.38895
566.55        68.64134
566.98        68.49618
567.42        68.35371
567.85        68.58854
568.29        69.13495
568.72        69.48233
569.16         69.6747
569.60        70.05004
570.03        70.02715
570.47        70.32723
570.90        70.83285
571.34         69.7309
571.77        70.66093
572.21        70.68972
572.64        70.51812
573.08        70.91653
573.51        69.97798
573.95        70.01421
574.38        70.57293
574.82        70.61869
