SpectraSmart Spectrum 2.9.0.0
--------- Device Information -----------
Spectrum Name :  反射率_0
Saving Time :  2024/04/30 00:22:20
Spectro-Module Model Name : SE2030-DUVN
Spectro-Module Serial Number : OS361AC55029948
Wavelength Start : 200
Wavelength End : 1025
Wavelength Unit : Wavelength(nm)
Spectrum Unit : Reflectance(%)
-----------Spectrum Setting ------------
Integration Time : 20ms
Average : 10
Boxcar : 0
Background removal :  enabled
linearity correction :  enabled
SC :  disabled
Intensity correction :  disabled
DWT denoise :  enabled
savitzky-golay :  disabled
FFT :  disabled
Running average :  disabled
Kalman :  disabled
High pass :  disabled
---------------BEGIN--------------------
Wavelength(nm)             Reflectance(%)
200.29               0
200.75        45.50854
201.21         48.7473
201.67        54.92446
202.13        60.06254
202.58        62.46727
203.04        62.72141
203.50        63.78428
203.96        72.40852
204.42        89.58395
204.88        111.0171
205.34        125.7023
205.80        120.5433
206.26        100.3912
206.72        76.59225
207.18         57.1283
207.64        45.78511
208.10        40.84125
208.55        39.55402
209.01        40.72765
209.47        42.95201
209.93        45.00513
210.39         47.1573
210.85        48.67035
211.31        48.90996
211.77        47.83265
212.23        44.91362
212.69        40.43453
213.14        37.97186
213.60        39.10058
214.06        42.63894
214.52        46.10866
214.98        47.77839
215.44        48.00652
215.90        47.51194
216.36        47.51763
216.81        50.28547
217.27        57.21106
217.73        68.86031
218.19        84.23709
218.65        95.30038
219.11        95.98464
219.57        88.72897
220.02        80.10781
220.48        75.24889
220.94        73.36476
221.40        72.89767
221.86        71.75474
222.32         66.2104
222.77        57.60053
223.23         50.4924
223.69        45.67712
224.15        42.45617
224.61        39.98107
225.06        37.54811
225.52        36.02386
225.98        36.97751
226.44        40.00809
226.90        43.73497
227.36        46.39534
227.81         46.8159
228.27        45.26096
228.73        41.99522
229.19        38.32929
229.65        37.12719
230.10        38.82665
230.56         41.9504
231.02        44.54465
231.48        44.88783
231.93        42.99791
232.39        39.59897
232.85        35.82321
233.31         33.8393
233.77        34.38914
234.22         37.0107
234.68        40.42754
235.14        42.21968
235.60        41.74464
236.05        39.84891
236.51        38.10261
236.97        38.64426
237.43        42.13379
237.88         48.5365
238.34         57.2035
238.80        65.07844
239.26        69.27774
239.71        70.08807
240.17        68.56973
240.63         67.0798
241.08        66.60162
241.54        66.30491
242.00        67.29943
242.46        72.71476
242.91        84.02165
243.37        98.64807
243.83        111.3887
244.28        119.6384
244.74        124.1191
245.20        124.0949
245.66        120.7714
246.11        117.9117
246.57        117.1451
247.03        119.3486
247.48        119.9874
247.94        110.4207
248.40        94.70116
248.85        79.89468
249.31        71.40936
249.77        70.74503
250.22         77.4286
250.68        92.52137
251.14         116.825
251.59        134.0639
252.05        129.3689
252.51        114.4899
252.96        101.1619
253.42         93.9557
253.88        90.55923
254.33        88.68387
254.79         87.7947
255.25        86.93975
255.70         85.7721
256.16        85.15114
256.62         85.0332
257.07        85.28662
257.53        86.15308
257.99         87.1581
258.44        87.21752
258.90        85.82566
259.35         82.9379
259.81         79.8466
260.27         77.2098
260.72         75.5732
261.18        74.95304
261.63        74.56966
262.09        74.10104
262.55        72.73926
263.00        70.50106
263.46        68.11512
263.91         65.7162
264.37         63.8089
264.83        62.30758
265.28        60.95881
265.74        59.93872
266.19        59.27458
266.65        58.98905
267.11        58.96571
267.56        58.87112
268.02        58.24371
268.47        56.96714
268.93        55.18965
269.38        53.17896
269.84        51.55764
270.30        50.50888
270.75        49.85342
271.21        49.38436
271.66        48.72424
272.12        47.77658
272.57        46.64013
273.03        45.41049
273.48        44.14081
273.94        42.96021
274.39        41.79874
274.85        40.76884
275.31        39.93382
275.76        39.25755
276.22        38.74702
276.67        38.27435
277.13        37.76243
277.58        37.13986
278.04        36.49705
278.49        35.81275
278.95         35.1743
279.40        34.55132
279.86        33.98589
280.31        33.46132
280.77        33.09048
281.22        32.82577
281.68        32.67102
282.13        32.53479
282.59        32.34849
283.04        32.07472
283.50        31.75988
283.95          31.416
284.41        31.08741
284.86        30.78844
285.32        30.55562
285.77        30.38316
286.22        30.34552
286.68        30.45112
287.13        30.62365
287.59        30.85561
288.04        31.06625
288.50        31.24186
288.95         31.3618
289.41        31.41184
289.86        31.32155
290.32        31.13777
290.77        30.90689
291.22         30.7268
291.68        30.74004
292.13         30.9829
292.59        31.45057
293.04        32.16132
293.50        33.17556
293.95         34.4763
294.40        36.05883
294.86        37.77436
295.31        39.39657
295.77        40.86529
296.22        42.21151
296.68         43.6048
297.13        45.29409
297.58        47.33062
298.04        49.59594
298.49        51.88917
298.95        53.92039
299.40         55.6158
299.85        57.08591
300.31        58.51691
300.76        60.10355
301.21        61.93975
301.67        63.98162
302.12        66.09707
302.58        68.24237
303.03        70.34113
303.48        72.37558
303.94        74.41772
304.39        76.76179
304.84        78.99671
305.30        81.42242
305.75        83.74088
306.20         85.7753
306.66         87.5135
307.11         88.9599
307.57         90.3279
308.02         91.7926
308.47        93.44846
308.93        95.23397
309.38        97.00571
309.83         98.6262
310.29          100.05
310.74         101.308
311.19        102.4163
311.65        103.3801
312.10        104.2077
312.55        104.9305
313.00        105.6623
313.46        106.5891
313.91        107.7185
314.36        108.9858
314.82        110.2693
315.27        111.3964
315.72        112.2747
316.18        112.9535
316.63        113.4021
317.08        113.5952
317.53        113.5843
317.99        113.4293
318.44         113.266
318.89        113.3273
319.35        113.6723
319.80        114.2433
320.25        114.9913
320.70        115.8211
321.16        116.6328
321.61        117.4778
322.06        118.2042
322.51        118.5957
322.97        118.6092
323.42         118.316
323.87        117.8917
324.32         117.655
324.78        117.6808
325.23        117.9729
325.68        118.4133
326.13        118.7911
326.59        119.0194
327.04        119.1986
327.49        119.4117
327.94        119.8492
328.39        120.5305
328.85        121.3093
329.30        122.0899
329.75          122.49
330.20        122.4229
330.66        122.0086
331.11        121.4824
331.56        121.1349
332.01        121.1024
332.46        121.3299
332.92        121.7668
333.37        122.4878
333.82        123.3932
334.27        124.4632
334.72        125.5926
335.17         126.604
335.63        127.3882
336.08        128.0193
336.53        128.4332
336.98        128.6334
337.43        128.6553
337.88        128.5152
338.34        128.3554
338.79        128.4205
339.24        128.7675
339.69        129.3757
340.14        130.0943
340.59        130.6393
341.05        130.9483
341.50        131.1076
341.95        131.2604
342.40        131.6646
342.85        132.3552
343.30        133.1833
343.75        134.0185
344.20        134.6637
344.66        135.0665
345.11        135.3288
345.56        135.3954
346.01        135.1678
346.46        134.7078
346.91        134.0698
347.36        133.6066
347.81        133.8519
348.26        134.8573
348.72        136.4155
349.17         138.092
349.62        139.0577
350.07        139.0843
350.52        138.4424
350.97        137.4881
351.42        136.7778
351.87        136.4929
352.32        136.4532
352.77        136.6181
353.22        136.9344
353.67        137.3125
354.13        137.7442
354.58        138.0571
355.03         137.947
355.48         137.349
355.93        136.3521
356.38        135.0904
356.83        133.7849
357.28        132.5394
357.73        131.3326
358.18        130.2266
358.63        129.3046
359.08        128.5667
359.53        127.9902
359.98         127.485
360.43        126.8899
360.88        126.1564
361.33        125.3243
361.78        124.4094
362.23        123.4487
362.68        122.4719
363.13        121.4703
363.58        120.5091
364.03        119.6928
364.48        119.0334
364.93        118.4999
365.38        118.0039
365.83        117.3999
366.28        116.6504
366.73         115.795
367.18        114.8913
367.63        114.0308
368.08        113.2364
368.53        112.4767
368.98        111.7278
369.43        110.9507
369.88        110.1477
370.33        109.3603
370.78        108.5991
371.23        107.8796
371.68        107.2039
372.13        106.5341
372.58        105.9207
373.03        105.4448
373.48        105.0903
373.93        104.8285
374.38        104.4742
374.83        103.7349
375.28        102.6003
375.72        101.1801
376.17        99.83186
376.62        98.90391
377.07        98.45735
377.52        98.34778
377.97        98.41216
378.42        98.38475
378.87        98.16115
379.32        97.81551
379.77         97.3451
380.22        96.74059
380.67        96.01515
381.11        95.15792
381.56        94.25551
382.01        93.48885
382.46        92.92193
382.91        92.54135
383.36        92.24741
383.81        91.86492
384.26        91.35202
384.71        90.75211
385.15        90.16161
385.60        89.79493
386.05        89.65478
386.50        89.66167
386.95        89.65897
387.40        89.41557
387.85        88.90288
388.29        88.16994
388.74        87.47348
389.19         86.9315
389.64        86.57032
390.09        86.30901
390.54         86.1074
390.98        85.89311
391.43        85.67715
391.88        85.46707
392.33        85.19043
392.78        84.81923
393.23        84.37223
393.67        83.68965
394.12        82.93241
394.57        82.88451
395.02        82.36471
395.47        82.28372
395.91        82.24164
396.36         82.1619
396.81        82.02414
397.26        81.82129
397.71        81.55872
398.15        81.27944
398.60        81.02431
399.05        80.53535
399.50        79.92113
399.95        79.58508
400.39        79.29314
400.84        79.53537
401.29        79.98755
401.74        80.06602
402.18         79.5043
402.63        78.73269
403.08        78.00378
403.53        77.66035
403.97        77.76332
404.42        78.17297
404.87        78.65512
405.32        78.77024
405.76        78.39604
406.21        77.91879
406.66        77.43099
407.11        76.60511
407.55        75.77262
408.00         75.9251
408.45        76.87875
408.90        77.39938
409.34         77.2478
409.79        76.79307
410.24         76.2856
410.68        76.11942
411.13        76.36097
411.58        76.74448
412.03        77.07544
412.47        77.15771
412.92        76.89189
413.37        76.38398
413.81        75.76579
414.26        75.31396
414.71        75.05888
415.15        74.93861
415.60        74.89462
416.05        74.88178
416.49        74.87941
416.94        74.91227
417.39        74.94064
417.83        74.87482
418.28        74.71059
418.73        74.46242
419.17        74.22832
419.62        74.18731
420.07        74.34665
420.51        74.62273
420.96        74.91357
421.41        74.96538
421.85        74.70129
422.30        74.42561
422.74        74.13853
423.19        73.59251
423.64        72.93127
424.08        72.99862
424.53        73.49915
424.98        73.60388
425.42        73.48177
425.87        73.43383
426.31        73.54321
426.76        73.26329
427.21        72.58092
427.65        72.64498
428.10         73.2249
428.54        73.10957
428.99        72.39209
429.44        71.97546
429.88        71.94189
430.33        71.95824
430.77        71.97933
431.22        72.36742
431.66         72.9623
432.11        73.00108
432.56        72.45437
433.00        72.10272
433.45        72.30746
433.89        71.98338
434.34        72.68954
434.78        74.23411
435.23        71.82339
435.67        71.36978
436.12        71.49953
436.57        71.42282
437.01        70.99076
437.46        71.84016
437.90        71.44533
438.35        71.82565
438.79         72.3951
439.24        72.55735
439.68        72.37764
440.13        72.29019
440.57        72.40366
441.02        72.38066
441.46         72.1736
441.91        72.49963
442.35        72.60324
442.80        72.19914
443.24        72.37595
443.69        71.95047
444.13        71.44778
444.58        71.18447
445.02        71.16344
445.47        71.26273
445.91        71.38982
446.36        71.46429
446.80        71.42664
447.24        71.39884
447.69        71.41711
448.13           71.19
448.58        71.20436
449.02        71.19889
449.47        71.31425
449.91        71.42944
450.36        71.54552
450.80        71.69453
451.25        71.85027
451.69         71.9183
452.13        71.89027
452.58        71.81995
453.02        71.71132
453.47        71.58443
453.91        71.44302
454.36        71.39346
454.80        71.14087
455.24        71.25376
455.69        71.54375
456.13        71.50526
456.58        71.19073
457.02         71.0151
457.46        71.00748
457.91        70.92488
458.35        70.72469
458.79        70.58125
459.24        70.53158
459.68        70.43928
460.13        70.30157
460.57        70.39907
461.01        70.21562
461.46        70.07901
461.90        69.87151
462.34        69.87081
462.79        69.97041
463.23        69.79208
463.68         69.3617
464.12        69.07217
464.56        68.96235
465.01         68.7421
465.45        68.47997
465.89        68.64711
466.34        69.08685
466.78        69.59986
467.22        69.31931
467.67         69.1209
468.11        68.92797
468.55        68.52318
468.99        68.04202
469.44        67.67325
469.88        67.47379
470.32        67.44778
470.77        67.51849
471.21        67.53628
471.65        67.45323
472.10        67.34442
472.54         67.2392
472.98        67.21848
473.42        67.28648
473.87        67.39707
474.31        67.50359
474.75        67.53019
475.20        67.44051
475.64         67.4082
476.08         67.4787
476.52        67.02654
476.97        66.48589
477.41        66.82275
477.85        66.08785
478.29        65.80491
478.74        66.61543
479.18        66.56457
479.62        66.14863
480.06        66.06935
480.50        66.33772
480.95        66.37987
481.39        67.25909
481.83        66.21028
482.27        66.68484
482.72        66.90414
483.16        66.62675
483.60        66.37943
484.04        66.66539
484.48        66.91397
484.93        66.97716
485.37        67.12064
485.81        65.97086
486.25        65.91579
486.69        67.83006
487.14        66.92316
487.58        65.67947
488.02        66.09176
488.46        66.48052
488.90        66.25294
489.34        65.74973
489.79        66.11631
490.23        65.65681
490.67        65.77591
491.11        65.82666
491.55        65.58322
491.99        65.13102
492.43        64.97222
492.88        65.15506
493.32        65.42509
493.76        65.67985
494.20        65.87931
494.64         65.9762
495.08         65.9888
495.52        65.94435
495.96        65.80746
496.41        65.61214
496.85        65.56287
497.29        65.63902
497.73        65.33654
498.17        65.15409
498.61        65.09867
499.05        64.97147
499.49        65.08914
499.93        65.22774
500.37        65.19085
500.82        65.03582
501.26        64.88889
501.70         64.7075
502.14        65.40533
502.58        64.99344
503.02        65.11436
503.46        65.18053
503.90        65.22746
504.34        65.23526
504.78        65.22289
505.22        65.21062
505.66        65.14384
506.10        65.05119
506.54         65.0781
506.98        65.22581
507.42        65.27299
507.86        65.11481
508.30        65.32547
508.74        64.79051
509.18        64.41833
509.62        64.03365
510.06        63.84319
510.50        64.01491
510.94        64.37759
511.38        64.81309
511.82        65.02433
512.26        64.93826
512.70        64.64349
513.14        64.27987
513.58        64.06671
514.02        64.06398
514.46        64.20206
514.90        64.39636
515.34        64.51402
515.78         64.5122
516.22        64.43447
516.66        64.33653
517.10        64.29806
517.54        64.33685
517.98        64.42089
518.42        64.49325
518.86        64.46944
519.30        64.33606
519.74        64.13081
520.18        63.92386
520.62        63.81635
521.06        63.83636
521.50        63.96052
521.93        64.14105
522.37        64.26648
522.81        64.30975
523.25        64.30579
523.69         64.3085
524.13        64.30212
524.57        64.45896
525.01        64.61438
525.45        64.73595
525.89        64.69255
526.32        64.46017
526.76        64.11497
527.20        63.75291
527.64        63.52695
528.08        63.47402
528.52         63.5436
528.96        63.68525
529.40        63.81612
529.83        63.89745
530.27         63.9623
530.71        63.99281
531.15        63.96654
531.59        63.88846
532.03        63.76141
532.46        63.62454
532.90        63.57222
533.34        63.61409
533.78        63.72541
534.22        63.86017
534.66        63.94422
535.09        63.95189
535.53        63.91948
535.97        63.85905
536.41        63.80554
536.85        63.77004
537.28        63.73406
537.72        63.69733
538.16        63.65778
538.60        63.61031
539.04        63.55964
539.47        63.48357
539.91        63.39611
540.35        63.28725
540.79        63.17945
541.22        63.07898
541.66        63.00785
542.10        62.97087
542.54        62.96188
542.97        63.00166
543.41        63.13646
543.85        63.34603
544.29        63.63739
544.72        63.90356
545.16        63.95956
545.60        63.76668
546.04        63.56493
546.47        63.11197
546.91        63.04971
547.35        63.27379
547.79        63.51669
548.22        63.64686
548.66        63.80974
549.10        63.98098
549.53        63.85609
549.97        63.40835
550.41         63.8973
550.84        63.42402
551.28        63.44064
551.72        63.34581
552.15        63.51848
552.59        63.13714
553.03        63.35212
553.46        63.12232
553.90        63.14447
554.34        63.15619
554.77        63.22496
555.21        63.33065
555.65        63.28336
556.08        63.13352
556.52        63.23939
556.96        63.52888
557.39         63.5651
557.83        63.36761
558.27         63.3001
558.70         63.4351
559.14        63.34694
559.57        63.56992
560.01        63.68324
560.45        63.80027
560.88         63.5828
561.32        63.40965
561.75        63.29156
562.19        63.32106
562.63        63.20448
563.06        62.97953
563.50        62.97727
563.93        63.14182
564.37        63.22882
564.80        63.20039
565.24        63.19262
565.68        63.20744
566.11        63.24419
566.55        63.30551
566.98         63.2952
567.42        63.29444
567.85         63.3032
568.29        63.32587
568.72        63.56699
569.16        64.10812
569.60        63.60094
570.03        63.98018
570.47         64.2545
570.90        64.28153
571.34        64.06054
571.77        64.27692
572.21        64.34499
572.64        64.50214
573.08        64.32844
573.51        63.84927
573.95        64.34975
574.38        64.88662
574.82        64.44577
