SpectraSmart Spectrum 2.9.0.0
--------- Device Information -----------
Spectrum Name :  反射率_0
Saving Time :  2024/04/30 00:12:09
Spectro-Module Model Name : SE2030-DUVN
Spectro-Module Serial Number : OS361AC55029948
Wavelength Start : 200
Wavelength End : 1025
Wavelength Unit : Wavelength(nm)
Spectrum Unit : Reflectance(%)
-----------Spectrum Setting ------------
Integration Time : 20ms
Average : 10
Boxcar : 0
Background removal :  enabled
linearity correction :  enabled
SC :  disabled
Intensity correction :  disabled
DWT denoise :  enabled
savitzky-golay :  disabled
FFT :  disabled
Running average :  disabled
Kalman :  disabled
High pass :  disabled
---------------BEGIN--------------------
Wavelength(nm)             Reflectance(%)
200.29               0
200.75        92.71718
201.21        78.46273
201.67        62.85737
202.13        50.11339
202.58          42.552
203.04        39.27986
203.50        41.78898
203.96        52.42456
204.42        70.08518
204.88        92.48928
205.34        110.2683
205.80         111.122
206.26        98.13996
206.72         80.5385
207.18        64.79504
207.64        54.21157
208.10        47.64948
208.55        42.67971
209.01        39.90114
209.47        41.69112
209.93         47.2903
210.39         55.0405
210.85        61.21413
211.31        62.66662
211.77        59.22197
212.23        50.21954
212.69        37.43756
213.14        32.29298
213.60        39.94384
214.06         53.9638
214.52        66.08486
214.98        71.19161
215.44        70.50642
215.90        66.32564
216.36        61.59179
216.81        61.84743
217.27         70.0415
217.73        86.41717
218.19        109.8502
218.65        128.6672
219.11        132.9166
219.57        125.6379
220.02        115.2746
220.48        108.8496
220.94          105.66
221.40        103.5899
221.86        100.3252
222.32        92.84221
222.77        83.18797
223.23        75.96255
223.69        71.71886
224.15        69.57253
224.61        68.77462
225.06        69.08839
225.52        70.59768
225.98         72.9158
226.44        75.21712
226.90        76.90173
227.36        78.30005
227.81         80.0078
228.27        82.32553
228.73        85.17657
229.19        87.56358
229.65        87.40611
230.10        84.70348
230.56        81.17134
231.02        78.30794
231.48        77.44241
231.93        78.36634
232.39        80.64129
232.85        83.56647
233.31        85.92535
233.77        87.22823
234.22        87.99162
234.68        88.20961
235.14        88.06557
235.60        87.79533
236.05         87.2149
236.51        87.07562
236.97        88.44677
237.43        91.69514
237.88        97.44446
238.34        104.7593
238.80        110.6472
239.26        112.6553
239.71        111.0411
240.17        107.8532
240.63         106.784
241.08        109.4135
241.54        115.9925
242.00        127.6978
242.46         140.388
242.91        146.7839
243.37        144.2775
243.83        138.2524
244.28        136.6834
244.74        140.8414
245.20        148.4874
245.66        157.3392
246.11        161.8124
246.57        158.4597
247.03        150.4424
247.48        137.5127
247.94        121.8592
248.40         109.451
248.85        100.7351
249.31        97.50746
249.77        99.60376
250.22        107.0096
250.68        122.1093
251.14        144.6975
251.59        156.6443
252.05        146.0573
252.51        127.2131
252.96        113.3316
253.42        109.5921
253.88        113.1083
254.33        121.4768
254.79        131.7865
255.25        136.6216
255.70        134.4807
256.16        130.3524
256.62        127.3687
257.07        127.5921
257.53        131.1142
257.99        136.0599
258.44        139.9928
258.90        140.7109
259.35        137.7444
259.81        133.7982
260.27        130.0978
260.72        127.6081
261.18        126.6666
261.63        126.0504
262.09        125.4943
262.55        123.9939
263.00        121.4362
263.46          118.74
263.91        115.9931
264.37        113.9836
264.83        112.5194
265.28        111.2997
265.74        110.2779
266.19        108.9775
266.65        107.5106
267.11        105.9327
267.56        104.4143
268.02        103.2881
268.47        102.4741
268.93        101.8492
269.38        101.1257
269.84        99.96178
270.30        98.28792
270.75        96.25441
271.21        94.11144
271.66        92.03562
272.12        90.13268
272.57        88.28893
273.03        86.56183
273.48        84.91016
273.94        83.44408
274.39        82.08704
274.85        80.91701
275.31        79.81268
275.76        78.68313
276.22        77.61501
276.67        76.48905
277.13        75.38959
277.58        74.21722
278.04        73.06455
278.49        71.84917
278.95        70.67931
279.40        69.48054
279.86        68.37289
280.31        67.27728
280.77        66.29761
281.22        65.37013
281.68         64.5582
282.13        63.83482
282.59        63.31697
283.04        62.91979
283.50        62.63929
283.95        62.30814
284.41        61.76476
284.86        60.96467
285.32        60.07558
285.77        59.17218
286.22        58.50206
286.68        58.12819
287.13        57.90048
287.59        57.83867
288.04        57.86335
288.50        57.96056
288.95        58.08131
289.41        58.14541
289.86        57.92409
290.32        57.46106
290.77        56.83521
291.22        56.23697
291.68        55.96658
292.13        56.08797
292.59        56.55062
293.04        57.30383
293.50        58.34869
293.95        59.61395
294.40        61.11476
294.86        62.67321
295.31        64.01471
295.77        65.08359
296.22        65.92553
296.68        66.75255
297.13        67.88081
297.58        69.38575
298.04        71.13068
298.49        72.92233
298.95        74.49192
299.40        75.74646
299.85        76.80164
300.31        77.77418
300.76         78.7291
301.21        79.76234
301.67        80.88939
302.12        82.09288
302.58          83.511
303.03        85.09115
303.48        86.79559
303.94         88.6006
304.39        90.48944
304.84        92.25541
305.30        94.04742
305.75        95.70207
306.20        97.15423
306.66        98.42292
307.11        99.46225
307.57        100.4184
308.02        101.3477
308.47        102.3356
308.93        103.3755
309.38         104.407
309.83        105.4277
310.29        106.4328
310.74        107.4104
311.19        108.3248
311.65           109.1
312.10        109.7073
312.55        110.1912
313.00        110.6792
313.46        111.3779
313.91        112.2995
314.36        113.3764
314.82        114.4514
315.27        115.3043
315.72        115.8443
316.18        116.1392
316.63        116.2525
317.08         116.303
317.53        116.3608
317.99        116.4362
318.44        116.5256
318.89        116.6421
319.35        116.7915
319.80        116.9754
320.25        117.2753
320.70        117.8099
321.16        118.5416
321.61        119.4709
322.06        120.3376
322.51        120.7417
322.97        120.5935
323.42         120.024
323.87        119.3302
324.32        119.0164
324.78        119.1906
325.23        119.7871
325.68        120.5476
326.13        121.0296
326.59        121.0814
327.04        120.8791
327.49        120.6316
327.94        120.7327
328.39        121.2683
328.85        122.0396
329.30        122.8919
329.75        123.3339
330.20        123.2407
330.66        122.7752
331.11        122.2004
331.56        121.8433
332.01        121.8493
332.46        122.1344
332.92        122.6328
333.37        123.4061
333.82        124.3418
334.27        125.4223
334.72        126.5292
335.17        127.4628
335.63        128.1116
336.08        128.5567
336.53         128.763
336.98        128.7833
337.43        128.6732
337.88        128.4478
338.34         128.226
338.79        128.2084
339.24        128.4411
339.69        128.9119
340.14         129.505
340.59        129.9963
341.05        130.3299
341.50        130.5664
341.95        130.7894
342.40        131.1644
342.85        131.7115
343.30        132.3201
343.75        132.9189
344.20        133.4047
344.66         133.755
345.11        134.0396
345.56         134.183
346.01         134.055
346.46        133.6893
346.91         133.135
347.36        132.7183
347.81        132.9318
348.26        133.8226
348.72         135.202
349.17        136.6483
349.62        137.3634
350.07        137.1489
350.52        136.2805
350.97        135.1644
351.42        134.4249
351.87        134.2435
352.32        134.4155
352.77          134.82
353.22        135.2684
353.67        135.6388
354.13        135.9632
354.58        136.1281
355.03        135.9329
355.48         135.341
355.93        134.3953
356.38        133.2146
356.83         132.002
357.28         130.838
357.73        129.7048
358.18        128.6181
358.63        127.5832
359.08         126.602
359.53        125.6978
359.98        124.8483
360.43        124.0024
360.88        123.1482
361.33        122.2912
361.78        121.4483
362.23        120.6535
362.68        119.9072
363.13        119.1867
363.58        118.4675
364.03        117.7143
364.48        116.9129
364.93        116.0714
365.38        115.1985
365.83        114.3145
366.28        113.4361
366.73        112.5674
367.18        111.7154
367.63        110.8846
368.08        110.0709
368.53        109.2721
368.98         108.495
369.43        107.7425
369.88        107.0265
370.33        106.3695
370.78        105.7422
371.23        105.1015
371.68        104.4365
372.13         103.724
372.58        103.0663
373.03        102.6301
373.48        102.4111
373.93        102.3437
374.38        102.1747
374.83        101.5012
375.28        100.2865
375.72        98.68716
376.17        97.10931
376.62        95.96894
377.07        95.35625
377.52        95.11756
377.97        95.10025
378.42         95.0562
378.87        94.87848
379.32        94.62967
379.77        94.29092
380.22        93.82773
380.67        93.23857
381.11        92.51323
381.56        91.70972
382.01        90.96453
382.46        90.34395
382.91        89.85913
383.36        89.46645
383.81        89.07706
384.26        88.66656
384.71        88.24464
385.15        87.87525
385.60        87.71988
386.05         87.7515
386.50        87.89588
386.95        87.96861
387.40         87.6981
387.85        87.06167
388.29        86.13498
388.74         85.2218
389.19        84.50809
389.64        84.03735
390.09         83.7174
390.54         83.5074
390.98        83.31287
391.43        83.11223
391.88        82.99368
392.33        82.88348
392.78        82.52334
393.23        81.89164
393.67        81.72489
394.12        80.67506
394.57        80.75259
395.02        80.36664
395.47        80.43546
395.91        80.52903
396.36         80.5162
396.81        80.37064
397.26        80.13195
397.71        79.84884
398.15        79.49812
398.60         79.1843
399.05        78.92867
399.50        78.70708
399.95        78.41714
400.39        77.85823
400.84        77.95152
401.29        78.43849
401.74        78.50603
402.18        78.02892
402.63        77.25735
403.08        76.50548
403.53         76.2123
403.97        76.44042
404.42         76.9754
404.87        77.51577
405.32        77.61395
405.76        77.15666
406.21        76.39532
406.66        75.55412
407.11        74.87667
407.55        74.57047
408.00        74.72856
408.45         75.2233
408.90        75.76855
409.34        76.11346
409.79        75.88971
410.24        75.32135
410.68        75.19336
411.13        75.57098
411.58        76.00548
412.03        76.30122
412.47        76.33168
412.92        76.01014
413.37        75.44574
413.81          74.774
414.26        74.26479
414.71        73.95369
415.15        73.78669
415.60        73.73455
416.05        73.79446
416.49        73.94627
416.94        74.19357
417.39        74.43861
417.83        74.50317
418.28        74.36298
418.73        74.05521
419.17        73.72559
419.62        73.64882
420.07        73.86326
420.51        74.21722
420.96        74.58683
421.41        74.80755
421.85        74.74451
422.30        74.42012
422.74        73.91785
423.19        73.46949
423.64        73.19008
424.08        73.33421
424.53        73.78601
424.98        74.06388
425.42         74.0804
425.87         74.2083
426.31        74.41416
426.76        74.15736
427.21        73.44534
427.65        73.54629
428.10        74.19705
428.54        74.05567
428.99         73.2258
429.44        72.61555
429.88        72.41197
430.33        72.57434
430.77        72.95892
431.22         73.5556
431.66        74.19421
432.11        74.22834
432.56        73.68974
433.00        73.50938
433.45        73.99366
433.89         73.4718
434.34        74.32349
434.78        75.16184
435.23        73.79049
435.67         73.1315
436.12        72.67033
436.57        72.59084
437.01        72.72581
437.46        73.70445
437.90         73.2504
438.35        73.72839
438.79        74.37249
439.24        74.65601
439.68        74.56847
440.13        74.57082
440.57        74.73226
441.02        74.78808
441.46        74.70962
441.91        74.91714
442.35        74.89014
442.80        74.89919
443.24        74.78232
443.69        74.57905
444.13        74.33117
444.58        74.16695
445.02        74.06778
445.47        74.02741
445.91        74.02391
446.36        74.05032
446.80        74.07748
447.24        74.12939
447.69        74.19168
448.13        74.21515
448.58        74.21198
449.02        74.16461
449.47        74.13298
449.91         74.1749
450.36        74.31209
450.80        74.50485
451.25        74.69677
451.69        74.76361
452.13          74.688
452.58        74.53462
453.02        74.36572
453.47        74.26784
453.91         74.2464
454.36        74.45454
454.80        74.50451
455.24        74.63054
455.69        74.66844
456.13        74.64565
456.58        74.63864
457.02        74.12539
457.46        74.11531
457.91         74.0137
458.35        73.68114
458.79        73.52317
459.24         73.4627
459.68        73.46754
460.13        73.50058
460.57        73.43444
461.01        73.58031
461.46        73.30206
461.90        72.88267
462.34        73.39572
462.79        73.51453
463.23        73.30746
463.68        72.53551
464.12        72.17239
464.56        72.27843
465.01        72.31303
465.45        72.20251
465.89        72.30759
466.34        72.55036
466.78        72.46207
467.22        72.32881
467.67        72.01557
468.11        72.02167
468.55        71.84254
468.99        71.60746
469.44        71.39667
469.88        71.22168
470.32        71.08346
470.77        70.97015
471.21        70.89178
471.65        70.83131
472.10        70.80212
472.54        70.80701
472.98        70.86129
473.42        70.94689
473.87        71.13779
474.31        71.33838
474.75        71.21553
475.20        70.86182
475.64        70.83912
476.08        71.13586
476.52        71.00855
476.97        70.38829
477.41        70.38885
477.85        70.30891
478.29        69.45782
478.74        70.36649
479.18        70.47546
479.62        70.15488
480.06        70.16066
480.50        70.35793
480.95        70.23486
481.39        70.92686
481.83        69.96925
482.27        70.69051
482.72        70.66662
483.16        70.59618
483.60        70.61621
484.04        70.70232
484.48        70.74194
484.93        70.51701
485.37         70.7006
485.81        69.46824
486.25        68.98299
486.69        70.35255
487.14        70.34697
487.58        69.55286
488.02        69.49585
488.46        69.99104
488.90        70.24707
489.34        69.37006
489.79         70.1636
490.23        69.57233
490.67        69.87067
491.11         70.0733
491.55        69.69094
491.99        68.89333
492.43         68.5614
492.88        68.78934
493.32        69.11064
493.76        69.38598
494.20        69.60751
494.64        69.71593
495.08         69.7238
495.52         69.6601
495.96        69.54124
496.41        69.43363
496.85        69.41661
497.29        69.41484
497.73        69.45949
498.17        69.21713
498.61         68.8716
499.05        68.47235
499.49        68.45461
499.93        68.74117
500.37        68.80544
500.82        68.64412
501.26        68.62091
501.70        68.71583
502.14        68.91999
502.58        68.79773
503.02        68.81483
503.46        68.84978
503.90        68.87795
504.34         68.8966
504.78        68.91348
505.22        68.92207
505.66        68.92894
506.10         68.9311
506.54         68.9122
506.98        68.86749
507.42        68.99713
507.86        68.63057
508.30        68.90157
508.74        68.37686
509.18         68.1106
509.62        67.83518
510.06        67.75922
510.50        67.90857
510.94        68.23605
511.38        68.61177
511.82        68.78204
512.26        68.68779
512.70        68.40421
513.14        68.06404
513.58        67.87454
514.02        67.88952
514.46        68.04269
514.90        68.24703
515.34        68.36356
515.78        68.34892
516.22        68.24974
516.66        68.12167
517.10        68.04499
517.54        68.04174
517.98        68.08232
518.42        68.12357
518.86        68.10274
519.30        68.00706
519.74         67.8623
520.18        67.72019
520.62         67.6531
521.06        67.68182
521.50        67.79402
521.93        67.94175
522.37         68.0237
522.81        68.02503
523.25        67.96332
523.69        67.91294
524.13        67.99155
524.57        68.21117
525.01        68.52383
525.45        68.81491
525.89        68.90076
526.32        68.73442
526.76        68.40459
527.20         68.0243
527.64        67.77171
528.08        67.69551
528.52        67.74223
528.96        67.85486
529.40        67.94111
529.83        67.96329
530.27        67.96038
530.71        67.93771
531.15        67.90725
531.59        67.87444
532.03        67.82624
532.46        67.76051
532.90        67.70802
533.34        67.66899
533.78        67.64821
534.22        67.63627
534.66        67.61488
535.09        67.57549
535.53        67.53506
535.97        67.50656
536.41        67.52638
536.85        67.59467
537.28        67.69044
537.72        67.77332
538.16        67.77477
538.60         67.6821
539.04        67.52374
539.47        67.32586
539.91        67.18385
540.35        67.10266
540.79        67.07201
541.22        67.07401
541.66        67.09092
542.10        67.10885
542.54        67.13901
542.97         67.1758
543.41         67.2283
543.85          67.286
544.29        67.35461
544.72        67.39213
545.16          67.374
545.60        67.29404
546.04         67.1338
546.47         66.9621
546.91         66.9938
547.35        67.20339
547.79        67.33591
548.22        67.32194
548.66        67.41436
549.10         67.6097
549.53        67.56047
549.97        67.19315
550.41        67.76264
550.84        67.24899
551.28        67.20171
551.72        67.03414
552.15        67.16049
552.59        67.14939
553.03        67.11398
553.46        66.98784
553.90        66.99154
554.34        67.11576
554.77          67.303
555.21        67.47458
555.65        67.40119
556.08        67.12949
556.52        67.00212
556.96        67.04512
557.39        67.13678
557.83        67.26247
558.27        67.35762
558.70        67.43404
559.14        67.59772
559.57        67.77562
560.01        67.89012
560.45        67.90553
560.88        67.57688
561.32        67.34637
561.75        67.23835
562.19        67.34052
562.63        67.33601
563.06        67.21249
563.50        67.15099
563.93        67.14628
564.37        67.22568
564.80        67.36716
565.24        67.33575
565.68         67.1713
566.11        67.13016
566.55        67.23374
566.98        67.28106
567.42        67.32971
567.85        67.34838
568.29        67.32775
568.72        67.52681
569.16        68.04079
569.60        67.39986
570.03        67.65723
570.47        67.92688
570.90        67.79978
571.34        67.51918
571.77         67.7613
572.21        67.83624
572.64         67.9373
573.08        67.79907
573.51        67.53606
573.95        67.52282
574.38        68.11614
574.82        68.01357
