SpectraSmart Spectrum 2.9.0.0
--------- Device Information -----------
Spectrum Name :  反射率_0
Saving Time :  2024/04/30 00:25:13
Spectro-Module Model Name : SE2030-DUVN
Spectro-Module Serial Number : OS361AC55029948
Wavelength Start : 200
Wavelength End : 1025
Wavelength Unit : Wavelength(nm)
Spectrum Unit : Reflectance(%)
-----------Spectrum Setting ------------
Integration Time : 20ms
Average : 10
Boxcar : 0
Background removal :  enabled
linearity correction :  enabled
SC :  disabled
Intensity correction :  disabled
DWT denoise :  enabled
savitzky-golay :  disabled
FFT :  disabled
Running average :  disabled
Kalman :  disabled
High pass :  disabled
---------------BEGIN--------------------
Wavelength(nm)             Reflectance(%)
200.29               0
200.75        84.19324
201.21        73.55393
201.67        64.02256
202.13        60.70425
202.58        65.71864
203.04        78.34001
203.50         95.4127
203.96        109.5507
204.42        116.0546
204.88        115.1301
205.34         107.257
205.80        96.04321
206.26        85.20176
206.72        75.57475
207.18        67.97203
207.64        61.97985
208.10        56.62977
208.55        51.64328
209.01        46.64166
209.47        42.56809
209.93        40.41985
210.39        40.17501
210.85          40.821
211.31        41.40909
211.77        41.82338
212.23        42.03812
212.69        43.33521
213.14        48.62884
213.60        56.08631
214.06        63.15403
214.52        67.28038
214.98        67.35022
215.44        64.32879
215.90        58.94423
216.36        53.35968
216.81        51.94802
217.27         57.1104
217.73        69.36758
218.19        88.12839
218.65        104.1274
219.11        109.1389
219.57        105.0607
220.02        98.25035
220.48        94.61273
220.94        93.87678
221.40        94.44729
221.86        94.39391
222.32         90.1107
222.77        82.28581
223.23        75.35842
223.69        70.52107
224.15        67.35125
224.61        65.10564
225.06        63.43212
225.52        62.39375
225.98        62.18026
226.44         62.7846
226.90        63.73621
227.36        64.96355
227.81        66.66594
228.27        68.93835
228.73        71.60964
229.19        74.01962
229.65        74.61459
230.10        73.18649
230.56        71.02601
231.02        68.78556
231.48        66.95098
231.93        65.41776
232.39        63.98268
232.85         62.9541
233.31        63.06507
233.77        64.44456
234.22        67.11537
234.68        69.87906
235.14        70.56967
235.60        68.76024
236.05         65.1273
236.51        61.59253
236.97        60.68931
237.43        63.05277
237.88        68.71674
238.34        76.54005
238.80        82.60043
239.26        83.93203
239.71        81.35037
240.17        76.94366
240.63        74.05225
241.08        73.75521
241.54        75.36061
242.00        79.85987
242.46        87.47155
242.91         96.3282
243.37        104.4264
243.83        109.7431
244.28        112.3335
244.74        112.9001
245.20        110.1393
245.66        105.7979
246.11        104.8674
246.57        109.3215
247.03        119.5108
247.48         129.218
247.94        124.9584
248.40          109.25
248.85        91.46368
249.31        79.32777
249.77        75.13747
250.22        77.93546
250.68         87.6732
251.14        105.0746
251.59        118.7963
252.05        117.5412
252.51         108.916
252.96        101.1069
253.42        98.18849
253.88        98.62759
254.33        100.5915
254.79        103.0259
255.25        103.3441
255.70         101.151
256.16        98.77887
256.62        96.97015
257.07        95.97099
257.53        96.07877
257.99        96.62354
258.44        96.72395
258.90        96.16496
259.35        94.53082
259.81        92.76841
260.27        91.16607
260.72        89.99467
261.18        89.41827
261.63        88.76483
262.09        87.84019
262.55        85.91219
263.00        83.05793
263.46        80.06377
263.91        77.11613
264.37        74.84988
264.83        73.15144
265.28        71.74385
265.74        70.71288
266.19        69.90997
266.65         69.3557
267.11        68.97193
267.56         68.5639
268.02        67.88936
268.47        66.83727
268.93        65.47614
269.38        63.88031
269.84        62.34181
270.30        60.98213
270.75         59.7617
271.21        58.68134
271.66         57.6354
272.12        56.59878
272.57         55.5611
273.03        54.56282
273.48        53.55744
273.94        52.61805
274.39        51.68184
274.85        50.80175
275.31        49.92872
275.76        49.02713
276.22        48.16091
276.67        47.29562
277.13        46.52885
277.58         45.8054
278.04        45.16691
278.49        44.51933
278.95        43.86902
279.40        43.14838
279.86        42.44524
280.31        41.73528
280.77        41.13765
281.22        40.61581
281.68        40.19421
282.13        39.80988
282.59        39.46021
283.04        39.09804
283.50        38.74071
283.95        38.36865
284.41        37.99331
284.86        37.60251
285.32        37.25176
285.77        36.89603
286.22         36.5629
286.68        36.27671
287.13         35.9942
287.59        35.79337
288.04        35.71886
288.50        35.78712
288.95        35.92423
289.41        36.06881
289.86        36.06913
290.32        35.93922
290.77        35.73922
291.22        35.53782
291.68        35.43395
292.13        35.46688
292.59        35.65175
293.04        36.06514
293.50        36.86506
293.95        38.04676
294.40         39.5723
294.86        41.25105
295.31        42.78715
295.77         44.0962
296.22        45.23099
296.68         46.3595
297.13        47.72724
297.58        49.39909
298.04        51.26551
298.49        53.16827
298.95        54.88403
299.40        56.35464
299.85        57.67737
300.31        59.00391
300.76        60.47145
301.21         62.1561
301.67        64.02524
302.12        65.96814
302.58         67.9734
303.03        69.97368
303.48        71.94493
303.94        73.93069
304.39        76.19016
304.84        78.30163
305.30        80.58821
305.75        82.80498
306.20         84.8599
306.66        86.74437
307.11        88.42246
307.57        90.02847
308.02        91.62466
308.47        93.28346
308.93        94.98118
309.38        96.62682
309.83        98.16742
310.29        99.58139
310.74        100.8698
311.19        102.0302
311.65        103.0391
312.10        103.8949
312.55        104.6466
313.00        105.3982
313.46        106.3163
313.91        107.4095
314.36        108.6143
314.82        109.8457
315.27        110.9921
315.72        111.9714
316.18        112.8166
316.63        113.4418
317.08        113.7323
317.53        113.7208
317.99        113.4925
318.44        113.2425
318.89        113.2996
319.35        113.7428
319.80          114.48
320.25        115.4052
320.70         116.332
321.16         117.135
321.61        117.8957
322.06        118.5003
322.51        118.7971
322.97        118.7669
323.42        118.4611
323.87        118.0404
324.32        117.8009
324.78        117.8079
325.23        118.0743
325.68        118.4819
326.13        118.8168
326.59        118.9924
327.04        119.1084
327.49        119.2508
327.94        119.6156
328.39        120.2268
328.85        120.9423
329.30        121.6689
329.75        122.0289
330.20         121.935
330.66        121.4985
331.11        120.9615
331.56        120.6245
332.01        120.6218
332.46        120.9015
332.92         121.369
333.37        122.0246
333.82        122.7567
334.27        123.5603
334.72        124.4236
335.17        125.3272
335.63        126.1955
336.08        127.0574
336.53        127.7227
336.98        127.9767
337.43        127.8019
337.88         127.288
338.34        126.6978
338.79        126.4671
339.24        126.7065
339.69        127.3307
340.14        128.1304
340.59         128.727
341.05        129.0162
341.50        129.1147
341.95        129.1625
342.40        129.4046
342.85         129.887
343.30        130.4715
343.75        131.0597
344.20        131.5113
344.66        131.7958
345.11         132.003
345.56        132.0859
346.01        131.9518
346.46         131.644
346.91        131.1983
347.36        130.9095
347.81        131.2274
348.26        132.1854
348.72         133.594
349.17        135.0612
349.62        135.8407
350.07        135.7363
350.52        135.0047
350.97        133.9853
351.42         133.201
351.87        132.8284
352.32        132.7115
352.77        132.8233
353.22        133.1266
353.67        133.5362
354.13        134.0282
354.58        134.4301
355.03        134.4418
355.48        133.9844
355.93         133.132
356.38        131.9831
356.83        130.7097
357.28        129.4093
357.73        128.0824
358.18        126.8216
358.63        125.7593
359.08        124.9167
359.53        124.2646
359.98        123.7178
360.43        123.1205
360.88        122.4185
361.33        121.6475
361.78        120.8043
362.23        119.8937
362.68        118.9357
363.13        117.9297
363.58        116.9429
364.03        116.0878
364.48        115.3822
364.93        114.7903
365.38        114.2467
365.83        113.6416
366.28        112.9437
366.73        112.1887
367.18        111.3906
367.63        110.5705
368.08        109.7389
368.53        108.8818
368.98        108.0388
369.43        107.2739
369.88        106.6103
370.33        106.0588
370.78        105.5479
371.23        104.9597
371.68         104.262
372.13         103.452
372.58         102.665
373.03        102.1215
373.48         101.837
373.93        101.7372
374.38        101.5511
374.83        100.8463
375.28        99.58286
375.72        97.93204
376.17        96.32961
376.62        95.23438
377.07         94.7373
377.52        94.66174
377.97        94.81157
378.42        94.86691
378.87        94.70181
379.32        94.40446
379.77        93.98494
380.22        93.45304
380.67        92.82264
381.11         92.0676
381.56        91.25301
382.01        90.52776
382.46        89.95191
382.91        89.53105
383.36        89.18793
383.81        88.77972
384.26        88.27528
384.71        87.70531
385.15        87.16805
385.60        86.88065
386.05        86.83401
386.50        86.93777
386.95        87.00468
387.40         86.7545
387.85        86.15835
388.29        85.30047
388.74        84.45811
389.19        83.78187
389.64        83.31182
390.09        82.95481
390.54        82.71015
390.98        82.56787
391.43        82.52962
391.88        82.57335
392.33        82.53574
392.78        82.24131
393.23        81.69335
393.67        80.82341
394.12        79.88796
394.57        79.61874
395.02        79.18695
395.47        79.20837
395.91        79.32103
396.36        79.33425
396.81        79.19599
397.26        78.94988
397.71        78.64048
398.15        78.32627
398.60        78.07568
399.05        77.71667
399.50        77.29732
399.95        77.00679
400.39        76.62381
400.84         76.8213
401.29        77.30666
401.74        77.31118
402.18        76.74818
402.63        75.99607
403.08        75.33283
403.53        75.01077
403.97        75.08009
404.42        75.42495
404.87        75.83041
405.32        75.90494
405.76        75.55373
406.21        75.10293
406.66        74.60647
407.11        73.89162
407.55        73.23041
408.00         73.0723
408.45        73.41968
408.90        74.19464
409.34        74.98238
409.79        74.68484
410.24        73.59103
410.68        73.25433
411.13         73.7692
411.58        74.21576
412.03        74.37765
412.47        74.35216
412.92           74.06
413.37        73.52969
413.81        72.91507
414.26         72.5206
414.71        72.37465
415.15        72.41665
415.60        72.54624
416.05         72.6332
416.49        72.63503
416.94         72.6003
417.39        72.52953
417.83         72.4016
418.28        72.23207
418.73         72.0137
419.17        71.82411
419.62        71.80899
420.07        71.96866
420.51        72.23809
420.96         72.5183
421.41        72.56989
421.85        72.32475
422.30        72.04578
422.74         71.7524
423.19        71.31889
423.64        70.87093
424.08        71.02673
424.53        71.50148
424.98        71.81231
425.42        71.80981
425.87        71.77946
426.31        71.75694
426.76         71.6031
427.21        71.23588
427.65        71.26777
428.10         71.5061
428.54        71.28157
428.99        70.69926
429.44        70.23704
429.88        70.05534
430.33        70.25406
430.77        70.66692
431.22        71.26115
431.66        71.85406
432.11        71.68554
432.56        70.84336
433.00         70.5867
433.45        71.29075
433.89        70.83627
434.34        71.74274
434.78        73.04884
435.23        70.49786
435.67        69.82535
436.12        69.82319
436.57        69.86234
437.01        69.71707
437.46        70.89433
437.90        70.43042
438.35        71.00494
438.79        71.62794
439.24        71.85797
439.68        71.69003
440.13        71.57274
440.57        71.62389
441.02        71.65095
441.46        71.64103
441.91        71.85773
442.35        72.07639
442.80        71.99915
443.24        72.44658
443.69        72.10552
444.13         71.4133
444.58        71.04771
445.02        71.00462
445.47        71.01685
445.91        71.03625
446.36        71.01109
446.80        70.87094
447.24        71.25546
447.69         71.1107
448.13        71.15876
448.58        71.25723
449.02        71.28362
449.47        71.31884
449.91        71.40104
450.36         71.5519
450.80        71.71887
451.25         71.8679
451.69        71.91217
452.13        71.84904
452.58        71.74849
453.02        71.62328
453.47        71.50798
453.91        71.40391
454.36        71.38367
454.80        71.17931
455.24        71.40422
455.69        71.83356
456.13        71.97482
456.58        71.80272
457.02        71.42312
457.46        70.99628
457.91        70.87154
458.35        70.95226
458.79        70.84882
459.24        70.61288
459.68        70.41405
460.13        70.26298
460.57        70.39647
461.01        70.63037
461.46        70.16993
461.90        70.22689
462.34        70.63383
462.79        70.81655
463.23        70.53071
463.68        69.69755
464.12        69.28757
464.56        69.36152
465.01        69.34691
465.45        69.21748
465.89        69.46497
466.34        69.92796
466.78        70.17318
467.22         69.7738
467.67        69.55342
468.11        69.44788
468.55         69.1153
468.99        68.64473
469.44        68.33431
469.88        68.22866
470.32        68.26571
470.77        68.36777
471.21        68.42249
471.65        68.37974
472.10        68.29302
472.54        68.20679
472.98        68.21085
473.42        68.30872
473.87        68.51032
474.31        68.71257
474.75        68.65723
475.20        68.39084
475.64        68.29588
476.08        68.40101
476.52        68.19556
476.97        67.63592
477.41        67.63071
477.85        67.58463
478.29        66.72648
478.74        67.83142
479.18         67.7341
479.62           67.42
480.06        67.34764
480.50        67.52573
480.95        67.49373
481.39        68.35733
481.83        67.17104
482.27        68.04047
482.72        68.16164
483.16        68.06525
483.60        68.21175
484.04        68.46236
484.48        68.62344
484.93        68.52605
485.37        68.87491
485.81        68.02979
486.25        67.40401
486.69        68.83073
487.14        68.17372
487.58        67.27371
488.02        67.78524
488.46        68.45898
488.90        68.17539
489.34        67.45203
489.79        68.40456
490.23        67.34438
490.67        67.58678
491.11        67.83674
491.55        67.66002
491.99        67.12646
492.43        66.96421
492.88        67.24031
493.32        67.54269
493.76         67.7878
494.20        68.02454
494.64        68.20122
495.08        68.36449
495.52        68.50063
495.96        68.42104
496.41        68.09685
496.85        68.33352
497.29        67.60672
497.73        67.80255
498.17        68.03001
498.61        68.02601
499.05        67.70004
499.49        67.55859
499.93        67.62003
500.37        67.68263
500.82        67.73917
501.26        67.70645
501.70        67.54183
502.14        67.88956
502.58        67.65848
503.02        67.79621
503.46        67.97401
503.90        68.21008
504.34        68.41695
504.78        68.49182
505.22         68.4223
505.66        68.16241
506.10        67.80989
506.54        67.72762
506.98        67.91164
507.42        67.87964
507.86        67.54784
508.30        67.80704
508.74        67.41362
509.18        67.23234
509.62        67.00034
510.06        66.99019
510.50         67.2197
510.94        67.62035
511.38        68.04662
511.82        68.22701
512.26        68.10047
512.70        67.75314
513.14        67.34073
513.58        67.10473
514.02        67.10944
514.46        67.27883
514.90        67.50812
515.34        67.65316
515.78         67.6201
516.22        67.49921
516.66        67.34972
517.10         67.2787
517.54        67.31157
517.98        67.40668
518.42        67.50202
518.86        67.50533
519.30         67.3959
519.74        67.20969
520.18        67.01195
520.62         66.8945
521.06        66.88588
521.50        66.97269
521.93        67.10785
522.37        67.17042
522.81        67.13744
523.25        67.06561
523.69        67.04671
524.13        67.01201
524.57         67.3115
525.01        67.62541
525.45        67.90935
525.89        67.92349
526.32        67.62251
526.76        67.11256
527.20        66.56442
527.64        66.25115
528.08        66.23624
528.52        66.43604
528.96        66.73143
529.40        66.92993
529.83        66.96641
530.27        66.90759
530.71        66.80293
531.15        66.73536
531.59        66.72991
532.03        66.74949
532.46        66.75953
532.90        66.74326
533.34        66.68713
533.78        66.60947
534.22        66.53083
534.66        66.47505
535.09        66.44323
535.53        66.44408
535.97        66.45085
536.41        66.43662
536.85        66.39516
537.28        66.32959
537.72        66.26804
538.16        66.24911
538.60        66.27589
539.04        66.33424
539.47         66.3718
539.91        66.36433
540.35        66.29018
540.79        66.17992
541.22        66.06419
541.66        66.00481
542.10        66.01311
542.54        66.07011
542.97        66.16177
543.41        66.28468
543.85        66.41903
544.29        66.58167
544.72         66.7038
545.16        66.71441
545.60        66.60316
546.04        66.36202
546.47         66.1104
546.91        66.14668
547.35        66.45885
547.79        66.76258
548.22        66.92612
548.66        67.10761
549.10        67.28555
549.53        67.14325
549.97        66.64423
550.41        67.12595
550.84        66.61517
551.28        66.55518
551.72        66.34082
552.15        66.64775
552.59        66.58575
553.03        66.57818
553.46         66.4295
553.90        66.42071
554.34        66.54516
554.77        66.70326
555.21        66.84869
555.65        66.83405
556.08        66.68924
556.52          66.685
556.96        66.81779
557.39        66.91853
557.83         66.9873
558.27        67.08241
558.70        67.19851
559.14        67.28474
559.57        67.30504
560.01        67.34862
560.45        67.39795
560.88        67.15919
561.32        67.02602
561.75        66.95083
562.19         67.0207
562.63        66.95948
563.06         66.7804
563.50        66.74564
563.93        66.81705
564.37        66.84222
564.80        66.79533
565.24        66.77215
565.68        66.75867
566.11        66.77013
566.55        66.81252
566.98        66.72482
567.42        66.63288
567.85         66.7326
568.29        66.95518
568.72        67.20581
569.16         67.6024
569.60        66.98599
570.03        67.39512
570.47        67.84839
570.90        67.69846
571.34        67.54341
571.77        67.67839
572.21        67.67764
572.64        67.73015
573.08        67.59264
573.51        67.30251
573.95        67.79237
574.38        68.10561
574.82        67.87575
