SpectraSmart Spectrum 2.9.0.0
--------- Device Information -----------
Spectrum Name :  反射率_0
Saving Time :  2024/04/30 00:34:18
Spectro-Module Model Name : SE2030-DUVN
Spectro-Module Serial Number : OS361AC55029948
Wavelength Start : 200
Wavelength End : 1025
Wavelength Unit : Wavelength(nm)
Spectrum Unit : Reflectance(%)
-----------Spectrum Setting ------------
Integration Time : 20ms
Average : 10
Boxcar : 0
Background removal :  enabled
linearity correction :  enabled
SC :  disabled
Intensity correction :  disabled
DWT denoise :  enabled
savitzky-golay :  disabled
FFT :  disabled
Running average :  disabled
Kalman :  disabled
High pass :  disabled
---------------BEGIN--------------------
Wavelength(nm)             Reflectance(%)
200.29               0
200.75        94.50028
201.21        82.81795
201.67        71.57012
202.13        64.38637
202.58        63.21188
203.04        67.13211
203.50        76.85015
203.96        93.10201
204.42        113.4842
204.88        135.0465
205.34        148.1421
205.80        141.9251
206.26        121.6881
206.72        97.70338
207.18        77.24497
207.64        63.46322
208.10        54.64296
208.55        48.23661
209.01        44.22305
209.47        44.24181
209.93        47.87818
210.39        53.89626
210.85        59.35898
211.31        61.98255
211.77         61.8096
212.23        58.61138
212.69         53.6619
213.14        53.33807
213.60        59.16764
214.06        67.54712
214.52        73.82307
214.98        75.09841
215.44        72.27592
215.90        66.77561
216.36         61.0582
216.81        59.92091
217.27        66.01504
217.73        79.77082
218.19        100.5838
218.65        118.6456
219.11        124.7686
219.57        120.5739
220.02        113.1151
220.48         109.022
220.94        107.9649
221.40        108.3313
221.86        107.3166
222.32        99.97684
222.77        88.06264
223.23         77.6174
223.69        70.72742
224.15        67.16833
224.61        65.68592
225.06        65.52446
225.52        66.06155
225.98        65.92535
226.44        64.95563
226.90        63.83113
227.36        62.97005
227.81        62.61026
228.27        62.74194
228.73        63.02521
229.19        63.48705
229.65        64.11538
230.10        64.64536
230.56         65.1803
231.02        65.30246
231.48        64.63739
231.93        63.15984
232.39        61.06951
232.85        58.84037
233.31        57.53531
233.77        57.50138
234.22        58.60278
234.68        60.07171
235.14        60.50988
235.60        59.61958
236.05        57.93279
236.51        56.46534
236.97         56.4995
237.43        58.41797
237.88        62.28759
238.34        67.65428
238.80        72.94638
239.26        76.39761
239.71        77.96616
240.17        77.97348
240.63        77.72818
241.08        77.93568
241.54        78.14371
242.00        78.86718
242.46        81.24812
242.91        86.12462
243.37        92.38587
243.83        98.97604
244.28        106.2519
244.74        114.8446
245.20         124.235
245.66        134.0583
246.11        142.6826
246.57        148.1584
247.03        152.4379
247.48        150.8647
247.94        136.3917
248.40        115.7201
248.85        96.03579
249.31        84.37016
249.77         82.7334
250.22        90.23851
250.68        108.5794
251.14        137.2885
251.59        152.8864
252.05        139.4659
252.51        115.5491
252.96        97.09322
253.42        89.29528
253.88        88.52406
254.33        91.49577
254.79        96.03611
255.25        97.46539
255.70        94.92024
256.16        91.63522
256.62        89.04749
257.07        87.86391
257.53        88.16711
257.99        88.94253
258.44        89.04861
258.90          87.956
259.35        85.45689
259.81        82.83413
260.27        80.49331
260.72        78.73293
261.18        77.68986
261.63        76.72861
262.09        75.78918
262.55        74.38934
263.00        72.51144
263.46        70.67995
263.91        68.83585
264.37        67.29648
264.83        65.94702
265.28        64.61409
265.74        63.50469
266.19        62.67288
266.65         62.1792
267.11        61.90451
267.56        61.56669
268.02        60.78291
268.47        59.44657
268.93        57.69653
269.38        55.76385
269.84        54.19412
270.30         53.1532
270.75        52.49047
271.21        52.02536
271.66        51.41723
272.12        50.57744
272.57        49.57295
273.03        48.50002
273.48        47.41107
273.94        46.42051
274.39        45.45005
274.85        44.56565
275.31        43.75586
275.76        42.98897
276.22        42.31392
276.67        41.67313
277.13        41.10613
277.58        40.54465
278.04        40.02364
278.49        39.46399
278.95         38.8814
279.40        38.21881
279.86        37.55951
280.31        36.86707
280.77        36.23105
281.22        35.62975
281.68        35.10271
282.13        34.64398
282.59        34.31285
283.04        34.07341
283.50        33.91018
283.95        33.75481
284.41        33.53255
284.86        33.21333
285.32         32.8723
285.77        32.49972
286.22        32.16793
286.68        31.90999
287.13        31.66561
287.59        31.49822
288.04        31.43782
288.50        31.49577
288.95        31.61829
289.41        31.73749
289.86        31.69753
290.32        31.51128
290.77        31.23562
291.22        30.97063
291.68        30.86647
292.13        30.96636
292.59        31.26499
293.04        31.77355
293.50        32.54573
293.95          33.566
294.40        34.82853
294.86        36.22684
295.31        37.60043
295.77        38.89709
296.22        40.13226
296.68        41.39387
297.13        42.80125
297.58        44.38816
298.04        46.08382
298.49        47.80233
298.95        49.42694
299.40        50.92333
299.85         52.3463
300.31        53.77879
300.76         55.2632
301.21        56.85537
301.67        58.55857
302.12        60.32287
302.58        62.22223
303.03        64.21569
303.48        66.23884
303.94        68.29156
304.39        70.63353
304.84        72.73168
305.30        75.01064
305.75        77.23523
306.20        79.36656
306.66        81.39996
307.11        83.27775
307.57        85.09852
308.02        86.88518
308.47        88.69772
308.93        90.52818
309.38        92.30059
309.83        93.97781
310.29        95.54746
310.74          97.011
311.19        98.36419
311.65        99.58602
312.10        100.6694
312.55        101.6461
313.00        102.6292
313.46        103.7996
313.91         105.162
314.36        106.6565
314.82        108.1308
315.27        109.3669
315.72        110.2738
316.18        110.9175
316.63        111.3508
317.08        111.6787
317.53        111.9747
317.99         112.259
318.44        112.5576
318.89         112.928
319.35        113.3847
319.80        113.9122
320.25        114.5632
320.70        115.4111
321.16        116.3982
321.61        117.5265
322.06        118.5399
322.51        119.0461
322.97        118.9632
323.42        118.4327
323.87        117.7459
324.32        117.3972
324.78        117.5083
325.23        118.0263
325.68        118.7573
326.13        119.3618
326.59        119.6989
327.04        119.8994
327.49        120.0744
327.94        120.4596
328.39        121.0958
328.85        121.8288
329.30        122.5474
329.75        122.8491
330.20         122.653
330.66        122.0938
331.11        121.4719
331.56        121.1735
332.01        121.3453
332.46        121.9007
332.92        122.6788
333.37        123.5633
333.82        124.3984
334.27         125.213
334.72        126.0141
335.17         126.818
335.63        127.5857
336.08        128.3541
336.53        128.9875
336.98        129.3634
337.43        129.4721
337.88        129.3538
338.34        129.2199
338.79         129.424
339.24        130.0316
339.69        130.9718
340.14        131.9599
340.59        132.5013
341.05        132.4995
341.50        132.1277
341.95        131.7005
342.40        131.7373
342.85        132.3466
343.30         133.311
343.75        134.3973
344.20         135.235
344.66        135.7112
345.11        135.9723
345.56        136.0043
346.01        135.7753
346.46        135.3587
346.91        134.7685
347.36        134.3206
347.81        134.5014
348.26        135.3603
348.72        136.7259
349.17        138.2014
349.62        139.0156
350.07        138.9668
350.52        138.3088
350.97        137.4065
351.42        136.8273
351.87         136.738
352.32        136.9466
352.77        137.3504
353.22        137.7957
353.67        138.1725
354.13        138.5014
354.58        138.6708
355.03        138.4807
355.48        137.8962
355.93        136.9718
356.38        135.8154
356.83        134.6084
357.28        133.4332
357.73        132.2786
358.18        131.1913
358.63        130.2274
359.08        129.3895
359.53        128.6718
359.98        128.0075
360.43        127.2753
360.88        126.4449
361.33        125.5483
361.78        124.6178
362.23        123.7128
362.68        122.8544
363.13        122.0186
363.58        121.2169
364.03        120.4701
364.48        119.7684
364.93        119.1001
365.38        118.4227
365.83        117.6691
366.28        116.8318
366.73        115.9421
367.18         115.032
367.63        114.1486
368.08        113.3084
368.53         112.498
368.98        111.7383
369.43        111.0584
369.88        110.4649
370.33        109.9636
370.78        109.4914
371.23        108.9483
371.68         108.303
372.13        107.5476
372.58        106.7826
373.03        106.1766
373.48        105.7417
373.93        105.4223
374.38        105.0208
374.83         104.224
375.28        103.0145
375.72        101.5227
376.17        100.0984
376.62        99.06615
377.07        98.49288
377.52        98.24927
377.97          98.203
378.42        98.14391
378.87         97.9743
379.32        97.73171
379.77        97.39742
380.22        96.94203
380.67        96.35895
381.11        95.64081
381.56        94.81184
382.01        93.95473
382.46        93.13094
382.91        92.36915
383.36        91.68945
383.81        91.09653
384.26        90.58617
384.71         90.1524
385.15        89.79169
385.60        89.55476
386.05        89.40253
386.50        89.30511
386.95        89.17096
387.40        88.87704
387.85        88.41152
388.29        87.76367
388.74        87.15358
389.19        86.65794
389.64        86.30257
390.09        86.03999
390.54        85.80658
390.98        85.54717
391.43        85.28603
391.88        84.86901
392.33        84.38311
392.78        84.24371
393.23        84.24936
393.67        83.66778
394.12        82.79697
394.57        81.86673
395.02        82.01794
395.47        81.85497
395.91        81.68584
396.36        81.62626
396.81        81.67426
397.26        81.76723
397.71        81.77919
398.15         81.5304
398.60        81.10483
399.05        80.48791
399.50        79.83666
399.95        79.54969
400.39        79.34305
400.84        79.51184
401.29        79.77805
401.74        79.78027
402.18        79.42736
402.63        78.78506
403.08        78.11109
403.53        77.79896
403.97        77.90503
404.42        78.26478
404.87        78.64449
405.32        78.68366
405.76        78.29813
406.21        77.69837
406.66        77.03498
407.11        76.52255
407.55        76.32571
408.00        76.32517
408.45        76.48607
408.90        77.09735
409.34        77.81272
409.79        77.46872
410.24        76.37387
410.68        76.06117
411.13        76.63382
411.58        77.24837
412.03        77.65758
412.47        77.82898
412.92         77.6489
413.37        77.18523
413.81        76.60162
414.26        76.22112
414.71        76.08088
415.15        76.10928
415.60        76.21824
416.05        76.30347
416.49        76.32939
416.94        76.34768
417.39        76.33269
417.83        76.21426
418.28        76.00377
418.73        75.71173
419.17        75.46234
419.62        75.47616
420.07        75.75751
420.51        76.20515
420.96        76.67308
421.41        76.81925
421.85        76.55391
422.30        76.26218
422.74        75.96479
423.19        75.37689
423.64        74.70623
424.08        74.96148
424.53        75.74528
424.98        76.31817
425.42        76.43683
425.87        76.61581
426.31        76.84328
426.76        76.54136
427.21        76.00615
427.65        75.85619
428.10        76.07163
428.54        75.79942
428.99        75.20773
429.44        75.07459
429.88        75.37577
430.33        75.66634
430.77        75.79432
431.22        76.05491
431.66        76.35943
432.11        76.18085
432.56        75.59858
433.00        75.51819
433.45        76.16074
433.89        76.54871
434.34        76.00073
434.78        78.76525
435.23        75.84888
435.67        75.43764
436.12        75.21449
436.57        75.42037
437.01        75.83784
437.46        76.48763
437.90        76.46877
438.35        76.46564
438.79        77.12733
439.24        77.27267
439.68        77.18874
440.13        77.25909
440.57        77.55211
441.02        77.62779
441.46         77.3903
441.91        77.79626
442.35        78.02637
442.80        77.36391
443.24        77.93465
443.69        77.73619
444.13        77.49446
444.58        77.32571
445.02        77.20427
445.47        77.12473
445.91        77.09333
446.36         77.0269
446.80        76.86221
447.24        77.43554
447.69        77.26777
448.13        77.44097
448.58        77.52853
449.02        77.56184
449.47        77.57592
449.91        77.61776
450.36         77.7204
450.80        77.82241
451.25         77.9248
451.69         77.9913
452.13        78.02665
452.58        78.08472
453.02        78.12219
453.47         78.0997
453.91        77.99859
454.36        77.88128
454.80        77.51602
455.24        77.73569
455.69        78.26288
456.13        78.38237
456.58        78.11346
457.02        77.47498
457.46        77.23325
457.91        77.13448
458.35        77.04993
458.79        76.98973
459.24        76.93334
459.68        76.95482
460.13        76.98495
460.57        77.25896
461.01        77.17586
461.46        76.76288
461.90        76.52724
462.34        76.70531
462.79         77.2668
463.23        77.20473
463.68        76.54712
464.12        76.18893
464.56        76.18876
465.01        75.93707
465.45        75.48162
465.89        75.56863
466.34        76.07992
466.78        76.12519
467.22        75.95868
467.67        75.79581
468.11        75.87602
468.55         75.7298
468.99         75.4272
469.44        75.16506
469.88        74.96621
470.32        74.79784
470.77        74.65154
471.21         74.5426
471.65         74.4583
472.10        74.42201
472.54        74.42732
472.98        74.48698
473.42        74.58031
473.87        74.73486
474.31        74.88191
474.75        74.82581
475.20        74.62484
475.64        74.62284
476.08        74.79039
476.52        74.62725
476.97        74.23928
477.41        74.14687
477.85        73.60321
478.29        73.64985
478.74        74.51534
479.18        74.73901
479.62        73.79726
480.06        73.59638
480.50        73.91401
480.95        73.90018
481.39        74.77476
481.83         73.4795
482.27        74.74297
482.72        74.47179
483.16         74.3898
483.60          74.243
484.04        74.52699
484.48        74.92104
484.93         75.2924
485.37        74.80708
485.81        73.87975
486.25        73.02858
486.69        74.80705
487.14        74.11247
487.58        73.11733
488.02        73.28542
488.46        74.76039
488.90        73.99794
489.34        73.47621
489.79        73.88079
490.23        73.59745
490.67        73.68098
491.11        73.41302
491.55        73.08537
491.99        72.77062
492.43        72.67726
492.88        72.83984
493.32        73.14836
493.76        73.49989
494.20        73.77193
494.64        73.90465
495.08        73.99866
495.52        74.03648
495.96        73.81133
496.41        73.43481
496.85        73.45528
497.29        73.47398
497.73        73.68051
498.17        73.14541
498.61         73.0408
499.05        73.12595
499.49        73.10737
499.93        72.96637
500.37         72.9045
500.82        72.93821
501.26        72.90805
501.70        72.79018
502.14        72.98518
502.58        72.84882
503.02        72.95026
503.46        73.09306
503.90        73.27436
504.34        73.43744
504.78        73.51395
505.22         73.4902
505.66        73.35226
506.10        73.13768
506.54        73.02861
506.98        73.07197
507.42        72.97741
507.86        72.64857
508.30        72.98933
508.74        72.70052
509.18        72.10555
509.62        72.18793
510.06        72.11552
510.50        72.28201
510.94        72.61342
511.38        72.99058
511.82        73.15481
512.26         73.0396
512.70        72.73402
513.14        72.37797
513.58        72.19023
514.02        72.22704
514.46         72.4202
514.90        72.66918
515.34        72.81135
515.78        72.79641
516.22        72.67547
516.66        72.51767
517.10        72.42525
517.54        72.42599
517.98        72.48562
518.42        72.54593
518.86        72.52017
519.30        72.39201
519.74        72.19613
520.18        72.00803
520.62         71.9351
521.06        72.00551
521.50        72.19742
521.93        72.43364
522.37        72.56439
522.81        72.56054
523.25        72.44646
523.69        72.33072
524.13        72.38464
524.57        72.62965
525.01        73.00436
525.45        73.34426
525.89        73.38495
526.32        73.07039
526.76        72.52657
527.20        71.94157
527.64        71.60492
528.08        71.58691
528.52         71.7957
528.96         72.1097
529.40        72.33392
529.83        72.39838
530.27        72.36954
530.71        72.28711
531.15        72.21944
531.59        72.18866
532.03         72.1619
532.46        72.11526
532.90        72.05059
533.34        71.96333
533.78         71.8752
534.22        71.80027
534.66        71.75134
535.09         71.7262
535.53        71.73141
535.97         71.7598
536.41        71.81675
536.85        71.89335
537.28        71.97684
537.72        72.03989
538.16        72.03481
538.60        71.95296
539.04        71.81261
539.47        71.63037
539.91        71.49152
540.35        71.39751
540.79        71.34681
541.22         71.3226
541.66        71.30736
542.10        71.29241
542.54        71.29316
542.97        71.31525
543.41        71.38589
543.85        71.49224
544.29        71.63178
544.72        71.74926
545.16        71.78414
545.60        71.72036
546.04        71.59636
546.47        71.47341
546.91        71.44798
547.35        71.54858
547.79        71.75992
548.22        71.96886
548.66         72.1674
549.10        72.34135
549.53        72.27728
549.97        71.88242
550.41        72.45817
550.84        71.85794
551.28         71.6385
551.72        71.22211
552.15        71.55771
552.59        71.65641
553.03        71.69005
553.46        71.44212
553.90        71.41071
554.34        71.58403
554.77        71.74463
555.21         71.8462
555.65        71.76707
556.08        71.55267
556.52        71.54995
556.96        71.74725
557.39        71.82394
557.83        71.80917
558.27        71.95638
558.70        71.78866
559.14        71.82745
559.57        71.87573
560.01        71.97401
560.45        71.96148
560.88        71.78812
561.32        71.79145
561.75        71.82153
562.19        71.93463
562.63        71.74609
563.06        71.33613
563.50        71.32141
563.93        71.45682
564.37        71.60368
564.80        71.62691
565.24        71.60349
565.68        71.53647
566.11        71.53979
566.55        71.62325
566.98        71.55941
567.42        71.46412
567.85        71.50956
568.29        71.65917
568.72        71.91528
569.16        72.40859
569.60        71.80166
570.03        72.21294
570.47         72.5563
570.90        72.43261
571.34        71.74301
571.77        72.28661
572.21        72.42681
572.64        72.65791
573.08        72.41612
573.51        71.81736
573.95        72.10798
574.38        72.67498
574.82        72.58091
