SpectraSmart Spectrum 2.9.0.0
--------- Device Information -----------
Spectrum Name :  反射率_0
Saving Time :  2024/04/29 23:57:05
Spectro-Module Model Name : SE2030-DUVN
Spectro-Module Serial Number : OS361AC55029948
Wavelength Start : 200
Wavelength End : 1025
Wavelength Unit : Wavelength(nm)
Spectrum Unit : Reflectance(%)
-----------Spectrum Setting ------------
Integration Time : 20ms
Average : 10
Boxcar : 0
Background removal :  enabled
linearity correction :  enabled
SC :  disabled
Intensity correction :  disabled
DWT denoise :  enabled
savitzky-golay :  disabled
FFT :  disabled
Running average :  disabled
Kalman :  disabled
High pass :  disabled
---------------BEGIN--------------------
Wavelength(nm)             Reflectance(%)
200.29               0
200.75        50.23905
201.21        39.17562
201.67        25.72862
202.13        14.84038
202.58        8.983626
203.04        7.524921
203.50         11.1862
203.96        20.91754
204.42        35.37243
204.88        52.71222
205.34         66.8933
205.80        69.79769
206.26        63.04469
206.72        52.72868
207.18         42.2751
207.64        33.03783
208.10        24.46525
208.55        15.02442
209.01        7.005124
209.47         6.65535
209.93        14.21223
210.39         26.1521
210.85        36.40267
211.31        40.02725
211.77        36.91992
212.23         26.7899
212.69        12.45165
213.14        8.656419
213.60        21.11527
214.06        40.41621
214.52        55.88123
214.98        61.16124
215.44        57.90733
215.90        49.03947
216.36        38.19397
216.81        32.32407
217.27        34.98268
217.73        45.34577
218.19        62.61036
218.65        77.62264
219.11        82.17914
219.57        78.96867
220.02         72.5216
220.48        66.50395
220.94        60.30949
221.40        51.41183
221.86        40.00533
222.32         31.8571
222.77        30.54994
223.23         34.1035
223.69        37.18298
224.15          35.887
224.61        30.44187
225.06        21.61266
225.52        12.81682
225.98         11.6491
226.44         18.7295
226.90         28.8876
227.36        37.36104
227.81        41.30707
228.27        41.34123
228.73         38.6927
229.19        34.99482
229.65        33.53297
230.10        35.03404
230.56        37.85614
231.02        40.20786
231.48        40.57563
231.93        38.93073
232.39        35.91006
232.85        32.51456
233.31        30.61988
233.77        30.82349
234.22         32.7159
234.68        34.91723
235.14        34.91233
235.60         32.2222
236.05        27.93002
236.51        23.90073
236.97        22.45214
237.43        24.13614
237.88        28.65729
238.34        35.43975
238.80        41.80775
239.26        45.24854
239.71        46.08502
240.17        44.74987
240.63        42.45066
241.08        39.46365
241.54        34.36429
242.00        27.26164
242.46        23.35809
242.91        28.75578
243.37        42.92844
243.83        58.55346
244.28        68.64096
244.74        72.91879
245.20         72.4347
245.66         68.1041
246.11        62.94625
246.57        59.06805
247.03        55.99649
247.48         53.9365
247.94        52.83632
248.40        52.97398
248.85        54.25937
249.31        56.56986
249.77        59.74786
250.22        64.41508
250.68        71.45514
251.14        81.53311
251.59        88.98255
252.05        87.67593
252.51        81.75414
252.96        75.29135
253.42        69.76324
253.88        64.10022
254.33         57.4403
254.79        51.05333
255.25        47.87093
255.70        48.15409
256.16        50.15964
256.62        52.05537
257.07        52.58732
257.53        52.18563
257.99        51.28459
258.44        49.84604
258.90        48.52276
259.35        47.26771
259.81        46.22498
260.27        45.49565
260.72        45.23479
261.18        45.38317
261.63        45.56627
262.09        45.51385
262.55        44.62841
263.00        42.97291
263.46        41.06867
263.91        39.13264
264.37        37.59431
264.83        36.41918
265.28        35.40284
265.74        34.63502
266.19        34.08435
266.65        33.76007
267.11        33.62577
267.56        33.48195
268.02        33.01027
268.47        32.14537
268.93        30.97333
269.38        29.69372
269.84        28.78641
270.30        28.35662
270.75        28.26437
271.21        28.26301
271.66        27.97928
272.12        27.32442
272.57        26.40306
273.03        25.40456
273.48        24.55353
273.94        23.97066
274.39        23.55326
274.85        23.22762
275.31        22.84358
275.76        22.36125
276.22        21.85318
276.67        21.37698
277.13        21.07252
277.58        20.91021
278.04        20.84228
278.49        20.73724
278.95        20.47932
279.40        20.02342
279.86        19.49186
280.31        18.91804
280.77        18.44289
281.22        18.08379
281.68        17.82419
282.13        17.68407
282.59        17.71656
283.04         17.8879
283.50        18.14955
283.95         18.3821
284.41        18.39648
284.86        18.15941
285.32        17.77237
285.77        17.30194
286.22        16.90066
286.68        16.62642
287.13        16.41098
287.59        16.30299
288.04        16.32982
288.50         16.4843
288.95        16.73231
289.41        16.98025
289.86        17.05846
290.32        16.96755
290.77        16.77304
291.22        16.58263
291.68        16.56553
292.13        16.76664
292.59        17.14953
293.04        17.72444
293.50        18.52341
293.95        19.53325
294.40        20.75373
294.86        22.05487
295.31        23.24135
295.77        24.26442
296.22        25.15823
296.68        26.08365
297.13        27.27784
297.58        28.79765
298.04        30.54362
298.49        32.34689
298.95        33.94248
299.40        35.27724
299.85        36.45358
300.31        37.64125
300.76        39.03267
301.21        40.70362
301.67        42.58969
302.12        44.57237
302.58        46.61663
303.03        48.66743
303.48        50.66225
303.94        52.61572
304.39        54.99689
304.84        57.00515
305.30        59.25449
305.75        61.45924
306.20          63.622
306.66        65.72688
307.11        67.72724
307.57        69.63667
308.02        71.37289
308.47         72.9815
308.93        74.49181
309.38        75.94693
309.83        77.48694
310.29        79.12318
310.74        80.78961
311.19        82.36221
311.65        83.63643
312.10          84.568
312.55        85.25613
313.00        85.87251
313.46        86.68758
313.91        87.75079
314.36        88.97712
314.82        90.24899
315.27        91.40151
315.72        92.34563
316.18         93.1348
316.63        93.74747
317.08        94.16267
317.53         94.4193
317.99        94.56009
318.44        94.67173
318.89        94.91412
319.35         95.3289
319.80        95.87035
320.25        96.54315
320.70        97.34151
321.16        98.20023
321.61        99.15582
322.06        100.0081
322.51        100.4496
322.97        100.4202
323.42        100.0164
323.87         99.5078
324.32        99.35559
324.78        99.66007
325.23        100.3675
325.68        101.2304
326.13        101.8151
326.59        101.9765
327.04        101.8754
327.49        101.7283
327.94        101.9374
328.39        102.5917
328.85        103.5014
329.30        104.4836
329.75        105.0327
330.20        105.0127
330.66         104.582
331.11        104.0152
331.56        103.6734
332.01        103.7051
332.46        104.0211
332.92        104.5231
333.37        105.1863
333.82        105.9007
334.27        106.6851
334.72        107.4991
335.17         108.269
335.63        108.9292
336.08        109.5195
336.53        109.9628
336.98        110.2216
337.43        110.3124
337.88        110.2692
338.34        110.2099
338.79         110.341
339.24        110.7102
339.69        111.2845
340.14        111.9644
340.59        112.5606
341.05        113.0192
341.50         113.397
341.95        113.7365
342.40        114.1327
342.85        114.6023
343.30        115.0689
343.75        115.5304
344.20        115.9936
344.66        116.4591
345.11        116.9552
345.56        117.3554
346.01        117.4447
346.46        117.2264
346.91        116.7778
347.36        116.4184
347.81        116.6346
348.26        117.4829
348.72        118.7694
349.17        120.1285
349.62        120.8691
350.07         120.809
350.52        120.1966
350.97         119.334
351.42        118.6826
351.87        118.4001
352.32        118.3387
352.77        118.4943
353.22        118.8675
353.67        119.3837
354.13         120.013
354.58        120.5486
355.03        120.6381
355.48        120.1988
355.93         119.324
356.38        118.1783
356.83        117.0332
357.28        115.9954
357.73         115.022
358.18        114.1211
358.63        113.2933
359.08         112.529
359.53        111.8439
359.98        111.2124
360.43        110.5731
360.88        109.9069
361.33        109.2256
361.78        108.5107
362.23        107.7429
362.68        106.9287
363.13        106.0705
363.58        105.2377
364.03         104.541
364.48        103.9934
364.93        103.5566
365.38        103.1329
365.83        102.5673
366.28         101.825
366.73        100.9553
367.18        100.0397
367.63        99.20553
368.08        98.48425
368.53        97.83654
368.98        97.21922
369.43        96.55819
369.88        95.84725
370.33        95.14202
370.78        94.46553
371.23        93.85202
371.68        93.31157
372.13        92.79814
372.58        92.36256
373.03        92.09122
373.48        91.96012
373.93        91.92576
374.38        91.78181
374.83        91.20349
375.28        90.16232
375.72        88.77495
376.17        87.39085
376.62        86.36323
377.07        85.77058
377.52        85.49396
377.97        85.39276
378.42        85.23698
378.87        84.94311
379.32        84.57523
379.77        84.16356
380.22        83.74462
380.67        83.32153
381.11        82.86069
381.56        82.34486
382.01        81.78067
382.46        81.19513
382.91        80.62689
383.36        80.09805
383.81        79.62582
384.26        79.21252
384.71        78.84038
385.15        78.52181
385.60        78.33173
386.05        78.23701
386.50        78.20808
386.95        78.13192
387.40        77.84196
387.85        77.33141
388.29           76.63
388.74        75.97174
389.19        75.47757
389.64        75.17229
390.09        74.98004
390.54        74.85128
390.98        74.71426
391.43        74.57166
391.88        74.37659
392.33        74.07561
392.78         73.7832
393.23        73.44904
393.67        72.67165
394.12        71.69377
394.57        71.51315
395.02        71.16354
395.47         71.3868
395.91        71.71684
396.36        71.80314
396.81        71.56812
397.26        71.18377
397.71        70.75874
398.15         70.3245
398.60        69.99832
399.05        69.79499
399.50        69.67317
399.95        69.46865
400.39        69.00697
400.84         69.2285
401.29        69.87116
401.74        69.98985
402.18        69.48745
402.63        68.83281
403.08        68.28042
403.53        67.99947
403.97        68.04588
404.42        68.35703
404.87        68.71468
405.32        68.72988
405.76        68.30897
406.21         67.7206
406.66        67.12905
407.11        66.53362
407.55        66.15173
408.00        66.47631
408.45        67.31236
408.90        67.73794
409.34        67.60922
409.79         67.3752
410.24        67.19208
410.68        67.12612
411.13        67.22287
411.58        67.43236
412.03        67.63594
412.47        67.65541
412.92        67.42519
413.37        67.04737
413.81        66.60638
414.26        66.29404
414.71        66.12545
415.15         66.0618
415.60        66.06274
416.05         66.1092
416.49        66.18569
416.94        66.29865
417.39        66.40804
417.83         66.4297
418.28         66.3578
418.73        66.21178
419.17        66.06191
419.62        66.03784
420.07        66.13941
420.51        66.30424
420.96        66.49007
421.41        66.49902
421.85        66.27709
422.30        66.21231
422.74        66.21816
423.19        65.70252
423.64        64.91148
424.08        65.12634
424.53        66.20921
424.98        66.71559
425.42        66.49281
425.87        66.60911
426.31        66.98385
426.76        66.44682
427.21        65.18552
427.65        65.18621
428.10        66.20403
428.54        66.43368
428.99        65.83788
429.44        65.33736
429.88        65.12136
430.33        65.17543
430.77        65.42827
431.22        65.99826
431.66        66.65034
432.11        66.54642
432.56        65.80773
433.00        65.50871
433.45        65.89283
433.89        66.32428
434.34        66.66648
434.78        67.80147
435.23        66.19104
435.67        65.54794
436.12        65.63746
436.57        65.59998
437.01        65.53119
437.46        66.07784
437.90        65.93489
438.35        66.36939
438.79        66.90053
439.24         67.1699
439.68        67.17821
440.13        67.29918
440.57         67.5468
441.02        67.63066
441.46        67.51693
441.91        67.45947
442.35        67.45251
442.80         67.2362
443.24        67.60557
443.69        67.45978
444.13        67.09505
444.58        66.90703
445.02        66.86254
445.47        66.81748
445.91        66.77678
446.36        66.72749
446.80         66.6191
447.24        67.09935
447.69        66.99196
448.13        67.15789
448.58          67.256
449.02         67.3075
449.47        67.34245
449.91        67.39522
450.36          67.495
450.80        67.60167
451.25        67.70191
451.69        67.74202
452.13        67.72176
452.58        67.68914
453.02        67.65903
453.47        67.65498
453.91        67.66762
454.36        67.80853
454.80        67.76704
455.24        67.94717
455.69         68.1776
456.13          68.201
456.58        68.04655
457.02        67.71423
457.46        67.51727
457.91        67.39159
458.35        67.35658
458.79        67.25788
459.24        67.13506
459.68        67.09715
460.13         67.1492
460.57        67.06214
461.01         67.3464
461.46        66.92744
461.90        66.93827
462.34        67.14801
462.79        67.64477
463.23        67.47337
463.68        66.72623
464.12        66.40341
464.56        66.51403
465.01        66.30283
465.45        66.10344
465.89        65.99683
466.34        66.04513
466.78        66.67922
467.22        66.79822
467.67        66.77071
468.11         66.6303
468.55        66.16653
468.99        65.63535
469.44        65.25929
469.88        65.11624
470.32        65.14404
470.77        65.26001
471.21        65.35548
471.65        65.37505
472.10        65.37257
472.54        65.36512
472.98        65.40372
473.42        65.48653
473.87        65.61587
474.31        65.73375
474.75        65.68844
475.20        65.51347
475.64        65.50652
476.08        65.66168
476.52         65.4882
476.97         64.9285
477.41         65.0668
477.85        64.58365
478.29        64.20281
478.74        65.03186
479.18        65.03228
479.62        64.69003
480.06        64.62409
480.50        64.87704
480.95        64.62864
481.39        64.93848
481.83        64.56332
482.27        65.16311
482.72        65.21062
483.16        65.09808
483.60        65.11242
484.04        65.28747
484.48        65.36126
484.93        65.11685
485.37        65.14594
485.81        64.59008
486.25        63.48841
486.69         64.4326
487.14        64.83099
487.58        64.26398
488.02        64.05944
488.46        64.57388
488.90        64.75503
489.34        64.59335
489.79        64.98148
490.23        64.47934
490.67        64.40901
491.11        64.34914
491.55        64.11146
491.99        63.77972
492.43        63.68377
492.88        63.85543
493.32        64.16888
493.76        64.51511
494.20        64.76987
494.64        64.88795
495.08        64.92099
495.52        64.87502
495.96        64.77192
496.41        64.68324
496.85        64.58805
497.29        64.46138
497.73        64.76167
498.17        64.67181
498.61        64.54856
499.05        64.24447
499.49        64.13371
499.93        64.21115
500.37        64.29245
500.82        64.36334
501.26        64.26351
501.70        64.34238
502.14        64.37495
502.58        64.30105
503.02        64.32285
503.46         64.3943
503.90        64.50192
504.34        64.60791
504.78        64.66712
505.22        64.66537
505.66        64.60212
506.10        64.50777
506.54        64.47915
506.98         64.5381
507.42        64.57581
507.86        64.50529
508.30        64.67324
508.74        64.27441
509.18        63.98928
509.62        63.69812
510.06        63.60099
510.50         63.7267
510.94         64.0253
511.38        64.37276
511.82        64.54071
512.26        64.47227
512.70        64.23751
513.14        63.94963
513.58        63.78337
514.02        63.78656
514.46        63.90401
514.90        64.06779
515.34        64.17023
515.78        64.17787
516.22        64.12812
516.66        64.06452
517.10        64.04968
517.54          64.097
517.98        64.17673
518.42        64.24995
518.86        64.26065
519.30        64.19581
519.74        64.07953
520.18        63.94646
520.62        63.84386
521.06        63.79253
521.50         63.7906
521.93        63.82695
522.37        63.86167
522.81        63.89165
523.25         63.9146
523.69        63.96288
524.13        64.08772
524.57        64.28594
525.01        64.53218
525.45        64.73941
525.89           64.77
526.32        64.59328
526.76        64.28021
527.20        63.93656
527.64        63.73067
528.08        63.70318
528.52        63.80254
528.96        63.96094
529.40        64.06702
529.83        64.08041
530.27        64.04543
530.71        63.97782
531.15        63.90779
531.59        63.84806
532.03        63.78149
532.46        63.70943
532.90         63.6653
533.34        63.64705
533.78        63.65719
534.22        63.67451
534.66        63.66156
535.09        63.60728
535.53        63.53515
535.97        63.46819
536.41        63.45917
536.85         63.5145
537.28        63.60817
537.72        63.70117
538.16        63.72805
538.60        63.67178
539.04        63.55659
539.47        63.39718
539.91        63.26785
540.35        63.17236
540.79        63.11066
541.22        63.07297
541.66        63.05363
542.10        63.04765
542.54        63.06446
542.97        63.11032
543.41        63.21036
543.85        63.34874
544.29        63.51788
544.72         63.6542
545.16        63.68358
545.60        63.58738
546.04        63.40582
546.47        63.20701
546.91        63.10099
547.35        63.12462
547.79          63.262
548.22        63.41222
548.66        63.56914
549.10        63.71373
549.53        63.64777
549.97        63.31017
550.41        63.85468
550.84        63.38091
551.28        63.33026
551.72        63.12126
552.15        63.29929
552.59        63.06968
553.03        63.03371
553.46         62.9828
553.90        62.97479
554.34        62.99539
554.77        63.08367
555.21        63.20652
555.65        63.14184
556.08         62.9105
556.52        62.88279
556.96        63.09949
557.39        63.06237
557.83        63.24099
558.27        63.64399
558.70         63.5436
559.14        63.69551
559.57         63.7778
560.01        63.73538
560.45        63.58357
560.88        63.21049
561.32        63.03345
561.75        63.01553
562.19        63.19757
562.63        63.17326
563.06        62.95138
563.50        62.90482
563.93        63.00532
564.37        63.04641
564.80        63.00294
565.24         62.9905
565.68        63.00232
566.11        63.03576
566.55        63.08941
566.98        63.05745
567.42        63.01418
567.85        63.00121
568.29        62.96246
568.72        63.10784
569.16        63.50985
569.60        62.93633
570.03        63.32249
570.47        63.41759
570.90        63.49184
571.34        63.22403
571.77        63.49014
572.21        63.49257
572.64        63.33591
573.08          63.586
573.51        63.19557
573.95        63.22272
574.38        63.46511
574.82        63.13986
