SpectraSmart Spectrum 2.9.0.0
--------- Device Information -----------
Spectrum Name :  反射率_0
Saving Time :  2024/04/30 00:06:44
Spectro-Module Model Name : SE2030-DUVN
Spectro-Module Serial Number : OS361AC55029948
Wavelength Start : 200
Wavelength End : 1025
Wavelength Unit : Wavelength(nm)
Spectrum Unit : Reflectance(%)
-----------Spectrum Setting ------------
Integration Time : 20ms
Average : 10
Boxcar : 0
Background removal :  enabled
linearity correction :  enabled
SC :  disabled
Intensity correction :  disabled
DWT denoise :  enabled
savitzky-golay :  disabled
FFT :  disabled
Running average :  disabled
Kalman :  disabled
High pass :  disabled
---------------BEGIN--------------------
Wavelength(nm)             Reflectance(%)
200.29               0
200.75        92.09095
201.21        84.72901
201.67        76.96086
202.13        72.06796
202.58        71.54896
203.04        74.29639
203.50        80.50506
203.96        90.38277
204.42        102.2973
204.88        114.9661
205.34        121.7554
205.80        115.1447
206.26        99.20872
206.72        81.03013
207.18          66.204
207.64        57.39694
208.10        53.15076
208.55        51.57433
209.01        51.27502
209.47        50.68618
209.93        49.48004
210.39         48.6082
210.85         47.9664
211.31        47.22377
211.77        46.22804
212.23        44.52339
212.69        42.81021
213.14        44.18922
213.60        48.43559
214.06        53.67015
214.52        57.51975
214.98        58.70237
215.44        57.81165
215.90        55.48776
216.36        52.99302
216.81        52.80722
217.27        56.34981
217.73        63.78508
218.19        74.58828
218.65        83.21061
219.11        84.93394
219.57        81.10696
220.02        75.65589
220.48        71.85979
220.94        69.15714
221.40        66.40289
221.86        62.21785
222.32        55.78181
222.77        49.25576
223.23        44.95523
223.69         42.6675
224.15        41.54221
224.61        41.03844
225.06        41.00587
225.52        41.60565
225.98        42.62439
226.44        43.74522
226.90         44.7619
227.36        45.57201
227.81        46.28049
228.27        47.00029
228.73        47.63686
229.19        48.28276
229.65         48.9623
230.10        49.50729
230.56        50.00889
231.02        50.14846
231.48        49.62893
231.93        48.46732
232.39        46.86986
232.85        45.36178
233.31        45.01319
233.77         46.1644
234.22         48.7044
234.68        51.80401
235.14        53.86388
235.60        54.42377
236.05        53.87143
236.51         53.4071
236.97        54.77848
237.43        58.60168
237.88        65.15609
238.34        73.64257
238.80        80.85747
239.26        83.99168
239.71         83.2907
240.17        80.65879
240.63        79.62123
241.08        81.64665
241.54        86.82481
242.00        96.09937
242.46        106.3776
242.91        112.0957
243.37        111.5209
243.83        108.4606
244.28        108.9142
244.74        114.0126
245.20        121.8001
245.66        131.1172
246.11        138.7144
246.57        141.9953
247.03        143.8026
247.48        140.4277
247.94        126.3175
248.40        107.9148
248.85        90.94656
249.31        81.69479
249.77        82.45817
250.22        92.99134
250.68          115.92
251.14        151.5862
251.59        173.3697
252.05        160.9996
252.51        134.7517
252.96        113.7763
253.42        104.9629
253.88        104.3257
254.33        108.1012
254.79        113.5797
255.25         115.066
255.70        111.7413
256.16        107.7251
256.62        104.9315
257.07        104.3589
257.53        106.1355
257.99        109.0266
258.44        111.3845
258.90        111.9758
259.35        110.2807
259.81        107.9473
260.27        105.8236
260.72        104.6538
261.18        104.6198
261.63        104.7251
262.09        104.5186
262.55        102.8563
263.00        99.78819
263.46        96.36382
263.91         92.9585
264.37        90.53278
264.83        88.93773
265.28        87.74669
265.74        86.89987
266.19        85.97353
266.65        84.99581
267.11        84.04726
267.56        83.02913
268.02        81.84106
268.47        80.40608
268.93        78.72026
269.38        76.98014
269.84        75.68475
270.30        74.92144
270.75        74.52837
271.21        74.14674
271.66        73.13752
272.12        71.42124
272.57          69.158
273.03        66.75883
273.48        64.76718
273.94        63.43458
274.39        62.51023
274.85        61.83379
275.31        61.01528
275.76        59.93365
276.22         58.7907
276.67         57.6328
277.13        56.69752
277.58         55.9301
278.04        55.29721
278.49        54.63784
278.95        53.91104
279.40        53.02471
279.86        52.12297
280.31        51.16592
280.77        50.27043
281.22        49.41306
281.68        48.63963
282.13        47.96643
282.59        47.52528
283.04         47.2631
283.50        47.16256
283.95        47.06712
284.41        46.79227
284.86        46.28906
285.32        45.69638
285.77        45.09585
286.22        44.71662
286.68        44.61884
287.13        44.67751
287.59        44.87353
288.04        45.09071
288.50        45.30555
288.95        45.48159
289.41        45.61914
289.86        45.64049
290.32        45.58356
290.77        45.47094
291.22        45.33524
291.68        45.22162
292.13         45.1606
292.59        45.21168
293.04        45.48087
293.50        46.17812
293.95        47.30548
294.40        48.80582
294.86        50.48898
295.31        52.06047
295.77        53.42206
296.22        54.61621
296.68        55.75971
297.13        57.01573
297.58        58.43692
298.04        59.93982
298.49         61.4257
298.95        62.77509
299.40        63.95096
299.85        65.02053
300.31        66.09776
300.76        67.25271
301.21        68.54549
301.67        69.97066
302.12        71.42887
302.58        72.92513
303.03        74.40091
303.48        75.84473
303.94        77.30412
304.39        79.01215
304.84        80.60258
305.30        82.35246
305.75        84.04681
306.20        85.62049
306.66        87.06702
307.11        88.34635
307.57        89.54346
308.02        90.63983
308.47        91.70199
308.93         92.7415
309.38        93.74362
309.83        94.77644
310.29        95.84828
310.74         96.9193
311.19        97.93084
311.65        98.77496
312.10        99.41215
312.55        99.89767
313.00        100.3439
313.46        100.9295
313.91        101.6745
314.36        102.5288
314.82        103.3829
315.27        104.0896
315.72        104.5839
316.18        104.9206
316.63         105.138
317.08        105.3095
317.53        105.4831
317.99        105.6688
318.44        105.8668
318.89        106.0973
319.35        106.3616
319.80        106.6494
320.25        107.0145
320.70        107.5367
321.16        108.1798
321.61        108.9607
322.06        109.6676
322.51        109.9784
322.97        109.8269
323.42        109.3193
323.87        108.7257
324.32        108.5025
324.78        108.7401
325.23        109.3813
325.68        110.1561
326.13        110.6014
326.59        110.5683
327.04        110.2333
327.49        109.8452
327.94        109.8596
328.39        110.3826
328.85        111.2161
329.30        112.1648
329.75        112.6809
330.20        112.6179
330.66        112.1461
331.11        111.5624
331.56        111.2595
332.01        111.3877
332.46        111.8336
332.92        112.4621
333.37        113.2051
333.82        113.9234
334.27        114.6377
334.72         115.315
335.17        115.8979
335.63        116.3338
336.08        116.6804
336.53        116.8605
336.98        116.8385
337.43        116.6464
337.88         116.326
338.34        116.0512
338.79        116.1076
339.24         116.544
339.69        117.2961
340.14        118.1546
340.59        118.7506
341.05        118.9881
341.50        118.9752
341.95        118.8695
342.40          118.95
342.85        119.2849
343.30        119.7509
343.75         120.264
344.20        120.6977
344.66        121.0159
345.11        121.2853
345.56        121.4536
346.01        121.4196
346.46        121.2067
346.91        120.8478
347.36        120.5684
347.81        120.7169
348.26        121.3259
348.72        122.2495
349.17         123.223
349.62        123.7257
350.07        123.6196
350.52        123.0898
350.97        122.3534
351.42        121.7429
351.87        121.3745
352.32        121.1405
352.77        121.0581
353.22         121.162
353.67        121.4016
354.13        121.7406
354.58        121.9966
355.03        121.8611
355.48        121.2628
355.93         120.289
356.38        119.0876
356.83        117.8961
357.28        116.8054
357.73        115.7769
358.18        114.8066
358.63        113.8795
359.08        112.9863
359.53        112.1457
359.98        111.3537
360.43        110.5872
360.88        109.8359
361.33        109.1015
361.78        108.3496
362.23        107.5343
362.68        106.6533
363.13        105.7181
363.58         104.802
364.03        104.0201
364.48         103.391
364.93        102.8781
365.38        102.3885
365.83         101.777
366.28         101.009
366.73        100.1234
367.18        99.20398
367.63        98.38112
368.08        97.67954
368.53        97.05717
368.98        96.43674
369.43        95.69031
369.88        94.80705
370.33        93.86263
370.78        92.93816
371.23        92.16339
371.68        91.57371
372.13        91.09746
372.58        90.73598
373.03        90.49275
373.48        90.31668
373.93        90.18558
374.38         89.9222
374.83        89.24954
375.28        88.15894
375.72        86.75942
376.17        85.37486
376.62        84.32605
377.07        83.68518
377.52        83.33804
377.97        83.18987
378.42         83.0831
378.87        82.93754
379.32        82.78683
379.77        82.57027
380.22        82.19235
380.67        81.63707
381.11        80.91353
381.56        80.10503
382.01         79.3875
382.46        78.82922
382.91        78.41127
383.36        78.06895
383.81        77.68578
384.26        77.23072
384.71        76.73578
385.15        76.25781
385.60        75.93709
386.05        75.76594
386.50        75.69097
386.95         75.6012
387.40        75.33496
387.85        74.87941
388.29        74.26713
388.74        73.70045
389.19        73.25907
389.64        72.95812
390.09        72.72819
390.54        72.55289
390.98        72.39828
391.43         72.2737
391.88        72.17837
392.33        72.00809
392.78        71.67636
393.23        71.19704
393.67        70.47758
394.12        69.72417
394.57        69.65446
395.02        69.28153
395.47        69.51614
395.91        69.65386
396.36        69.75196
396.81        69.66416
397.26        69.46455
397.71        69.19475
398.15        68.87241
398.60        68.60389
399.05        68.30933
399.50        68.00219
399.95        67.82918
400.39        67.52553
400.84         67.4632
401.29        67.48358
401.74        67.33949
402.18        67.00853
402.63        66.58919
403.08        66.23444
403.53        66.11146
403.97        66.23532
404.42        66.53896
404.87        66.83942
405.32         66.8203
405.76        66.41437
406.21         65.8352
406.66        65.23263
407.11        64.68098
407.55        64.39966
408.00        64.53987
408.45        65.01434
408.90        65.45111
409.34        65.66965
409.79        65.55009
410.24        65.22379
410.68        65.12041
411.13         65.2838
411.58         65.4483
412.03        65.53407
412.47        65.53895
412.92        65.41501
413.37        65.20696
413.81        64.92964
414.26         64.6748
414.71        64.43628
415.15         64.2048
415.60        64.00285
416.05        63.91333
416.49        63.95518
416.94        64.11858
417.39        64.29885
417.83        64.30553
418.28        64.11663
418.73        63.79039
419.17        63.49498
419.62        63.51167
420.07        63.86366
420.51        64.41924
420.96        65.01318
421.41        65.28825
421.85        65.14394
422.30        64.94711
422.74        64.70779
423.19        64.12814
423.64        63.42754
424.08        63.50929
424.53        64.26064
424.98        64.65977
425.42        64.63297
425.87        64.79871
426.31        65.11137
426.76        65.01289
427.21        64.45513
427.65        64.29645
428.10        64.46017
428.54        64.36343
428.99        64.03027
429.44         63.7662
429.88        63.67443
430.33        63.70658
430.77        63.84759
431.22        64.56949
431.66        65.55792
432.11        65.47044
432.56        64.43254
433.00        63.87253
433.45         64.1234
433.89        64.75856
434.34        65.19289
434.78        66.52806
435.23        64.96642
435.67        64.30239
436.12        63.82737
436.57         63.8848
437.01        64.32179
437.46        64.87731
437.90        65.06596
438.35        64.74856
438.79        65.78307
439.24        65.91541
439.68        65.77235
440.13        65.72514
440.57        65.84357
441.02        65.87586
441.46        65.77539
441.91        65.85563
442.35        66.05812
442.80         65.7599
443.24        66.22209
443.69        66.02076
444.13        65.62617
444.58         65.4446
445.02        65.45847
445.47        65.49576
445.91        65.52113
446.36        65.51898
446.80        65.43729
447.24        65.73773
447.69        65.61064
448.13        65.63953
448.58        65.60185
449.02        65.51083
449.47        65.42842
449.91        65.43204
450.36        65.55283
450.80        65.74172
451.25        65.93875
451.69        66.01656
452.13        65.95174
452.58         65.8063
453.02        65.63905
453.47        65.52534
453.91        65.47154
454.36        65.63966
454.80        65.69656
455.24        65.76923
455.69        65.73675
456.13        65.80663
456.58        66.04011
457.02        65.48746
457.46        65.73974
457.91        65.55299
458.35        65.39525
458.79        65.28909
459.24        65.27818
459.68        65.36324
460.13        65.50363
460.57        65.38112
461.01        65.45892
461.46        65.18828
461.90        64.83061
462.34         65.0345
462.79        65.59908
463.23         65.4753
463.68        64.73116
464.12        64.35764
464.56        64.40789
465.01        64.34282
465.45        64.11943
465.89        64.05882
466.34         64.1702
466.78        64.25641
467.22        64.47174
467.67         64.4547
468.11        64.26743
468.55        63.94674
468.99        63.59785
469.44        63.35207
469.88        63.24735
470.32        63.26278
470.77        63.33277
471.21        63.37187
471.65        63.33433
472.10        63.25845
472.54        63.17459
472.98        63.13836
473.42        63.15074
473.87        63.27432
474.31        63.41285
474.75        63.24777
475.20        62.88935
475.64        62.83418
476.08        63.04313
476.52        63.05284
476.97        62.83653
477.41        62.60746
477.85        62.48632
478.29        62.50097
478.74        62.72408
479.18        63.05131
479.62        62.08772
480.06        61.98756
480.50        62.35571
480.95        62.22934
481.39         62.5281
481.83        62.48364
482.27        62.95045
482.72        62.74475
483.16        62.64463
483.60        62.52979
484.04        62.61558
484.48        62.65522
484.93        62.48315
485.37        62.42207
485.81        62.40935
486.25        61.28609
486.69        62.36758
487.14        62.51271
487.58        61.69013
488.02        61.29544
488.46         62.1934
488.90        62.63948
489.34        61.60706
489.79        62.30404
490.23        61.71415
490.67        61.80268
491.11        61.72025
491.55         61.4157
491.99        60.99286
492.43        60.83344
492.88        60.99602
493.32         61.2895
493.76        61.60022
494.20        61.83483
494.64        61.93594
495.08        61.93728
495.52        61.87868
495.96        61.78658
496.41        61.67662
496.85        61.82311
497.29         61.5238
497.73        61.65715
498.17        61.32632
498.61        61.17564
499.05        61.03465
499.49        60.97515
499.93        60.94195
500.37        60.81527
500.82        60.67122
501.26        60.36185
501.70        60.62277
502.14        60.71371
502.58        60.81505
503.02        60.92364
503.46         61.0266
503.90        61.10859
504.34        61.15361
504.78        61.16193
505.22        61.12997
505.66        61.05433
506.10        60.95429
506.54        60.89972
506.98        60.90686
507.42        60.96406
507.86        60.76452
508.30        61.03656
508.74         60.5889
509.18        60.35698
509.62        60.10432
510.06        60.00949
510.50        60.09816
510.94        60.33696
511.38        60.62346
511.82        60.75817
512.26        60.69567
512.70        60.48262
513.14        60.22142
513.58        60.14234
514.02        60.29823
514.46        60.49291
514.90        60.57348
515.34        61.00533
515.78         60.6188
516.22        60.38196
516.66        60.08329
517.10        59.93889
517.54        59.98637
517.98        60.17707
518.42        60.41439
518.86        60.51311
519.30        60.43203
519.74        60.23192
520.18        60.00721
520.62        59.89885
521.06        59.94609
521.50        60.10857
521.93        60.31773
522.37        60.44432
522.81        60.45992
523.25        60.39417
523.69        60.32043
524.13        60.35187
524.57        60.50354
525.01        60.72899
525.45        60.92953
525.89        60.94881
526.32        60.75205
526.76        60.42483
527.20        60.06697
527.64        59.83684
528.08         59.7772
528.52        59.82433
528.96        59.93947
529.40        60.08762
529.83        60.21847
530.27        60.29454
530.71        60.30046
531.15        60.27053
531.59        60.20853
532.03        60.08362
532.46        59.92378
532.90        59.82083
533.34        59.78735
533.78          59.805
534.22        59.85096
534.66        59.88569
535.09        59.89044
535.53        59.88919
535.97        59.87889
536.41        59.86781
536.85         59.8569
537.28        59.83582
537.72        59.80283
538.16        59.75407
538.60        59.68898
539.04        59.61424
539.47        59.52081
539.91        59.44184
540.35         59.3696
540.79         59.3147
541.22        59.27417
541.66         59.2539
542.10        59.24982
542.54        59.25908
542.97        59.28857
543.41        59.36564
543.85         59.4793
544.29        59.63094
544.72        59.74493
545.16        59.73783
545.60         59.5962
546.04        59.32457
546.47         59.0381
546.91        59.01429
547.35        59.24932
547.79        59.48848
548.22        59.61937
548.66        59.78758
549.10        59.97182
549.53        59.88907
549.97        59.49416
550.41        59.94889
550.84        59.47929
551.28        59.41504
551.72        59.22899
552.15        59.44978
552.59        59.31317
553.03        59.45966
553.46        59.44976
553.90        59.48097
554.34        59.46976
554.77        59.45333
555.21        59.44844
555.65        59.34841
556.08        59.21389
556.52        59.33119
556.96        59.64128
557.39        59.77392
557.83        59.86777
558.27        59.82942
558.70        59.69778
559.14        59.69513
559.57        59.77942
560.01        59.92839
560.45        60.06413
560.88        59.82459
561.32        59.57826
561.75        59.45911
562.19        59.54987
562.63        59.44082
563.06        59.17658
563.50        59.18064
563.93         59.3912
564.37        59.49044
564.80          59.438
565.24        59.40351
565.68        59.38996
566.11        59.38418
566.55        59.39061
566.98         59.3213
567.42        59.26001
567.85        59.21941
568.29        59.20134
568.72        59.40011
569.16        59.89301
569.60        59.37445
570.03        59.63059
570.47        59.91123
570.90        59.83957
571.34        59.48048
571.77        59.81974
572.21        59.88482
572.64        59.99117
573.08          59.916
573.51        59.67134
573.95        59.86187
574.38        59.95595
574.82        59.66545
