SpectraSmart Spectrum 2.9.0.0
--------- Device Information -----------
Spectrum Name :  反射率_0
Saving Time :  2024/04/30 00:05:15
Spectro-Module Model Name : SE2030-DUVN
Spectro-Module Serial Number : OS361AC55029948
Wavelength Start : 200
Wavelength End : 1025
Wavelength Unit : Wavelength(nm)
Spectrum Unit : Reflectance(%)
-----------Spectrum Setting ------------
Integration Time : 20ms
Average : 10
Boxcar : 0
Background removal :  enabled
linearity correction :  enabled
SC :  disabled
Intensity correction :  disabled
DWT denoise :  enabled
savitzky-golay :  disabled
FFT :  disabled
Running average :  disabled
Kalman :  disabled
High pass :  disabled
---------------BEGIN--------------------
Wavelength(nm)             Reflectance(%)
200.29               0
200.75        78.94565
201.21         62.2559
201.67        44.05323
202.13        30.09936
202.58        23.36041
203.04        22.58023
203.50        28.39393
203.96        41.30079
204.42        59.34645
204.88        80.79208
205.34        97.16422
205.80        97.64773
206.26        85.30732
206.72        68.35294
207.18        53.19728
207.64        43.20512
208.10        37.23349
208.55        33.12258
209.01        30.68781
209.47        30.83423
209.93        33.16589
210.39        37.12298
210.85        40.43731
211.31        41.05074
211.77        38.78954
212.23        33.14529
212.69        25.39781
213.14        23.19907
213.60        29.24093
214.06        38.96491
214.52         46.9211
214.98        49.79488
215.44        48.45244
215.90        44.47908
216.36        39.61871
216.81        37.20141
217.27        39.06406
217.73        44.60904
218.19        53.91438
218.65        63.32825
219.11        68.29916
219.57        69.05477
220.02        66.71969
220.48        62.76483
220.94        56.79853
221.40        47.24022
221.86         34.7901
222.32        26.44871
222.77        26.29867
223.23        31.33764
223.69        35.89839
224.15        36.31017
224.61        32.94263
225.06        26.59148
225.52        20.35915
225.98        20.63121
226.44        27.52768
226.90        36.55959
227.36        43.51662
227.81        45.75174
228.27        43.86813
228.73        39.00443
229.19        33.05677
229.65        30.21824
230.10        31.51543
230.56        34.77187
231.02         37.8667
231.48        39.00786
231.93        38.12051
232.39        36.04424
232.85         33.4227
233.31         31.4347
233.77        30.60908
234.22        30.71192
234.68        31.35951
235.14        31.87909
235.60        32.09052
236.05        32.22786
236.51        32.88343
236.97        34.89832
237.43        38.62346
237.88        44.37235
238.34        51.48032
238.80        57.27275
239.26        59.41449
239.71        58.03934
240.17        54.81491
240.63        52.66901
241.08        52.53579
241.54        54.27964
242.00        58.17443
242.46         62.2208
242.91        63.81094
243.37        62.88808
243.83        62.07684
244.28        64.82958
244.74         71.8648
245.20        82.43358
245.66        95.28427
246.11        106.4947
246.57        113.0484
247.03        116.6854
247.48        115.2503
247.94        105.8835
248.40        93.32654
248.85        81.15491
249.31        73.84616
249.77        72.51714
250.22        76.59281
250.68        87.32263
251.14        104.3477
251.59        113.3009
252.05        104.9352
252.51        90.45849
252.96        79.72992
253.42        76.39725
253.88        78.07212
254.33        82.46963
254.79        87.59148
255.25        88.75624
255.70        85.46732
256.16        81.31069
256.62           77.77
257.07        75.46443
257.53        74.48911
257.99        73.96802
258.44        73.40681
258.90        73.01574
259.35        72.29637
259.81        71.72112
260.27        71.03509
260.72        70.02525
261.18        68.93425
261.63        67.49856
262.09        65.97543
262.55        64.32803
263.00        62.58452
263.46        61.03483
263.91         59.4774
264.37        58.00308
264.83        56.50794
265.28        54.93827
265.74        53.57455
266.19        52.60098
266.65         52.1058
267.11        51.92992
267.56         51.7765
268.02        51.23711
268.47        50.18935
268.93        48.75344
269.38        47.12578
269.84        45.78891
270.30        44.86896
270.75        44.22268
271.21        43.64986
271.66        42.79945
272.12        41.60815
272.57         40.1986
273.03        38.74789
273.48         37.4426
273.94        36.43007
274.39        35.60077
274.85        34.98812
275.31        34.55805
275.76        34.23955
276.22        34.04484
276.67         33.8414
277.13        33.53798
277.58        33.06604
278.04        32.50065
278.49        31.85095
278.95        31.23953
279.40         30.6543
279.86         30.1419
280.31        29.65977
280.77        29.26571
281.22        28.92381
281.68        28.66089
282.13        28.46233
282.59        28.35634
283.04        28.30927
283.50        28.30778
283.95        28.28012
284.41        28.13575
284.86        27.86071
285.32        27.54125
285.77        27.21522
286.22        27.01284
286.68        26.97133
287.13        27.00553
287.59        27.14073
288.04        27.35213
288.50        27.62481
288.95        27.92275
289.41        28.16886
289.86        28.20445
290.32        28.05069
290.77        27.77162
291.22        27.50701
291.68        27.46968
292.13        27.71847
292.59        28.23388
293.04        28.98983
293.50        29.97629
293.95        31.17069
294.40        32.58779
294.86        34.15643
295.31        35.77198
295.77        37.38639
296.22        38.98093
296.68        40.60556
297.13        42.32573
297.58        44.15261
298.04         46.0274
298.49        47.86152
298.95        49.53733
299.40        51.03234
299.85        52.41016
300.31        53.78911
300.76        55.26301
301.21        56.90263
301.67        58.70513
302.12        60.59411
302.58         62.5991
303.03        64.66415
303.48        66.72833
303.94        68.81123
304.39        71.19964
304.84        73.36542
305.30        75.70123
305.75         77.9285
306.20        79.94276
306.66        81.73473
307.11        83.28212
307.57        84.73165
308.02        86.17113
308.47        87.68096
308.93        89.23788
309.38        90.75993
309.83         92.2001
310.29        93.53726
310.74        94.77309
311.19        95.89399
311.65         96.8611
312.10        97.66415
312.55        98.34288
313.00          99.005
313.46        99.82403
313.91        100.8134
314.36        101.9213
314.82         103.038
315.27        104.0121
315.72         104.767
316.18        105.3506
316.63        105.7664
317.08         106.037
317.53        106.2113
317.99        106.3271
318.44        106.4436
318.89        106.6734
319.35        107.0437
319.80        107.5173
320.25        108.1163
320.70        108.8681
321.16        109.7051
321.61        110.6439
322.06        111.4596
322.51        111.8096
322.97        111.6291
323.42        111.0463
323.87        110.3289
324.32        109.9308
324.78        109.9621
325.23        110.3749
325.68        110.9969
326.13        111.5236
326.59        111.8266
327.04         112.028
327.49         112.211
327.94        112.5622
328.39         113.115
328.85        113.7335
329.30        114.3514
329.75        114.6601
330.20        114.5947
330.66        114.2511
331.11        113.8571
331.56        113.6906
332.01        113.8646
332.46         114.323
332.92        114.9372
333.37          115.64
333.82        116.3103
334.27        116.9675
334.72         117.635
335.17        118.3574
335.63        119.0962
336.08        119.8695
336.53        120.5249
336.98        120.8974
337.43         120.964
337.88        120.7912
338.34        120.5566
338.79         120.562
339.24        120.8826
339.69        121.4605
340.14        122.1459
340.59        122.6699
341.05        122.9653
341.50        123.1243
341.95        123.2614
342.40        123.5761
342.85        124.1105
343.30        124.7607
343.75        125.4471
344.20        126.0528
344.66        126.5455
345.11        126.9774
345.56        127.3037
346.01        127.4437
346.46        127.4159
346.91        127.2396
347.36        127.1245
347.81         127.395
348.26         128.083
348.72        129.0623
349.17        130.0698
349.62        130.5798
350.07        130.4685
350.52        129.9318
350.97        129.2382
351.42        128.7966
351.87        128.7311
352.32        128.9035
352.77        129.2643
353.22         129.739
353.67         130.239
354.13        130.7493
354.58        131.1165
355.03        131.0836
355.48        130.5995
355.93        129.7387
356.38        128.6413
356.83        127.5366
357.28         126.516
357.73        125.5478
358.18         124.651
358.63        123.8401
359.08         123.107
359.53        122.4609
359.98         121.849
360.43        121.1719
360.88        120.4064
361.33        119.5749
361.78        118.7103
362.23        117.8738
362.68         117.086
363.13        116.3271
363.58        115.5983
364.03        114.9004
364.48        114.2257
364.93        113.5746
365.38        112.9267
365.83        112.2508
366.28        111.5437
366.73        110.8146
367.18        110.0809
367.63        109.3703
368.08        108.6827
368.53         108.003
368.98        107.3267
369.43        106.6416
369.88        105.9579
370.33        105.3118
370.78        104.6829
371.23          104.04
371.68        103.3802
372.13        102.6784
372.58        102.0491
373.03        101.6782
373.48        101.5605
373.93        101.6215
374.38        101.5779
374.83        100.9753
375.28        99.76518
375.72        98.12045
376.17        96.47527
376.62        95.28954
377.07        94.66542
377.52        94.43717
377.97         94.4453
378.42        94.42704
378.87        94.27264
379.32         94.0575
379.77        93.75592
380.22        93.32315
380.67        92.75456
381.11        92.02843
381.56        91.22851
382.01         90.5364
382.46        90.01588
382.91        89.66026
383.36        89.35371
383.81        88.89855
384.26        88.26104
384.71        87.49726
385.15        86.77267
385.60        86.40383
386.05        86.40643
386.50        86.66697
386.95        86.92953
387.40        86.80473
387.85        86.23481
388.29        85.32694
388.74        84.43195
389.19        83.80655
389.64        83.50471
390.09        83.40184
390.54         83.3945
390.98        83.30425
391.43        83.11108
391.88        82.86431
392.33        82.54002
392.78        82.16918
393.23        81.78242
393.67        81.20931
394.12        80.58197
394.57        80.60841
395.02         80.1441
395.47        80.14137
395.91        80.20582
396.36         80.1926
396.81        80.06532
397.26        79.87826
397.71         79.6651
398.15        79.36826
398.60        79.09107
399.05        78.89008
399.50        78.70963
399.95        78.39848
400.39        77.77566
400.84        77.74197
401.29        78.11439
401.74        78.36452
402.18        78.28635
402.63        77.63422
403.08        76.69368
403.53        76.31667
403.97        76.56866
404.42        76.89693
404.87        77.13927
405.32        77.30161
405.76        77.22308
406.21        76.89587
406.66        76.37184
407.11        75.53992
407.55        74.74127
408.00         74.7931
408.45        75.59092
408.90        76.25344
409.34        76.48795
409.79         76.2268
410.24        75.70355
410.68        75.62028
411.13        76.03783
411.58        76.48584
412.03        76.78722
412.47        76.88323
412.92        76.68815
413.37        76.27328
413.81        75.72618
414.26         75.2597
414.71        74.90005
415.15         74.6121
415.60        74.41612
416.05        74.39362
416.49        74.55066
416.94        74.87254
417.39        75.21809
417.83        75.33315
418.28        75.17519
418.73        74.81041
419.17        74.42323
419.62        74.33192
420.07        74.57709
420.51        75.02343
420.96        75.51749
421.41        75.71386
421.85        75.51186
422.30        75.28242
422.74        75.02573
423.19        74.44852
423.64        73.75795
424.08        73.84454
424.53        74.57759
424.98        74.94385
425.42        74.83318
425.87        74.90892
426.31        75.15569
426.76        74.98748
427.21        74.39211
427.65        74.49099
428.10         75.0556
428.54        75.04779
428.99        74.50443
429.44        73.92367
429.88        73.53742
430.33        73.67963
430.77        74.18016
431.22        74.79641
431.66        75.30222
432.11        75.13428
432.56        74.43804
433.00        74.16425
433.45        74.53242
433.89        75.02378
434.34        75.07251
434.78         76.4817
435.23        74.54241
435.67        73.90211
436.12        73.50044
436.57        73.69077
437.01        74.32867
437.46        74.69646
437.90        74.77068
438.35        75.07522
438.79        75.56281
439.24        75.78826
439.68        75.74567
440.13        75.71075
440.57        75.75797
441.02        75.79005
441.46        75.77327
441.91        76.05959
442.35        76.21027
442.80        76.06256
443.24        76.41092
443.69        76.07375
444.13        75.48671
444.58         75.2036
445.02        75.20773
445.47        75.32375
445.91         75.4707
446.36        75.44766
446.80        75.16154
447.24        75.57304
447.69        75.13414
448.13        75.15656
448.58        75.20354
449.02        75.27267
449.47        75.37426
449.91        75.51522
450.36        75.71456
450.80        75.93639
451.25        76.15013
451.69        76.26665
452.13        76.27407
452.58           76.22
453.02        76.14533
453.47        76.09959
453.91        76.07391
454.36        76.25329
454.80        76.24078
455.24        76.26157
455.69        76.19978
456.13        76.15285
456.58        76.11345
457.02        75.80074
457.46        75.36229
457.91        75.22523
458.35        75.33274
458.79        75.36215
459.24        75.34277
459.68        75.38412
460.13        75.46392
460.57        75.63835
461.01         75.8328
461.46        75.49506
461.90        75.37685
462.34        75.63224
462.79        75.66249
463.23        75.26951
463.68        74.42887
464.12        74.16432
464.56        74.40852
465.01        74.34337
465.45        73.98547
465.89        73.90961
466.34         74.0593
466.78        74.67946
467.22        74.53117
467.67        74.53835
468.11        74.36457
468.55        74.00444
468.99        73.56969
469.44        73.24493
469.88         73.0915
470.32        73.08074
470.77        73.14022
471.21        73.15982
471.65        73.09344
472.10        72.99536
472.54        72.90824
472.98        72.92539
473.42        73.04861
473.87        73.27181
474.31        73.48624
474.75        73.46129
475.20        73.22132
475.64        73.08848
476.08        73.12707
476.52        72.89238
476.97         72.3373
477.41         72.5382
477.85        72.47368
478.29        71.67617
478.74        72.83237
479.18        72.67672
479.62        72.24102
480.06        72.05936
480.50        72.16331
480.95        72.47935
481.39        72.75252
481.83        72.27415
482.27        72.88325
482.72        72.72375
483.16        72.79333
483.60        72.80927
484.04        72.95097
484.48        73.18025
484.93         73.2005
485.37        72.94901
485.81        72.14716
486.25        70.56767
486.69        72.03487
487.14        72.02538
487.58         71.4614
488.02        71.79426
488.46        72.47895
488.90         72.5349
489.34        71.89303
489.79        72.68119
490.23         71.9754
490.67        72.09941
491.11        72.12026
491.55        71.86967
491.99        71.42283
492.43        71.23354
492.88        71.35126
493.32        71.53014
493.76        71.71679
494.20        71.91515
494.64        72.06601
495.08        72.27882
495.52        72.49945
495.96         72.2974
496.41        71.74587
496.85        72.01966
497.29        71.81245
497.73        71.99022
498.17        71.40041
498.61        71.22047
499.05        71.24584
499.49        71.36883
499.93        71.49771
500.37        71.40011
500.82        71.14873
501.26        71.03733
501.70        71.24204
502.14        71.39046
502.58        71.47968
503.02        71.54471
503.46        71.57458
503.90        71.55652
504.34        71.51859
504.78        71.52099
505.22         71.5737
505.66        71.63827
506.10         71.6832
506.54        71.73969
506.98        71.81194
507.42        71.76033
507.86        71.50763
508.30        71.73833
508.74        71.14938
509.18        70.82304
509.62        70.49962
510.06        70.41438
510.50         70.5924
510.94        70.98547
511.38        71.43853
511.82        71.65611
512.26        71.57164
512.70        71.25646
513.14        70.84517
513.58        70.64934
514.02        70.75109
514.46        70.82433
514.90        70.91454
515.34        71.39246
515.78        71.08957
516.22        70.99801
516.66        70.84522
517.10         70.7685
517.54        70.78642
517.98        70.87515
518.42        70.97588
518.86        70.96869
519.30        70.83569
519.74        70.62007
520.18        70.40794
520.62        70.32584
521.06        70.40484
521.50        70.61201
521.93         70.8688
522.37        71.02209
522.81        71.04104
523.25        70.95953
523.69        70.86462
524.13         70.8949
524.57        71.07021
525.01        71.33241
525.45        71.57706
525.89        71.63851
526.32        71.47485
526.76        71.17799
527.20        70.83339
527.64        70.58836
528.08        70.48827
528.52        70.44627
528.96        70.45436
529.40        70.59662
529.83        70.79847
530.27        70.85519
530.71        70.76194
531.15        70.70473
531.59        70.69081
532.03        70.60159
532.46        70.45151
532.90        70.35646
533.34        70.32526
533.78        70.33225
534.22        70.36639
534.66        70.40743
535.09        70.43886
535.53        70.48219
535.97        70.51878
536.41        70.53255
536.85         70.5194
537.28        70.47626
537.72        70.41791
538.16        70.36408
538.60        70.31978
539.04        70.28373
539.47        70.23004
539.91        70.17551
540.35          70.104
540.79        70.03163
541.22        69.96752
541.66         69.9369
542.10        69.94163
542.54        69.97929
542.97        70.03687
543.41        70.11501
543.85        70.19627
544.29        70.28995
544.72        70.35436
545.16          70.355
545.60        70.28349
546.04        70.14842
546.47        70.00755
546.91        70.00497
547.35        70.14124
547.79        70.28653
548.22        70.36129
548.66        70.50476
549.10        70.70956
549.53        70.68679
549.97        70.33076
550.41        70.90585
550.84        70.29766
551.28        70.08614
551.72        69.70042
552.15        69.92333
552.59        69.86596
553.03        70.00927
553.46        70.06197
553.90        70.16113
554.34        70.27684
554.77        70.27888
555.21        70.21381
555.65        70.28161
556.08        70.42733
556.52        70.40723
556.96        70.24536
557.39        70.19985
557.83        70.30072
558.27        70.41946
558.70        70.53772
559.14        70.61666
559.57        70.61554
560.01        70.70511
560.45        70.84914
560.88        70.56659
561.32        70.30405
561.75        70.27599
562.19        70.51779
562.63        70.38078
563.06         69.9213
563.50        69.76073
563.93        69.90442
564.37         69.9284
564.80        70.09343
565.24        70.05986
565.68        69.94356
566.11        69.95161
566.55        70.08753
566.98        70.08822
567.42        70.03695
567.85        70.01851
568.29        70.02585
568.72        70.23816
569.16        70.75339
569.60         70.0766
570.03        70.33745
570.47        70.57533
570.90        70.54287
571.34        70.06789
571.77        70.46787
572.21        70.55456
572.64        70.70229
573.08        70.56607
573.51        70.21789
573.95        70.15932
574.38        70.76833
574.82         70.1284
