SpectraSmart Spectrum 2.9.0.0
--------- Device Information -----------
Spectrum Name :  反射率_0
Saving Time :  2024/04/30 00:04:28
Spectro-Module Model Name : SE2030-DUVN
Spectro-Module Serial Number : OS361AC55029948
Wavelength Start : 200
Wavelength End : 1025
Wavelength Unit : Wavelength(nm)
Spectrum Unit : Reflectance(%)
-----------Spectrum Setting ------------
Integration Time : 20ms
Average : 10
Boxcar : 0
Background removal :  enabled
linearity correction :  enabled
SC :  disabled
Intensity correction :  disabled
DWT denoise :  enabled
savitzky-golay :  disabled
FFT :  disabled
Running average :  disabled
Kalman :  disabled
High pass :  disabled
---------------BEGIN--------------------
Wavelength(nm)             Reflectance(%)
200.29               0
200.75        65.23724
201.21        51.83233
201.67        37.15593
202.13        24.74194
202.58        16.45215
203.04        11.26529
203.50        11.45509
203.96        21.23769
204.42        40.16459
204.88        65.68549
205.34        86.06106
205.80        85.57377
206.26        68.49921
206.72        46.68963
207.18        28.40013
207.64         18.2269
208.10        14.68318
208.55         14.3936
209.01        17.65095
209.47        24.97314
209.93        33.93348
210.39        43.29504
210.85        49.47575
211.31        49.38317
211.77        42.82209
212.23        28.44499
212.69        8.399712
213.14       -1.341223
213.60        7.806959
214.06        26.92128
214.52        44.47263
214.98        53.35641
215.44        54.91014
215.90        51.93254
216.36        47.54346
216.81        47.38709
217.27        54.32579
217.73        68.29503
218.19        86.71082
218.65        96.72215
219.11          91.134
219.57        76.45188
220.02        62.65382
220.48        55.85312
220.94        54.79881
221.40        57.50303
221.86        61.59171
222.32        60.57987
222.77         53.5724
223.23        46.17177
223.69        40.77843
224.15        37.92802
224.61        36.90525
225.06        36.73277
225.52        37.77075
225.98        40.15234
226.44        43.01562
226.90        45.73685
227.36        47.52333
227.81        47.93525
228.27        47.19761
228.73        45.34331
229.19        43.04305
229.65        41.87265
230.10        42.20327
230.56        43.42626
231.02        44.40565
231.48        44.06341
231.93        42.36167
232.39        39.74845
232.85        37.02938
233.31         35.7967
233.77        36.54864
234.22        38.92828
234.68        41.86934
235.14        43.36502
235.60         42.8852
236.05        41.13413
236.51        39.36955
236.97        39.25188
237.43        41.29327
237.88        45.43856
238.34        51.31911
238.80        57.23065
239.26         61.2457
239.71        63.33906
240.17        63.77642
240.63        63.83146
241.08          64.228
241.54        64.54279
242.00        65.27985
242.46        67.82524
242.91        72.95598
243.37        79.26634
243.83         85.4435
244.28        91.53007
244.74        97.99674
245.20        104.6113
245.66        110.3222
246.11        112.4932
246.57         109.552
247.03        102.9826
247.48        92.82058
247.94        81.19818
248.40        72.65955
248.85        67.67284
249.31        66.66936
249.77        69.10389
250.22         75.1269
250.68        86.42228
251.14        103.9581
251.59        116.8491
252.05        114.4874
252.51        104.4075
252.96        94.94453
253.42        89.75404
253.88        87.15172
254.33        85.48817
254.79        84.48043
255.25        83.47668
255.70        82.23647
256.16        81.48066
256.62        81.06736
257.07        80.77302
257.53          80.842
257.99        80.89566
258.44        80.12697
258.90        78.39714
259.35        75.67905
259.81        73.00017
260.27        70.76875
260.72        69.30795
261.18        68.66661
261.63        68.24168
262.09        67.83064
262.55        66.81236
263.00        65.16386
263.46        63.42115
263.91        61.67429
264.37        60.37119
264.83        59.41363
265.28        58.58487
265.74        57.93272
266.19        57.28857
266.65        56.68567
267.11        56.10262
267.56        55.46078
268.02        54.65483
268.47        53.62167
268.93        52.39721
269.38        51.02861
269.84        49.73946
270.30        48.61306
270.75        47.63453
271.21        46.76301
271.66        45.85867
272.12         44.8912
272.57        43.86214
273.03          42.871
273.48        41.98586
273.94         41.2791
274.39        40.65499
274.85        40.07104
275.31        39.37464
275.76        38.52367
276.22        37.61576
276.67        36.68715
277.13        35.90147
277.58         35.2385
278.04        34.70055
278.49        34.19082
278.95          33.679
279.40        33.10424
279.86         32.5596
280.31        32.02607
280.77        31.60046
281.22         31.2538
281.68        30.99209
282.13        30.78152
282.59         30.6415
283.04        30.52998
283.50        30.43379
283.95        30.30052
284.41        30.07223
284.86        29.73521
285.32        29.37119
285.77        28.96938
286.22        28.59082
286.68        28.27335
287.13        27.96537
287.59        27.77063
288.04        27.78162
288.50        28.00899
288.95        28.37883
289.41        28.74401
289.86        28.83975
290.32        28.65922
290.77         28.2898
291.22         27.9103
291.68         27.8025
292.13        28.02795
292.59        28.51858
293.04        29.20161
293.50        30.00367
293.95        30.88564
294.40         31.8952
294.86        32.96725
295.31        34.00578
295.77        34.99257
296.22        35.92618
296.68        36.92424
297.13        38.15672
297.58        39.64889
298.04        41.30262
298.49        42.96396
298.95         44.4016
299.40        45.55976
299.85        46.53619
300.31        47.44772
300.76          48.399
301.21        49.47756
301.67        50.67184
302.12         51.9769
302.58        53.52919
303.03        55.29241
303.48        57.15491
303.94        59.02644
304.39        61.13967
304.84        62.76436
305.30        64.48914
305.75        66.10976
306.20        67.71371
306.66        69.32632
307.11        70.87525
307.57        72.39175
308.02        73.81009
308.47         75.1734
308.93        76.51633
309.38        77.84044
309.83        79.21814
310.29         80.6498
310.74        82.08145
311.19        83.44807
311.65        84.63924
312.10        85.62254
312.55        86.46429
313.00        87.25499
313.46        88.13857
313.91         89.1392
314.36        90.21207
314.82        91.32046
315.27         92.4338
315.72         93.4901
316.18         94.4863
316.63        95.33276
317.08        95.90127
317.53        96.19941
317.99        96.31503
318.44        96.34605
318.89         96.4689
319.35        96.74599
319.80        97.12254
320.25        97.66508
320.70        98.47186
321.16        99.48821
321.61        100.7211
322.06        101.8649
322.51         102.425
322.97         102.298
323.42        101.6454
323.87        100.8316
324.32        100.4721
324.78        100.7126
325.23         101.443
325.68        102.4004
326.13        103.1235
326.59        103.4365
327.04        103.5123
327.49        103.4911
327.94        103.6475
328.39        104.0511
328.85        104.5422
329.30        105.0639
329.75        105.3391
330.20        105.3091
330.66        105.0861
331.11        104.8338
331.56        104.7244
332.01        104.8462
332.46        105.1486
332.92        105.6111
333.37        106.3484
333.82        107.2773
334.27        108.3569
334.72        109.4316
335.17        110.2443
335.63        110.6955
336.08        110.9095
336.53        110.9377
336.98        110.9541
337.43        111.0475
337.88        111.1827
338.34        111.4386
338.79        111.9567
339.24        112.7334
339.69        113.7436
340.14          114.79
340.59        115.5226
341.05         115.858
341.50        115.8898
341.95        115.7944
342.40        115.8917
342.85        116.2575
343.30          116.76
343.75        117.3082
344.20        117.7541
344.66        118.0599
345.11        118.3191
345.56        118.4625
346.01        118.3595
346.46        118.0452
346.91        117.5671
347.36        117.2347
347.81        117.5246
348.26        118.4836
348.72        119.9227
349.17        121.4579
349.62          122.36
350.07        122.4309
350.52        121.9167
350.97        121.1354
351.42        120.5812
351.87        120.4187
352.32         120.489
352.77        120.7655
353.22        121.2151
353.67        121.7535
354.13        122.3601
354.58        122.8557
355.03        122.9298
355.48        122.5128
355.93        121.6952
356.38         120.606
356.83        119.4623
357.28        118.3646
357.73        117.2854
358.18        116.2977
358.63        115.5017
359.08        114.9009
359.53        114.4781
359.98        114.1119
360.43          113.59
360.88        112.8645
361.33        111.9973
361.78         111.075
362.23        110.2456
362.68        109.5532
363.13         108.943
363.58        108.3979
364.03        107.8924
364.48        107.4009
364.93        106.9308
365.38        106.4319
365.83        105.8237
366.28        105.0972
366.73        104.2733
367.18        103.4211
367.63        102.6512
368.08        101.9886
368.53        101.4084
368.98        100.8625
369.43        100.2612
369.88        99.59911
370.33        98.93406
370.78        98.30566
371.23        97.78024
371.68        97.36642
372.13        96.99198
372.58        96.68526
373.03        96.50099
373.48        96.39893
373.93        96.34727
374.38        96.12173
374.83        95.36678
375.28        94.08001
375.72        92.42355
376.17        90.81543
376.62        89.69887
377.07        89.16509
377.52        89.04527
377.97        89.19437
378.42        89.36493
378.87        89.43121
379.32        89.45117
379.77        89.32517
380.22        88.90551
380.67        88.18453
381.11        87.18333
381.56        86.09886
382.01        85.29845
382.46        84.89314
382.91         84.8186
383.36        84.86416
383.81        84.68616
384.26        84.20462
384.71        83.50911
385.15         82.8035
385.60        82.46442
386.05         82.5242
386.50        82.84636
386.95        83.14314
387.40          82.981
387.85        82.30761
388.29        81.26919
388.74        80.26211
389.19        79.61058
389.64        79.37611
390.09        79.40253
390.54        79.55856
390.98        79.61579
391.43         79.5282
391.88          79.364
392.33        79.07642
392.78        78.66612
393.23        78.17429
393.67        77.44084
394.12        76.66998
394.57        76.67092
395.02        76.35998
395.47        76.56634
395.91        76.83184
396.36          76.907
396.81        76.72459
397.26        76.37565
397.71        75.97098
398.15        75.56396
398.60         75.2703
399.05        75.14391
399.50        75.11277
399.95        74.85585
400.39        74.23237
400.84        74.50988
401.29        75.38551
401.74        75.57191
402.18        74.95095
402.63        74.19362
403.08        73.59361
403.53        73.29743
403.97        73.36228
404.42         73.7043
404.87        74.11599
405.32        74.21342
405.76        73.90056
406.21        73.50018
406.66        73.05977
407.11        72.36921
407.55        71.69659
408.00        71.58102
408.45        72.01625
408.90        72.73163
409.34        73.38553
409.79         73.2509
410.24        72.53683
410.68        72.36993
411.13        72.81647
411.58        73.17213
412.03         73.2948
412.47        73.30923
412.92        73.15702
413.37        72.85186
413.81        72.45721
414.26        72.14806
414.71        71.93346
415.15        71.78967
415.60         71.7114
416.05        71.73166
416.49        71.84659
416.94        72.05101
417.39        72.24722
417.83        72.25388
418.28        72.05383
418.73        71.70628
419.17        71.35683
419.62        71.26492
420.07        71.45637
420.51        71.78609
420.96        72.16239
421.41        72.37841
421.85        72.31308
422.30        72.22412
422.74        72.05351
423.19        71.41891
423.64        70.56753
424.08        70.59457
424.53        71.41135
424.98        71.84052
425.42        71.77083
425.87        72.08074
426.31        72.65582
426.76        72.48515
427.21        71.62151
427.65        71.66149
428.10        72.40723
428.54        72.49097
428.99        71.90655
429.44         71.3595
429.88        71.04261
430.33        70.95929
430.77        71.07447
431.22        71.72871
431.66        72.62856
432.11        72.47044
432.56        71.39344
433.00        71.15479
433.45        72.05054
433.89         72.5575
434.34        72.52544
434.78        74.52671
435.23        72.24223
435.67         71.4772
436.12        70.78941
436.57        70.90777
437.01         71.6087
437.46        72.26294
437.90        71.98261
438.35        72.22595
438.79        72.79103
439.24        72.98705
439.68        72.85748
440.13        72.84463
440.57        73.00929
441.02        73.12537
441.46        73.15391
441.91        73.43121
442.35        73.60199
442.80        73.58875
443.24        73.34248
443.69        73.19045
444.13        73.14098
444.58        73.03544
445.02        72.85027
445.47        72.74062
445.91        72.72012
446.36        72.74335
446.80        72.78284
447.24        72.93433
447.69        73.10387
448.13        73.13881
448.58        73.07429
449.02        73.13161
449.47        73.31077
449.91        73.39006
450.36         73.3757
450.80        73.36458
451.25        73.39146
451.69        73.41867
452.13        73.45679
452.58        73.55262
453.02        73.64132
453.47        73.62228
453.91         73.4631
454.36        73.31803
454.80         72.9757
455.24        73.03718
455.69        73.33385
456.13        73.60638
456.58        73.79582
457.02        73.29177
457.46        73.12466
457.91        72.90633
458.35        72.89719
458.79        72.82101
459.24        72.71028
459.68        72.76926
460.13        73.00161
460.57        72.92254
461.01        73.01962
461.46        72.94921
461.90        72.86091
462.34        72.67471
462.79        72.41566
463.23        72.34524
463.68        72.37672
464.12        72.23031
464.56        71.94063
465.01        71.49792
465.45        71.04395
465.89        71.27467
466.34        72.01891
466.78        72.20684
467.22        72.01237
467.67        71.75208
468.11        71.58595
468.55        71.26511
468.99        70.87363
469.44        70.56013
469.88        70.36603
470.32        70.34261
470.77        70.43149
471.21         70.4952
471.65        70.48297
472.10        70.45406
472.54        70.43417
472.98        70.46867
473.42        70.54874
473.87        70.73226
474.31        70.91222
474.75        70.73637
475.20         70.2859
475.64        70.18513
476.08        70.43718
476.52        70.25008
476.97        69.53516
477.41         69.9328
477.85        69.32262
478.29        69.16119
478.74         69.8678
479.18        70.12225
479.62        69.45243
480.06         69.3524
480.50        69.62614
480.95        69.43006
481.39        69.93038
481.83        69.20789
482.27        70.49013
482.72        70.09017
483.16          69.971
483.60        69.85089
484.04        70.06726
484.48        70.41602
484.93        70.61674
485.37        70.14748
485.81        69.52238
486.25        68.48923
486.69        70.23648
487.14        70.14175
487.58         69.3839
488.02        68.66782
488.46        70.18513
488.90        70.09152
489.34        68.87784
489.79        70.00581
490.23        69.06853
490.67        69.27594
491.11        69.24503
491.55        69.06802
491.99        68.77474
492.43        68.65269
492.88        68.75507
493.32        68.90208
493.76        69.05897
494.20        69.23433
494.64        69.39443
495.08        69.59483
495.52        69.76299
495.96        69.62547
496.41        69.28589
496.85        69.18004
497.29        69.22317
497.73        69.34579
498.17        68.76058
498.61        68.50589
499.05        68.44777
499.49        68.48569
499.93        68.50578
500.37        68.57884
500.82        68.80368
501.26        68.20724
501.70        68.55112
502.14        69.08208
502.58        68.78296
503.02        68.91245
503.46        69.02238
503.90        69.10982
504.34        69.13095
504.78        69.10976
505.22          69.047
505.66        68.92385
506.10        68.78648
506.54        68.72062
506.98        68.69081
507.42        68.91794
507.86        68.38384
508.30        68.65914
508.74        68.21223
509.18        68.00577
509.62        67.76785
510.06        67.75263
510.50        67.98606
510.94        68.39728
511.38        68.84629
511.82        69.06564
512.26        68.99031
512.70        68.69887
513.14        68.32342
513.58        68.08803
514.02        68.05685
514.46        68.13267
514.90        68.22833
515.34        68.39246
515.78        68.28713
516.22         68.1946
516.66        68.08274
517.10        68.03879
517.54        68.07848
517.98        68.17493
518.42        68.26585
518.86        68.25053
519.30        68.11233
519.74        67.88701
520.18        67.66238
520.62        67.56859
521.06        67.63741
521.50        67.83867
521.93        68.08654
522.37        68.21582
522.81        68.19468
523.25        68.06113
523.69        67.92094
524.13        67.93938
524.57        68.14217
525.01        68.46758
525.45        68.78334
525.89        68.87779
526.32        68.69667
526.76        68.33983
527.20        67.93585
527.64        67.68449
528.08         67.6384
528.52        67.73547
528.96        67.90237
529.40        68.02235
529.83        68.05186
530.27        68.03727
530.71        67.99949
531.15        67.97498
531.59        67.97443
532.03        67.97578
532.46        67.96093
532.90        67.93687
533.34        67.89689
533.78        67.85186
534.22         67.8061
534.66        67.76131
535.09        67.71478
535.53        67.68084
535.97        67.65781
536.41        67.65841
536.85        67.68071
537.28        67.71265
537.72        67.74137
538.16        67.74139
538.60        67.70409
539.04        67.63832
539.47        67.53507
539.91        67.43661
540.35        67.33734
540.79        67.24837
541.22        67.17194
541.66        67.12366
542.10        67.10291
542.54        67.10835
542.97        67.14397
543.41        67.23348
543.85        67.36298
544.29        67.53567
544.72        67.67326
545.16        67.69246
545.60        67.57799
546.04        67.32829
546.47         67.0602
546.91        67.06738
547.35        67.34153
547.79        67.60113
548.22        67.72859
548.66         67.9089
549.10        68.12068
549.53        68.02697
549.97         67.5819
550.41         68.1161
550.84        67.59556
551.28        67.55299
551.72        67.37754
552.15        67.53844
552.59        67.17014
553.03         67.4782
553.46        67.30354
553.90        67.39146
554.34        67.45271
554.77        67.53623
555.21        67.61839
555.65        67.61446
556.08        67.53833
556.52        67.47849
556.96        67.46347
557.39        67.55187
557.83        67.72758
558.27        67.84674
558.70        67.89884
559.14        67.95047
559.57         67.9668
560.01        68.00151
560.45        68.04392
560.88        67.77236
561.32        67.60697
561.75         67.6201
562.19        67.85243
562.63        67.80806
563.06        67.51189
563.50        67.42279
563.93        67.52081
564.37        67.55753
564.80        67.50954
565.24        67.52815
565.68         67.5849
566.11        67.62695
566.55        67.64767
566.98        67.54939
567.42        67.44795
567.85        67.42239
568.29        67.47968
568.72        67.72396
569.16        68.23465
569.60        67.67592
570.03        68.11267
570.47        68.13642
570.90        68.38816
571.34        67.78693
571.77        68.19772
572.21        68.22036
572.64        68.32834
573.08        68.13908
573.51        67.78291
573.95        67.94373
574.38        68.57443
574.82        68.48172
