SpectraSmart Spectrum 2.9.0.0
--------- Device Information -----------
Spectrum Name :  反射率_0
Saving Time :  2024/04/30 00:30:54
Spectro-Module Model Name : SE2030-DUVN
Spectro-Module Serial Number : OS361AC55029948
Wavelength Start : 200
Wavelength End : 1025
Wavelength Unit : Wavelength(nm)
Spectrum Unit : Reflectance(%)
-----------Spectrum Setting ------------
Integration Time : 20ms
Average : 10
Boxcar : 0
Background removal :  enabled
linearity correction :  enabled
SC :  disabled
Intensity correction :  disabled
DWT denoise :  enabled
savitzky-golay :  disabled
FFT :  disabled
Running average :  disabled
Kalman :  disabled
High pass :  disabled
---------------BEGIN--------------------
Wavelength(nm)             Reflectance(%)
200.29               0
200.75        61.65125
201.21        60.15477
201.67        59.40897
202.13        57.12338
202.58        52.56568
203.04        45.32146
203.50        39.38282
203.96        43.94813
204.42        61.21073
204.88        87.40939
205.34        109.2906
205.80          109.04
206.26        90.60451
206.72        66.83282
207.18        47.24197
207.64        37.11471
208.10        34.81317
208.55        37.07648
209.01         42.3247
209.47        47.56403
209.93        50.79105
210.39        53.08418
210.85        54.22068
211.31        54.03746
211.77        52.58298
212.23        48.85176
212.69        43.66901
213.14        42.39157
213.60        46.51314
214.06        53.51452
214.52        58.88966
214.98        59.43133
215.44        55.89512
215.90        49.58847
216.36        43.02301
216.81        41.24555
217.27         46.9488
217.73        60.16016
218.19        80.09563
218.65        96.85612
219.11        101.6108
219.57        96.76842
220.02        88.48677
220.48        81.92366
220.94        76.43239
221.40        69.65514
221.86        60.92629
222.32        52.96365
222.77        48.81985
223.23        48.70642
223.69        49.36827
224.15        48.03012
224.61        44.52808
225.06        39.20296
225.52        34.02734
225.98        33.34815
226.44        37.46389
226.90        43.30165
227.36        48.08098
227.81        50.11828
228.27        49.76965
228.73        47.69308
229.19        44.84529
229.65        43.28891
230.10        43.59938
230.56        44.89145
231.02        46.01616
231.48        45.95413
231.93        44.64703
232.39        42.57327
232.85        40.37374
233.31        39.30083
233.77        39.74486
234.22         41.3914
234.68        43.39402
235.14        44.22192
235.60         43.4788
236.05        41.72963
236.51        39.93195
236.97        39.25425
237.43        40.02017
237.88        42.16197
238.34         45.3869
238.80        48.79903
239.26        51.35217
239.71        53.14687
240.17        54.11269
240.63        54.87339
241.08        55.90639
241.54        56.91566
242.00        58.81214
242.46        63.76362
242.91        72.36637
243.37        82.33822
243.83        89.73209
244.28        92.44302
244.74        90.78896
245.20        84.16816
245.66        75.27634
246.11        71.25391
246.57         75.6529
247.03        88.22352
247.48        102.3109
247.94        102.4334
248.40        89.54564
248.85        73.48814
249.31        62.42902
249.77        59.64511
250.22        64.54366
250.68        77.06098
251.14        98.12569
251.59        114.3693
252.05        112.1576
252.51        100.9387
252.96         89.7731
253.42        82.06284
253.88        75.98114
254.33        69.53595
254.79         63.5724
255.25        60.44061
255.70        60.32267
256.16        62.05706
256.62        63.73765
257.07        63.98063
257.53        63.25092
257.99        61.83268
258.44        59.92531
258.90        58.59399
259.35        57.61698
259.81        56.96963
260.27        56.31586
260.72        55.40206
261.18        54.37288
261.63        53.10225
262.09        51.74617
262.55        50.20538
263.00        48.54022
263.46        47.00975
263.91        45.54198
264.37        44.29514
264.83        43.17725
265.28        42.08202
265.74         41.1748
266.19        40.50496
266.65        40.11838
267.11        39.93476
267.56        39.73055
268.02        39.17564
268.47        38.19653
268.93        36.89577
269.38        35.50009
269.84        34.52723
270.30        34.09251
270.75        34.04017
271.21        34.08765
271.66         33.8016
272.12        33.08412
272.57        32.04626
273.03        30.91714
273.48        29.97824
273.94        29.36753
274.39        28.95931
274.85        28.63587
275.31        28.17339
275.76        27.52095
276.22        26.78113
276.67        26.07485
277.13         25.6454
277.58        25.46979
278.04        25.47813
278.49        25.44433
278.95        25.13139
279.40        24.47824
279.86        23.65917
280.31        22.81557
280.77        22.26002
281.22         22.0206
281.68        22.00868
282.13        22.11759
282.59        22.23759
283.04        22.30266
283.50        22.33603
283.95         22.2937
284.41        22.10895
284.86          21.784
285.32         21.3873
285.77        20.95814
286.22        20.61823
286.68        20.41262
287.13        20.28197
287.59         20.2691
288.04        20.38313
288.50        20.60912
288.95        20.89679
289.41        21.16087
289.86         21.2431
290.32        21.14752
290.77        20.93874
291.22        20.70281
291.68        20.57339
292.13        20.60292
292.59        20.78719
293.04        21.18927
293.50        21.92064
293.95        22.97854
294.40        24.33411
294.86        25.82014
295.31        27.17877
295.77        28.33656
296.22        29.34254
296.68        30.34937
297.13        31.58294
297.58        33.10468
298.04        34.81365
298.49        36.57529
298.95        38.18703
299.40        39.60034
299.85         40.8961
300.31        42.20028
300.76        43.63054
301.21        45.25082
301.67        47.02986
302.12        48.87571
302.58        50.79547
303.03        52.74641
303.48        54.66176
303.94        56.56767
304.39        58.90395
304.84        60.93599
305.30         63.2205
305.75        65.45132
306.20        67.57089
306.66        69.55385
307.11        71.36124
307.57        73.05902
308.02        74.63733
308.47        76.15488
308.93        77.62263
309.38         79.0219
309.83        80.39899
310.29        81.75715
310.74        83.07083
311.19        84.30275
311.65        85.37715
312.10        86.27512
312.55        87.05373
313.00        87.80741
313.46         88.6845
313.91         89.7011
314.36         90.8075
314.82        91.93577
315.27         93.0042
315.72        93.94366
316.18        94.77058
316.63         95.4295
317.08        95.84998
317.53        96.05612
317.99         96.1155
318.44        96.12258
318.89        96.24424
319.35        96.53592
319.80        96.95581
320.25        97.53304
320.70         98.3042
321.16        99.20609
321.61        100.2514
322.06        101.2179
322.51        101.7562
322.97        101.7865
323.42        101.4224
323.87        100.8984
324.32        100.6228
324.78        100.7001
325.23        101.0902
325.68        101.6541
326.13        102.1471
326.59        102.4629
327.04        102.7061
327.49        102.9447
327.94        103.3345
328.39        103.8951
328.85        104.5007
329.30        105.0831
329.75        105.3452
330.20        105.2323
330.66        104.8551
331.11        104.4218
331.56        104.1844
332.01        104.2572
332.46        104.5845
332.92        105.1239
333.37        105.9382
333.82         106.928
334.27         108.067
334.72        109.2154
335.17        110.1447
335.63        110.7531
336.08        111.1334
336.53        111.3071
336.98        111.4082
337.43        111.5071
337.88        111.5806
338.34         111.704
338.79        112.0129
339.24        112.5209
339.69        113.2253
340.14        113.9842
340.59        114.5329
341.05        114.8209
341.50        114.9336
341.95        115.0197
342.40        115.3465
342.85        115.9666
343.30        116.7498
343.75        117.6022
344.20        118.3765
344.66        119.0203
345.11        119.6011
345.56        120.0201
346.01        120.1104
346.46        119.8978
346.91        119.4418
347.36        119.0757
347.81        119.3113
348.26        120.2141
348.72        121.5995
349.17        123.0906
349.62        123.9627
350.07        124.0241
350.52        123.5268
350.97        122.7954
351.42        122.3306
351.87        122.2921
352.32        122.5115
352.77        122.9421
353.22        123.5201
353.67        124.1518
354.13        124.8231
354.58          125.36
355.03        125.4649
355.48        125.0722
355.93        124.2631
356.38        123.1832
356.83        122.0731
357.28        121.0395
357.73         120.063
358.18         119.176
358.63         118.412
359.08        117.7707
359.53        117.2536
359.98        116.8223
360.43        116.3997
360.88        115.9466
361.33        115.4589
361.78        114.9071
362.23        114.2577
362.68        113.5153
363.13        112.7006
363.58        111.8608
364.03        111.0737
364.48        110.3666
364.93        109.7223
365.38        109.1504
365.83        108.6612
366.28        108.2441
366.73        107.8937
367.18        107.5435
367.63        107.0856
368.08        106.4934
368.53         105.788
368.98        105.0453
369.43        104.3931
369.88        103.8754
370.33        103.4746
370.78        103.1162
371.23          102.68
371.68        102.1292
372.13        101.4714
372.58        100.8185
373.03        100.3492
373.48        100.0752
373.93        99.93205
374.38        99.69721
374.83        99.01846
375.28        97.87137
375.72        96.40258
376.17        94.98668
376.62        93.99567
377.07        93.50615
377.52        93.37071
377.97        93.44952
378.42        93.51347
378.87         93.4583
379.32         93.3411
379.77        93.11855
380.22        92.72508
380.67        92.15777
381.11        91.41225
381.56        90.59466
382.01        89.91882
382.46        89.45716
382.91        89.18919
383.36         88.9904
383.81        88.65117
384.26        88.12719
384.71        87.47276
385.15        86.83525
385.60        86.50348
386.05        86.49199
386.50        86.70072
386.95        86.89527
387.40        86.72219
387.85        86.13609
388.29        85.23285
388.74        84.36436
389.19        83.78975
389.64        83.55761
390.09        83.53946
390.54        83.60699
390.98        83.54578
391.43         83.3269
391.88        83.00411
392.33        82.58759
392.78        82.17625
393.23         81.7716
393.67        81.23022
394.12        80.40704
394.57        80.45081
395.02        80.12103
395.47        80.23978
395.91        80.38171
396.36         80.4323
396.81        80.34608
397.26        80.14703
397.71        79.88172
398.15        79.54237
398.60        79.21964
399.05        78.93137
399.50        78.66874
399.95        78.28662
400.39        77.65475
400.84        77.90594
401.29        78.71931
401.74        78.98608
402.18         78.5938
402.63        77.64087
403.08        77.23479
403.53         76.8968
403.97        76.92831
404.42        77.19651
404.87        77.51768
405.32        77.55386
405.76        77.21697
406.21        76.81892
406.66        76.40267
407.11        75.78759
407.55         75.2308
408.00        75.17244
408.45        75.60446
408.90        76.41944
409.34        77.21326
409.79        76.94595
410.24        75.89855
410.68        75.57359
411.13        76.06784
411.58        76.48384
412.03        76.65314
412.47        76.73557
412.92        76.65105
413.37        76.40248
413.81        76.03496
414.26         75.6988
414.71        75.40281
415.15        75.13666
415.60         74.9234
416.05        74.84778
416.49        74.92661
416.94        75.14514
417.39        75.39658
417.83        75.47981
418.28        75.36318
418.73        75.10553
419.17        74.84152
419.62         74.8047
420.07        75.01262
420.51        75.35817
420.96        75.76433
421.41        75.91198
421.85        75.70436
422.30        75.67461
422.74        75.77837
423.19         74.8579
423.64        74.30533
424.08        74.28684
424.53        75.05929
424.98        75.46453
425.42        75.40575
425.87          75.663
426.31        76.11474
426.76        75.91573
427.21        75.06103
427.65        74.88925
428.10        75.27828
428.54        75.23059
428.99          74.783
429.44        74.41383
429.88        74.24457
430.33        74.39194
430.77        74.72645
431.22        75.22517
431.66        75.73335
432.11        75.67865
432.56        75.14799
433.00        75.05783
433.45        75.58521
433.89        75.77329
434.34        75.66855
434.78        77.09538
435.23        75.24103
435.67        74.71367
436.12        74.35292
436.57        74.51978
437.01        75.06616
437.46        75.57178
437.90        75.62308
438.35        75.91253
438.79        76.48402
439.24        76.64764
439.68        76.49487
440.13        76.44975
440.57        76.62078
441.02        76.69247
441.46        76.60039
441.91        76.91755
442.35        77.53613
442.80        76.65417
443.24        77.32849
443.69        76.85232
444.13         76.2901
444.58        75.97216
445.02        75.90061
445.47        75.94262
445.91        76.03036
446.36        76.09641
446.80        76.06541
447.24        76.46243
447.69        76.38608
448.13        76.44787
448.58        76.40488
449.02        76.27576
449.47        76.15751
449.91        76.18267
450.36        76.39671
450.80        76.72865
451.25        77.09215
451.69        77.31087
452.13        77.34722
452.58        77.27612
453.02        77.16032
453.47        77.09345
453.91        77.08195
454.36        77.26199
454.80        77.22552
455.24        77.29034
455.69        77.29569
456.13         77.1316
456.58        76.85801
457.02        76.50468
457.46        76.19753
457.91        76.18316
458.35        76.34921
458.79        76.40303
459.24        76.35581
459.68        76.31835
460.13        76.30344
460.57        76.44106
461.01        76.38316
461.46        76.28342
461.90         76.0854
462.34        76.23759
462.79        76.56772
463.23        76.34956
463.68        75.66803
464.12        75.29785
464.56        75.30392
465.01        75.18515
465.45         74.9133
465.89        74.99081
466.34         75.3328
466.78        75.31356
467.22        75.18374
467.67        75.00603
468.11        74.91799
468.55        74.74234
468.99        74.51593
469.44        74.31213
469.88        74.14724
470.32        74.05658
470.77        74.00109
471.21        73.91827
471.65        73.78143
472.10         73.6256
472.54        73.51262
472.98         73.5359
473.42        73.68801
473.87        74.05398
474.31        74.45271
474.75        74.33402
475.20        73.82198
475.64        73.70461
476.08        73.99117
476.52        73.90139
476.97        73.39675
477.41        73.36337
477.85        73.32825
478.29        72.83764
478.74        73.81942
479.18        73.78933
479.62         73.4212
480.06        73.28655
480.50        73.41687
480.95        73.03014
481.39        73.44324
481.83        72.72864
482.27        73.79151
482.72        74.10405
483.16        73.77684
483.60        73.41644
484.04        73.91326
484.48        74.06533
484.93        74.02396
485.37        73.68333
485.81        72.80156
486.25        72.10871
486.69        73.83188
487.14        73.35504
487.58        72.89429
488.02        73.01012
488.46        73.57328
488.90        73.72655
489.34        72.86349
489.79        73.61619
490.23        72.95586
490.67        73.04797
491.11        72.99306
491.55        72.75192
491.99        72.39321
492.43        72.24416
492.88        72.34902
493.32        72.53133
493.76        72.73411
494.20        72.94139
494.64        73.11029
495.08        73.30105
495.52        73.47659
495.96        73.39185
496.41        73.08599
496.85        73.16872
497.29        73.04642
497.73         73.0359
498.17        72.81719
498.61        72.69495
499.05        72.47253
499.49        72.39317
499.93        72.38303
500.37         72.4687
500.82        72.63729
501.26        72.41832
501.70        72.62497
502.14        72.54303
502.58        72.45023
503.02        72.50538
503.46        72.74969
503.90        72.70347
504.34        73.06475
504.78        73.10161
505.22         72.9854
505.66        72.81187
506.10         72.6834
506.54        72.50368
506.98        72.25022
507.42          73.057
507.86        72.43826
508.30        72.93892
508.74        72.52813
509.18        71.97105
509.62        71.75166
510.06        71.58488
510.50         71.7517
510.94         72.1396
511.38        72.59303
511.82        72.79889
512.26        72.67673
512.70        72.33502
513.14        71.93062
513.58        71.70486
514.02        71.72366
514.46        71.90833
514.90         72.1661
515.34        72.34986
515.78        72.40761
516.22        72.38442
516.66        72.32568
517.10        72.29583
517.54        72.31285
517.98        72.34985
518.42        72.36704
518.86        72.31042
519.30        72.17276
519.74        71.97971
520.18        71.79298
520.62        71.69798
521.06        71.71907
521.50        71.84544
521.93        72.01462
522.37        72.09882
522.81        72.07758
523.25        71.97024
523.69        71.87528
524.13        71.95123
524.57        72.21138
525.01        72.58887
525.45        72.93134
525.89        72.99483
526.32        72.73034
526.76        72.26239
527.20        71.73611
527.64        71.40883
528.08        71.35093
528.52        71.38764
528.96        71.48802
529.40        71.82008
529.83        72.22937
530.27        72.25097
530.71        71.92831
531.15        71.76649
531.59        71.79853
532.03        71.72527
532.46        71.55867
532.90         71.4875
533.34        71.51555
533.78         71.6018
534.22        71.70106
534.66        71.73769
535.09        71.68941
535.53        71.59677
535.97        71.48946
536.41        71.44249
536.85        71.47203
537.28        71.52374
537.72        71.55819
538.16        71.62878
538.60         71.5266
539.04        71.43472
539.47        71.29939
539.91        71.18692
540.35        71.09518
540.79        71.02663
541.22        70.98799
541.66        70.99938
542.10        71.05409
542.54        71.14577
542.97        71.25275
543.41        71.36033
543.85        71.45042
544.29        71.54366
544.72        71.58849
545.16        71.54783
545.60        71.42143
546.04        71.18448
546.47        70.93344
546.91        71.00802
547.35        71.40277
547.79        71.67605
548.22        71.65627
548.66        72.16798
549.10        72.12876
549.53        71.90523
549.97        71.41133
550.41        71.91251
550.84        71.36287
551.28        71.34105
551.72        71.19044
552.15        71.50032
552.59         71.3504
553.03        71.41195
553.46        71.40239
553.90        71.41514
554.34         71.4277
554.77        71.41786
555.21        71.40271
555.65        71.35574
556.08        71.27728
556.52        71.26882
556.96        71.35275
557.39         71.2951
557.83        71.59407
558.27        71.66016
558.70        71.68028
559.14        71.73937
559.57        71.95562
560.01        72.09527
560.45        72.16764
560.88        71.89997
561.32        71.72153
561.75        71.65417
562.19        71.76822
562.63        71.58933
563.06        71.18976
563.50        71.13837
563.93        71.37254
564.37        71.47018
564.80        71.38976
565.24         71.3686
565.68        71.40439
566.11        71.45986
566.55        71.53561
566.98        71.48141
567.42        71.47796
567.85        71.44601
568.29        71.41889
568.72        71.62524
569.16         72.1746
569.60        71.54239
570.03         71.9018
570.47        72.17438
570.90        72.29661
571.34        71.79111
571.77        72.18812
572.21        72.20221
572.64        72.28414
573.08         72.1499
573.51        71.63113
573.95        72.03031
574.38        72.22118
574.82        72.11893
