SpectraSmart Spectrum 2.9.0.0
--------- Device Information -----------
Spectrum Name :  反射率_0
Saving Time :  2024/04/30 00:31:13
Spectro-Module Model Name : SE2030-DUVN
Spectro-Module Serial Number : OS361AC55029948
Wavelength Start : 200
Wavelength End : 1025
Wavelength Unit : Wavelength(nm)
Spectrum Unit : Reflectance(%)
-----------Spectrum Setting ------------
Integration Time : 20ms
Average : 10
Boxcar : 0
Background removal :  enabled
linearity correction :  enabled
SC :  disabled
Intensity correction :  disabled
DWT denoise :  enabled
savitzky-golay :  disabled
FFT :  disabled
Running average :  disabled
Kalman :  disabled
High pass :  disabled
---------------BEGIN--------------------
Wavelength(nm)             Reflectance(%)
200.29               0
200.75        71.04835
201.21        54.63296
201.67        38.63505
202.13        29.77941
202.58        31.09147
203.04        41.38812
203.50        58.73503
203.96        77.79911
204.42        93.92422
204.88        106.4482
205.34        110.4658
205.80        101.9519
206.26        86.16895
206.72        69.14267
207.18        55.89136
207.64        48.98908
208.10        47.08528
208.55        48.40914
209.01        52.07423
209.47        56.30434
209.93        59.54554
210.39        62.15102
210.85         63.5079
211.31        63.15086
211.77        61.05948
212.23        56.41937
212.69        50.04844
213.14        47.74858
213.60        51.61717
214.06        58.84676
214.52        65.03926
214.98        67.28915
215.44         66.2939
215.90        63.30976
216.36        60.17561
216.81        60.47099
217.27         66.1305
217.73         77.2534
218.19        93.19341
218.65        106.2594
219.11        109.6062
219.57        105.0653
220.02        97.82463
220.48        92.29526
220.94        87.79656
221.40        82.58356
221.86        75.64587
222.32        68.10931
222.77        62.72316
223.23        60.74423
223.69        60.24583
224.15        59.37821
224.61        57.77066
225.06        55.44302
225.52        53.43424
225.98        53.75092
226.44        56.28484
226.90        59.48317
227.36         61.7839
227.81        62.13098
228.27        60.81827
228.73        58.19005
229.19        55.19258
229.65        53.93276
230.10         54.8207
230.56        56.83015
231.02        58.71397
231.48        59.46299
231.93        59.01732
232.39        57.86634
232.85        56.43782
233.31        55.58781
233.77        55.62459
234.22        56.40709
234.68        57.37428
235.14        57.59812
235.60         56.8936
236.05        55.60346
236.51        54.58966
236.97        54.92539
237.43         56.9174
237.88        60.73623
238.34        65.67565
238.80        69.62984
239.26        70.86631
239.71         69.7448
240.17         67.3801
240.63        65.77911
241.08        65.65534
241.54        66.69505
242.00         69.6918
242.46        75.16108
242.91        82.20901
243.37        88.90313
243.83        93.92439
244.28        97.95547
244.74        101.6051
245.20        103.9563
245.66        105.1764
246.11        105.8672
246.57         106.187
247.03        107.7279
247.48        107.5149
247.94        99.98758
248.40        88.52552
248.85        77.37856
249.31        71.65849
249.77        73.60562
250.22        83.41074
250.68        103.4836
251.14        133.4402
251.59        149.3058
252.05        135.0719
252.51        109.9512
252.96         90.8225
253.42        83.13738
253.88        83.11862
254.33        87.37746
254.79        93.27299
255.25        95.07943
255.70        91.89598
256.16        87.60912
256.62        84.16403
257.07        82.55835
257.53        82.75864
257.99        83.60224
258.44        83.84714
258.90        82.80255
259.35        80.29856
259.81        77.69493
260.27        75.43482
260.72        73.84423
261.18        73.03808
261.63        72.36562
262.09        71.77546
262.55        70.82764
263.00        69.44624
263.46        68.07452
263.91        66.60093
264.37        65.26369
264.83        63.97358
265.28        62.63473
265.74        61.45629
266.19        60.50149
266.65        59.86488
267.11        59.42876
267.56        59.04753
268.02        58.53381
268.47        57.78572
268.93        56.86969
269.38        55.77704
269.84          54.629
270.30         53.4862
270.75        52.34272
271.21        51.26466
271.66        50.26944
272.12        49.35822
272.57        48.49265
273.03        47.66609
273.48        46.76794
273.94        45.85511
274.39        44.90664
274.85        44.01909
275.31        43.21687
275.76        42.47427
276.22        41.81298
276.67         41.1573
277.13        40.52742
277.58        39.86477
278.04        39.23388
278.49        38.58285
278.95        37.95676
279.40        37.31169
279.86        36.71951
280.31        36.15171
280.77        35.70668
281.22        35.34411
281.68        35.07686
282.13        34.85684
282.59         34.6896
283.04        34.52826
283.50        34.37498
283.95        34.17426
284.41        33.87501
284.86        33.46476
285.32        33.02247
285.77        32.56145
286.22        32.18401
286.68        31.92785
287.13        31.72723
287.59        31.62374
288.04        31.61043
288.50        31.68663
288.95        31.80262
289.41        31.90491
289.86        31.86069
290.32        31.68609
290.77        31.43011
291.22        31.17053
291.68         31.0245
292.13         31.0337
292.59        31.20947
293.04        31.59984
293.50         32.3094
293.95        33.33278
294.40        34.65002
294.86        36.11988
295.31         37.5265
295.77        38.80175
296.22        39.97181
296.68        41.15771
297.13        42.53199
297.58        44.13715
298.04        45.88341
298.49        47.63669
298.95        49.20873
299.40        50.55316
299.85        51.74919
300.31        52.94032
300.76        54.25908
301.21        55.78015
301.67         57.4817
302.12        59.24928
302.58         61.0596
303.03        62.85405
303.48        64.59144
303.94        66.34009
304.39        68.48951
304.84        70.48163
305.30        72.72551
305.75        74.88666
306.20        76.79484
306.66        78.42462
307.11        79.77788
307.57        81.03712
308.02        82.34565
308.47        83.79029
308.93        85.32833
309.38        86.83836
309.83        88.21197
310.29        89.41674
310.74        90.47614
311.19        91.42582
311.65        92.30151
312.10        93.10854
312.55        93.86179
313.00        94.61244
313.46        95.44607
313.91        96.35666
314.36        97.31764
314.82         98.2766
315.27        99.17374
315.72        99.95406
316.18        100.6344
316.63        101.1575
317.08        101.4533
317.53         101.545
317.99        101.4938
318.44        101.4147
318.89        101.5063
319.35        101.8193
319.80        102.2991
320.25        102.9085
320.70        103.5762
321.16        104.2246
321.61        104.9098
322.06        105.5031
322.51        105.8189
322.97        105.8229
323.42        105.5735
323.87        105.2433
324.32        105.1397
324.78        105.3263
325.23        105.7986
325.68        106.3913
326.13        106.8158
326.59        106.9704
327.04        106.9669
327.49        106.9666
327.94        107.2859
328.39        107.9791
328.85        108.8808
329.30        109.8122
329.75        110.2632
330.20        110.1105
330.66        109.5167
331.11        108.7918
331.56        108.3523
332.01         108.364
332.46        108.7311
332.92          109.34
333.37        110.1378
333.82        110.9933
334.27        111.9239
334.72        112.8778
335.17        113.7653
335.63        114.5133
336.08        115.1642
336.53        115.6346
336.98        115.8884
337.43        115.9473
337.88        115.8445
338.34        115.7294
338.79        115.8556
339.24        116.2769
339.69        116.9497
340.14        117.7201
340.59        118.3074
341.05        118.6385
341.50        118.7982
341.95         118.899
342.40        119.1445
342.85         119.582
343.30        120.1149
343.75          120.68
344.20        121.1821
344.66        121.6039
345.11        122.0098
345.56        122.3514
346.01        122.5359
346.46        122.5786
346.91        122.4916
347.36        122.5083
347.81         122.993
348.26        123.9744
348.72        125.3069
349.17        126.6488
349.62        127.3459
350.07        127.2435
350.52        126.5738
350.97        125.7006
351.42        125.1823
351.87        125.1795
352.32        125.5161
352.77        126.0684
353.22        126.6382
353.67        127.1088
354.13        127.5131
354.58        127.7667
355.03        127.7193
355.48        127.3432
355.93        126.6653
356.38        125.7737
356.83        124.8246
357.28        123.8871
357.73        122.9573
358.18        122.0642
358.63        121.2349
359.08        120.4763
359.53        119.7978
359.98        119.1736
360.43        118.5485
360.88        117.9059
361.33        117.2544
361.78        116.5986
362.23        115.9514
362.68        115.3159
363.13        114.6814
363.58        114.0516
364.03        113.4352
364.48        112.8283
364.93        112.2228
365.38        111.6084
365.83        110.9725
366.28         110.315
366.73         109.645
367.18        108.9625
367.63        108.2637
368.08        107.5483
368.53        106.8187
368.98        106.0992
369.43        105.4232
369.88        104.8121
370.33        104.2829
370.78        103.8004
371.23        103.3077
371.68        102.7866
372.13        102.2158
372.58        101.6886
373.03        101.3604
373.48        101.2225
373.93        101.2056
374.38        101.0675
374.83         100.425
375.28        99.24812
375.72        97.69736
376.17        96.15807
376.62        95.01623
377.07        94.36167
377.52        94.04902
377.97        93.97574
378.42        93.97286
378.87        93.94346
379.32        93.92297
379.77        93.81103
380.22        93.45387
380.67        92.83028
381.11        91.96408
381.56        90.99793
382.01        90.21146
382.46        89.69862
382.91        89.41376
383.36        89.22758
383.81        88.92243
384.26        88.44662
384.71        87.86491
385.15        87.29337
385.60        86.96904
386.05        86.90166
386.50        87.00243
386.95        87.09835
387.40         86.9342
387.85        86.47443
388.29        85.77428
388.74        85.10445
389.19        84.61159
389.64        84.32413
390.09        84.14773
390.54        84.01871
390.98        83.83025
391.43        83.58763
391.88         83.3085
392.33        82.94106
392.78        82.50934
393.23        82.02401
393.67        81.26944
394.12        80.44625
394.57        80.39541
395.02        79.99856
395.47        80.18546
395.91        80.48002
396.36        80.56884
396.81        80.38562
397.26        80.06106
397.71        79.70169
398.15        79.35886
398.60        79.14931
399.05        79.03765
399.50        78.94814
399.95        78.75799
400.39        78.22615
400.84        78.18423
401.29        78.42548
401.74        78.34509
402.18        77.85519
402.63        77.09503
403.08        76.35558
403.53        76.09673
403.97        76.36106
404.42        76.91438
404.87        77.49104
405.32        77.64098
405.76        77.23612
406.21        76.70577
406.66        76.17551
407.11        75.27971
407.55        74.41167
408.00        74.76383
408.45        76.09364
408.90        76.85735
409.34        76.75778
409.79        76.29673
410.24        75.74881
410.68        75.50775
411.13        75.65854
411.58        75.92924
412.03         76.1478
412.47        76.16814
412.92        75.90688
413.37        75.46146
413.81        74.94485
414.26        74.60245
414.71        74.45306
415.15        74.43666
415.60        74.49554
416.05        74.58537
416.49         74.6825
416.94        74.80764
417.39         74.9073
417.83         74.8765
418.28        74.70922
418.73        74.42015
419.17        74.14041
419.62        74.10135
420.07        74.31933
420.51        74.70034
420.96        75.08992
421.41        75.15525
421.85        74.82108
422.30         74.4068
422.74        73.97749
423.19        73.47043
423.64        73.03379
424.08        73.21939
424.53        73.90445
424.98         74.3501
425.42        74.43995
425.87        74.71182
426.31        74.99329
426.76        74.73039
427.21        73.89449
427.65        73.64665
428.10        73.87113
428.54        73.73009
428.99        73.27023
429.44        72.82758
429.88        72.56921
430.33        72.82949
430.77         73.3942
431.22        73.96636
431.66        74.39034
432.11        74.16312
432.56        73.40902
433.00        73.27511
433.45         74.0299
433.89        73.81174
434.34        74.11143
434.78        75.63313
435.23        73.51498
435.67        73.00468
436.12        72.75375
436.57        72.85734
437.01        73.21452
437.46        73.52009
437.90        73.71362
438.35        74.20234
438.79        74.83323
439.24        75.03688
439.68        74.80602
440.13        74.61294
440.57         74.5992
441.02        74.57167
441.46        74.50086
441.91        75.17322
442.35        75.25944
442.80        75.42035
443.24        75.27645
443.69        74.96268
444.13        74.59081
444.58        74.33885
445.02        74.17912
445.47        74.21675
445.91        74.41901
446.36        74.36028
446.80        73.91837
447.24        74.71458
447.69         74.0794
448.13        74.18827
448.58        74.26656
449.02        74.33778
449.47          74.399
449.91        74.46539
450.36        74.56831
450.80        74.66026
451.25        74.73163
451.69        74.72844
452.13        74.65287
452.58        74.55111
453.02        74.45349
453.47        74.40188
453.91        74.39272
454.36        74.55328
454.80        74.52936
455.24        74.65993
455.69        75.02654
456.13        74.85502
456.58        74.36152
457.02        74.07051
457.46        74.06533
457.91        74.14708
458.35        74.18683
458.79        74.13645
459.24        74.00893
459.68        73.81655
460.13        73.63472
460.57        73.61697
461.01        73.66882
461.46         73.6966
461.90        73.63161
462.34        73.92797
462.79        74.07563
463.23        73.81739
463.68        73.14841
464.12        72.70004
464.56        72.51491
465.01        72.33304
465.45        72.18238
465.89        72.16047
466.34        72.14564
466.78        73.10258
467.22         72.7657
467.67         72.7552
468.11        72.46352
468.55        72.07316
468.99        71.67451
469.44        71.30936
469.88        71.05019
470.32        70.95452
470.77        70.97884
471.21        71.00706
471.65        70.99008
472.10        70.97931
472.54        70.98549
472.98         71.0175
473.42         71.0584
473.87        71.22099
474.31         71.4063
474.75        71.17448
475.20        70.69156
475.64        70.75337
476.08        71.25616
476.52        71.26181
476.97        70.71748
477.41        70.40384
477.85        70.05302
478.29        69.66896
478.74        70.57692
479.18        70.49833
479.62        69.98642
480.06        69.88377
480.50        70.22642
480.95        70.19824
481.39        70.88425
481.83         70.0285
482.27        70.89518
482.72        70.47028
483.16        70.62325
483.60        70.63605
484.04         70.8425
484.48        70.97876
484.93        70.87421
485.37        71.41051
485.81        70.13134
486.25         69.8205
486.69        71.56946
487.14          70.661
487.58        70.11137
488.02         70.0138
488.46        70.66466
488.90        70.71749
489.34        70.15414
489.79         70.4072
490.23        69.80045
490.67        69.86674
491.11        70.01662
491.55        69.87846
491.99        69.50024
492.43        69.37793
492.88        69.54288
493.32        69.73585
493.76         69.8839
494.20         70.0132
494.64        70.09386
495.08        70.11494
495.52        70.09854
495.96        70.04611
496.41        69.95973
496.85        70.01418
497.29        69.91553
497.73        69.80627
498.17        69.60306
498.61         69.5293
499.05        69.17167
499.49        69.19542
499.93        69.37881
500.37        69.29013
500.82        68.96438
501.26        68.85778
501.70        68.99227
502.14        69.09636
502.58         69.1644
503.02        69.30721
503.46        69.51274
503.90        69.73923
504.34        69.93677
504.78        70.02078
505.22        69.96889
505.66        69.81321
506.10        69.59924
506.54        69.37804
506.98        69.35694
507.42        69.24867
507.86         69.0219
508.30         69.3223
508.74         68.8746
509.18        68.71973
509.62        68.57352
510.06        68.61385
510.50        68.84669
510.94        69.22925
511.38        69.61607
511.82        69.73569
512.26        69.53466
512.70        69.10182
513.14        68.60828
513.58        68.31773
514.02        68.30058
514.46        68.48129
514.90         68.7512
515.34        68.93118
515.78        68.96036
516.22        68.88849
516.66        68.78041
517.10        68.73225
517.54        68.76796
517.98        68.85257
518.42        68.91697
518.86        68.86047
519.30        68.66957
519.74        68.38713
520.18        68.11832
520.62         68.0157
521.06        68.11497
521.50        68.37982
521.93          68.702
522.37        68.87901
522.81        68.86705
523.25        68.70912
523.69        68.53186
524.13         68.5356
524.57        68.75139
525.01        69.10552
525.45        69.43935
525.89        69.49794
526.32        69.22461
526.76        68.74602
527.20        68.22303
527.64        67.90189
528.08        67.84675
528.52        67.97446
528.96        68.20708
529.40          68.421
529.83        68.55804
530.27        68.66155
530.71        68.71295
531.15        68.68718
531.59         68.5895
532.03         68.4222
532.46        68.22317
532.90        68.08725
533.34         68.0282
533.78        68.04582
534.22        68.11765
534.66        68.15658
535.09        68.13169
535.53        68.25282
535.97        68.20085
536.41        68.24121
536.85        68.27798
537.28        68.30157
537.72        68.30049
538.16        68.26224
538.60        68.18707
539.04        68.08404
539.47        67.94741
539.91        67.82109
540.35        67.70087
540.79        67.59915
541.22        67.52164
541.66        67.48817
542.10        67.49631
542.54        67.54037
542.97        67.61443
543.41        67.72791
543.85        67.86327
544.29        68.02726
544.72        68.14748
545.16        68.15131
545.60        68.02597
546.04        67.76785
546.47        67.49556
546.91        67.49836
547.35        67.77461
547.79        68.06271
548.22        68.22839
548.66        68.43283
549.10        68.65438
549.53        68.52152
549.97        68.02084
550.41        68.64538
550.84        68.31672
551.28        68.30501
551.72        67.98093
552.15        68.11511
552.59        67.86386
553.03        67.80762
553.46        67.70959
553.90        67.65553
554.34        67.62744
554.77        67.67671
555.21        67.78646
555.65        67.71731
556.08        67.56989
556.52        67.66516
556.96        67.95102
557.39         68.0638
557.83        68.01556
558.27        67.97787
558.70        67.99843
559.14        68.08526
559.57        68.19051
560.01        68.27185
560.45        68.29528
560.88        68.08723
561.32        68.01762
561.75        67.85697
562.19         67.7487
562.63        67.67039
563.06        67.63036
563.50        67.69412
563.93        67.79662
564.37        67.85705
564.80        67.83642
565.24        67.79282
565.68        67.74937
566.11        67.72525
566.55        67.83409
566.98        67.85616
567.42        67.88931
567.85        67.95036
568.29        68.03161
568.72        68.22247
569.16        68.64429
569.60         68.1051
570.03        68.65062
570.47        68.64944
570.90         68.7751
571.34        68.13253
571.77        68.65675
572.21        68.73615
572.64        68.87607
573.08        68.80679
573.51        68.54212
573.95        68.62314
574.38        69.29202
574.82        68.57975
