SpectraSmart Spectrum 2.9.0.0
--------- Device Information -----------
Spectrum Name :  反射率_0
Saving Time :  2024/04/30 00:00:03
Spectro-Module Model Name : SE2030-DUVN
Spectro-Module Serial Number : OS361AC55029948
Wavelength Start : 200
Wavelength End : 1025
Wavelength Unit : Wavelength(nm)
Spectrum Unit : Reflectance(%)
-----------Spectrum Setting ------------
Integration Time : 20ms
Average : 10
Boxcar : 0
Background removal :  enabled
linearity correction :  enabled
SC :  disabled
Intensity correction :  disabled
DWT denoise :  enabled
savitzky-golay :  disabled
FFT :  disabled
Running average :  disabled
Kalman :  disabled
High pass :  disabled
---------------BEGIN--------------------
Wavelength(nm)             Reflectance(%)
200.29               0
200.75        83.61948
201.21        83.15594
201.67        83.55409
202.13        82.81565
202.58        80.20998
203.04        75.30157
203.50        70.89322
203.96        73.77678
204.42        85.44448
204.88        102.8873
205.34        116.4508
205.80        113.5294
206.26        97.46022
206.72        77.87866
207.18        61.40444
207.64        51.21709
208.10        45.80775
208.55        42.60857
209.01        40.86686
209.47        40.54095
209.93         41.2467
210.39         43.1992
210.85        44.59774
211.31        43.45874
211.77        39.43772
212.23        31.77302
212.69        22.28426
213.14        20.71455
213.60         30.2247
214.06        44.40615
214.52        56.26658
214.98        62.04138
215.44        63.01007
215.90         61.0503
216.36        58.14874
216.81        57.98726
217.27        62.54597
217.73        71.67096
218.19        85.02355
218.65        96.57318
219.11        100.5175
219.57        98.09662
220.02        93.04058
220.48        88.85178
220.94        84.95655
221.40        79.67979
221.86        72.21371
222.32        64.35696
222.77        59.04341
223.23        57.25984
223.69        56.36065
224.15        53.77572
224.61        49.11318
225.06        42.42497
225.52        35.86877
225.98        34.46979
226.44        38.63507
226.90        44.94713
227.36        49.91459
227.81        51.16643
228.27        49.07745
228.73        44.51582
229.19        39.08869
229.65        36.41209
230.10        37.43855
230.56        40.37433
231.02        43.26134
231.48        44.48031
231.93        43.93967
232.39        42.27661
232.85        40.26749
233.31        39.33488
233.77         39.9155
234.22        41.70864
234.68        43.54761
235.14        43.38478
235.60        40.91213
236.05        37.06471
236.51        33.65695
236.97        32.96419
237.43        35.61102
237.88        41.59815
238.34        50.30742
238.80        58.55889
239.26        63.32286
239.71          64.667
240.17        63.69257
240.63        63.06665
241.08        63.89841
241.54         65.5276
242.00        68.37797
242.46        72.24597
242.91        75.95005
243.37        78.99775
243.83        81.05059
244.28        82.16557
244.74        82.63081
245.20        82.05295
245.66         81.4697
246.11        83.42701
246.57        88.94041
247.03        98.27612
247.48        107.7666
247.94        108.5797
248.40        101.3979
248.85        91.40685
249.31        84.62909
249.77        83.49516
250.22        87.84289
250.68        98.18246
251.14         114.191
251.59        122.7444
252.05        114.8492
252.51        101.0522
252.96        90.02656
253.42        84.53693
253.88        82.30815
254.33        81.52341
254.79         81.2158
255.25          79.618
255.70         76.7803
256.16        74.24925
256.62        72.50689
257.07        71.66434
257.53        71.74937
257.99        72.16293
258.44        71.93064
258.90        70.62114
259.35         68.1579
259.81        65.60732
260.27        63.44051
260.72        62.03553
261.18         61.4116
261.63        60.97409
262.09        60.51219
262.55        59.44539
263.00        57.76823
263.46        55.99398
263.91        54.20025
264.37        52.76334
264.83        51.59779
265.28         50.5041
265.74        49.59592
266.19        48.83067
266.65        48.25447
267.11        47.83471
267.56        47.37911
268.02        46.60173
268.47        45.43074
268.93        43.94796
269.38        42.38711
269.84        41.28485
270.30        40.75746
270.75        40.64576
271.21        40.62875
271.66        40.19806
272.12        39.25499
272.57        37.93354
273.03        36.52312
273.48        35.39981
273.94        34.72225
274.39        34.30988
274.85        34.01199
275.31        33.54424
275.76        32.83361
276.22        32.01791
276.67        31.19009
277.13        30.56703
277.58        30.13653
278.04          29.857
278.49        29.57436
278.95        29.17015
279.40        28.58426
279.86        27.94324
280.31        27.30175
280.77        26.85409
281.22        26.59146
281.68        26.47067
282.13        26.41777
282.59        26.38004
283.04        26.31094
283.50        26.23404
283.95         26.1042
284.41        25.86274
284.86        25.51242
285.32        25.12297
285.77        24.74508
286.22        24.52422
286.68        24.49172
287.13        24.55772
287.59        24.71141
288.04        24.87609
288.50        25.02695
288.95        25.14831
289.41        25.20145
289.86        25.08617
290.32        24.83901
290.77        24.51901
291.22        24.23169
291.68        24.13773
292.13          24.283
292.59        24.64548
293.04          25.255
293.50        26.18102
293.95        27.39726
294.40        28.87858
294.86        30.43824
295.31        31.79125
295.77          32.871
296.22        33.74399
296.68        34.60477
297.13         35.7471
297.58        37.24812
298.04        38.97984
298.49        40.79746
298.95        42.48059
299.40        43.96206
299.85        45.33393
300.31        46.66911
300.76        47.99807
301.21        49.39013
301.67        50.85259
302.12        52.39765
302.58        54.19559
303.03        56.22034
303.48        58.34315
303.94        60.49316
304.39        62.91572
304.84        64.90273
305.30        67.00499
305.75        68.96723
306.20        70.78012
306.66        72.46083
307.11        73.97593
307.57        75.42355
308.02        76.83598
308.47        78.27791
308.93        79.74101
309.38        81.20789
309.83        82.72018
310.29        84.26108
310.74        85.79762
311.19         87.2101
311.65        88.30231
312.10        89.03941
312.55        89.50873
313.00        89.93114
313.46        90.65951
313.91        91.74959
314.36        93.09336
314.82        94.48205
315.27        95.60096
315.72        96.33038
316.18        96.77075
316.63        97.00372
317.08        97.17447
317.53        97.36496
317.99        97.57056
318.44        97.79842
318.89        98.07892
319.35        98.42254
319.80        98.83237
320.25        99.36893
320.70         100.115
321.16        101.0256
321.61        102.0924
322.06        103.0865
322.51         103.658
322.97         103.721
323.42        103.3873
323.87        102.8917
324.32        102.6411
324.78        102.7352
325.23        103.1355
325.68        103.6816
326.13        104.0915
326.59        104.2644
327.04        104.3342
327.49        104.4174
327.94        104.7457
328.39        105.3605
328.85        106.1075
329.30        106.9073
329.75        107.4324
330.20        107.5922
330.66        107.4867
331.11        107.2589
331.56        107.0646
332.01        107.0039
332.46        107.0463
332.92        107.2303
333.37        107.7722
333.82        108.6312
334.27        109.7601
334.72         110.981
335.17        111.9854
335.63        112.6407
336.08        113.0633
336.53        113.2901
336.98        113.4781
337.43        113.6963
337.88        113.8969
338.34        114.1213
338.79        114.4631
339.24        114.9292
339.69        115.5336
340.14        116.1702
340.59        116.6339
341.05        116.8922
341.50        117.0125
341.95        117.1227
342.40        117.4539
342.85        118.0456
343.30        118.7801
343.75        119.5602
344.20         120.234
344.66        120.7519
345.11        121.1801
345.56        121.4426
346.01        121.4117
346.46        121.1237
346.91        120.6371
347.36        120.2544
347.81         120.435
348.26        121.2384
348.72        122.4972
349.17        123.8819
349.62        124.7481
350.07        124.9148
350.52        124.5926
350.97         124.048
351.42        123.6985
351.87        123.6778
352.32        123.8394
352.77         124.151
353.22        124.5742
353.67        125.0349
354.13         125.521
354.58        125.8813
355.03        125.8534
355.48        125.3856
355.93        124.5601
356.38        123.5111
356.83        122.4555
357.28        121.4851
357.73        120.5719
358.18        119.7443
358.63        119.0346
359.08         118.433
359.53        117.9327
359.98        117.4727
360.43        116.9422
360.88        116.3093
361.33        115.6009
361.78        114.8264
362.23        114.0116
362.68        113.1792
363.13        112.3248
363.58        111.5049
364.03        110.8086
364.48        110.2442
364.93        109.7826
365.38        109.3465
365.83        108.8091
366.28        108.1414
366.73        107.3856
367.18          106.59
367.63        105.8317
368.08        105.1314
368.53        104.4578
368.98        103.8144
369.43        103.2046
369.88        102.6333
370.33        102.1288
370.78        101.6404
371.23        101.0841
371.68        100.4429
372.13         99.7073
372.58        99.00803
373.03        98.56062
373.48        98.37691
373.93        98.38068
374.38        98.30899
374.83        97.73737
375.28         96.6207
375.72         95.1256
376.17        93.65047
376.62        92.60825
377.07         92.0875
377.52        91.92435
377.97        91.98116
378.42        92.03447
378.87        91.97596
379.32        91.86364
379.77        91.63212
380.22        91.17789
380.67         90.4963
381.11        89.60141
381.56          88.631
382.01        87.85198
382.46        87.35528
382.91        87.10425
383.36         86.9629
383.81        86.70427
384.26        86.26775
384.71        85.70096
385.15        85.13348
385.60        84.82678
386.05        84.78973
386.50        84.93347
386.95         85.0277
387.40        84.72845
387.85        84.00888
388.29         82.9782
388.74        82.01646
389.19        81.42284
389.64        81.24628
390.09        81.34223
390.54        81.55132
390.98        81.59686
391.43        81.42938
391.88        81.12823
392.33        80.70228
392.78        80.23452
393.23        79.77398
393.67        79.13028
394.12         78.4465
394.57        78.45333
395.02        78.02627
395.47        78.04633
395.91        78.11278
396.36        78.09074
396.81        77.94424
397.26         77.7171
397.71        77.46144
398.15        77.17146
398.60        76.94655
399.05        76.78891
399.50        76.64941
399.95        76.41802
400.39        75.87496
400.84        75.87366
401.29        76.22215
401.74        76.23131
402.18        75.84171
402.63        75.39561
403.08        75.06046
403.53        74.91782
403.97        74.98888
404.42        75.22571
404.87        75.46338
405.32         75.4222
405.76        75.03934
406.21        74.51487
406.66        73.97337
407.11        73.46925
407.55        73.17405
408.00        73.32285
408.45        73.80901
408.90        74.23979
409.34         74.4248
409.79        74.20999
410.24        73.77749
410.68        73.67602
411.13        73.95962
411.58        74.30579
412.03         74.5779
412.47        74.68982
412.92        74.56156
413.37        74.27003
413.81        73.86658
414.26        73.50525
414.71        73.19963
415.15        72.92838
415.60        72.71882
416.05        72.66786
416.49        72.78925
416.94        73.06004
417.39        73.35381
417.83        73.44202
418.28        73.28539
418.73         72.9471
419.17        72.58286
419.62        72.46197
420.07        72.61715
420.51        72.93147
420.96        73.29193
421.41        73.41135
421.85        73.20871
422.30        73.05178
422.74        72.89864
423.19        72.37505
423.64        71.67564
424.08        71.73162
424.53        72.46867
424.98        72.88956
425.42        72.88857
425.87        73.25871
426.31        73.84303
426.76        73.54101
427.21        72.43399
427.65        72.33133
428.10        73.07312
428.54        73.10687
428.99        72.45949
429.44        72.12015
429.88        72.16876
430.33        72.13377
430.77        72.06066
431.22        72.72126
431.66        73.82199
432.11        73.90637
432.56        72.99167
433.00        72.46427
433.45        72.76453
433.89        72.98478
434.34        73.72797
434.78        75.46988
435.23        72.60088
435.67        71.86588
436.12        71.80785
436.57        72.13058
437.01        72.65263
437.46        72.99647
437.90        73.14769
438.35        73.51159
438.79        74.03297
439.24        74.22086
439.68        74.10705
440.13        74.11452
440.57        74.28616
441.02        74.35715
441.46        74.28848
441.91        74.37213
442.35        74.56751
442.80        74.28341
443.24        74.91598
443.69        74.61979
444.13        73.96024
444.58        73.63924
445.02        73.65697
445.47        73.65138
445.91        73.59865
446.36        73.67204
446.80        73.83408
447.24        74.10587
447.69        74.39022
448.13        74.39947
448.58        74.18025
449.02        74.00271
449.47         73.9697
449.91        73.99625
450.36        74.11913
450.80        74.40668
451.25        74.76315
451.69        74.93636
452.13        74.88688
452.58        74.71915
453.02        74.51614
453.47         74.3883
453.91        74.35083
454.36        74.56094
454.80        74.61201
455.24        74.71262
455.69        74.73759
456.13        74.74641
456.58         74.7403
457.02        74.53775
457.46        74.22084
457.91        74.07531
458.35        74.05972
458.79         73.9655
459.24        73.81964
459.68        73.78226
460.13         73.8886
460.57        73.77655
461.01        73.97163
461.46        73.91973
461.90        73.79841
462.34        73.97595
462.79        74.27982
463.23        74.01645
463.68        73.28632
464.12        72.85944
464.56        72.79909
465.01         72.7189
465.45        72.60045
465.89        72.65664
466.34        72.80877
466.78        73.27502
467.22        73.40174
467.67        73.12603
468.11         73.2463
468.55        72.90309
468.99        72.48571
469.44        72.16772
469.88        72.00857
470.32        71.95671
470.77        71.95592
471.21        71.96243
471.65        71.93994
472.10        71.92515
472.54        71.92419
472.98         71.9858
473.42        72.10373
473.87        72.24849
474.31        72.35392
474.75         72.3484
475.20        72.21091
475.64        72.05011
476.08        71.95254
476.52        71.65881
476.97        71.11868
477.41        71.60047
477.85        71.23164
478.29        70.83878
478.74        71.69732
479.18        71.59483
479.62        71.19198
480.06        71.03628
480.50        71.17094
480.95        71.03577
481.39        71.79526
481.83        70.69643
482.27        71.59335
482.72        71.50155
483.16        71.44251
483.60        71.46301
484.04        71.57943
484.48        71.77581
484.93        71.81897
485.37        71.60925
485.81        70.76717
486.25        69.81856
486.69        71.04333
487.14        70.90741
487.58        70.78907
488.02        70.64988
488.46        71.23097
488.90        71.22469
489.34        70.50806
489.79        71.22292
490.23        70.58078
490.67        70.68666
491.11        70.69195
491.55        70.54947
491.99        70.29838
492.43        70.20134
492.88        70.29462
493.32         70.4359
493.76        70.58012
494.20        70.74703
494.64        70.91056
495.08        71.03429
495.52        71.10088
495.96        71.12456
496.41        71.12154
496.85        71.06562
497.29        70.88478
497.73        70.90104
498.17        70.34845
498.61        70.08459
499.05        69.97007
499.49        70.10738
499.93        70.38309
500.37        70.49554
500.82        70.45388
501.26         70.2771
501.70        70.48386
502.14         70.4604
502.58        70.30019
503.02        70.28191
503.46        70.39966
503.90        70.58709
504.34        70.77428
504.78         70.8751
505.22        70.84795
505.66        70.71516
506.10        70.54424
506.54        70.45986
506.98        70.41792
507.42        70.67561
507.86        70.01196
508.30        70.29871
508.74        69.91219
509.18        69.79427
509.62        69.62415
510.06         69.6143
510.50        69.78195
510.94        70.07164
511.38        70.38048
511.82        70.50345
512.26        70.39581
512.70        70.11855
513.14        69.79288
513.58        69.61013
514.02        69.62617
514.46        69.76373
514.90        69.92547
515.34         70.0323
515.78        70.06155
516.22         69.7396
516.66        69.70117
517.10        69.61501
517.54        69.67252
517.98        69.81634
518.42        69.97894
518.86        70.04627
519.30        69.98569
519.74        69.84123
520.18        69.67726
520.62        69.58897
521.06        69.60549
521.50        69.70571
521.93        69.84307
522.37        69.91854
522.81        69.91711
523.25        69.85978
523.69        69.81161
524.13        69.87315
524.57        70.05492
525.01        70.31413
525.45        70.55298
525.89         70.6162
526.32        70.46201
526.76        70.16949
527.20        69.83369
527.64        69.60496
528.08        69.52605
528.52        69.55393
528.96        69.64042
529.40        69.70872
529.83        69.72395
530.27        69.71384
530.71        69.68746
531.15        69.66314
531.59        69.64552
532.03        69.62679
532.46        69.57748
532.90        69.48495
533.34        69.34888
533.78        69.18992
534.22        69.05742
534.66        69.02277
535.09         69.0897
535.53        69.24432
535.97        69.42873
536.41        69.56438
536.85        69.62309
537.28        69.61963
537.72         69.5703
538.16        69.49938
538.60        69.41972
539.04        69.32242
539.47        69.19479
539.91        69.11283
540.35        69.07343
540.79        69.01575
541.22        68.90693
541.66        69.05901
542.10        68.89681
542.54        68.88454
542.97        68.86945
543.41        68.91023
543.85        68.99709
544.29        69.13145
544.72        69.24715
545.16        69.26633
545.60        69.17365
546.04        68.96256
546.47        68.72057
546.91        68.72555
547.35        68.96729
547.79        69.11633
548.22        69.07507
548.66        69.33533
549.10        69.45309
549.53        69.42638
549.97        69.04984
550.41         69.6498
550.84        69.15213
551.28        69.09736
551.72        68.87312
552.15         69.1392
552.59        69.00076
553.03        69.02131
553.46        68.96924
553.90        68.94039
554.34        68.90777
554.77        69.06723
555.21        69.04358
555.65        68.96349
556.08        68.77834
556.52        68.82349
556.96        69.04707
557.39        69.18301
557.83        69.21374
558.27        69.17461
558.70        69.11607
559.14        69.18362
559.57         69.3298
560.01        69.40276
560.45        69.39835
560.88         69.2467
561.32        69.29588
561.75        69.25864
562.19        69.23123
562.63        69.03857
563.06        68.75925
563.50         68.7854
563.93        69.02905
564.37        69.10167
564.80        68.95928
565.24        68.84705
565.68        68.79298
566.11         68.7757
566.55        68.81367
566.98        68.83813
567.42         68.9072
567.85        68.95171
568.29        68.96245
568.72        69.16025
569.16        69.65613
569.60        69.06048
570.03        69.44617
570.47        69.63702
570.90        69.49893
571.34        69.05659
571.77        69.40331
572.21        69.46984
572.64        69.56838
573.08         69.4653
573.51        69.19502
573.95         69.2131
574.38         69.6161
574.82        69.11926
