SpectraSmart Spectrum 2.9.0.0
--------- Device Information -----------
Spectrum Name :  反射率_0
Saving Time :  2024/04/30 00:30:25
Spectro-Module Model Name : SE2030-DUVN
Spectro-Module Serial Number : OS361AC55029948
Wavelength Start : 200
Wavelength End : 1025
Wavelength Unit : Wavelength(nm)
Spectrum Unit : Reflectance(%)
-----------Spectrum Setting ------------
Integration Time : 20ms
Average : 10
Boxcar : 0
Background removal :  enabled
linearity correction :  enabled
SC :  disabled
Intensity correction :  disabled
DWT denoise :  enabled
savitzky-golay :  disabled
FFT :  disabled
Running average :  disabled
Kalman :  disabled
High pass :  disabled
---------------BEGIN--------------------
Wavelength(nm)             Reflectance(%)
200.29               0
200.75        74.68066
201.21        62.43268
201.67        50.05443
202.13          41.947
202.58        40.20585
203.04        44.45305
203.50        54.06921
203.96        66.74189
204.42        79.79919
204.88        92.11207
205.34        99.38999
205.80        97.21474
206.26        88.28813
206.72        77.18506
207.18        67.41746
207.64        60.59048
208.10        55.94408
208.55        52.34796
209.01        49.88186
209.47        49.84196
209.93        52.03596
210.39        55.58303
210.85        58.60406
211.31        59.54073
211.77        58.26237
212.23        54.47907
212.69        48.85399
213.14        46.34734
213.60        48.94434
214.06        54.38598
214.52        59.14089
214.98        60.86999
215.44        60.09293
215.90        57.82829
216.36        55.62625
216.81        56.46186
217.27        61.95984
217.73        72.22054
218.19        86.38138
218.65        97.04763
219.11        98.26499
219.57        92.31972
220.02        84.30468
220.48         78.0135
220.94        72.56405
221.40        66.20226
221.86        58.20821
222.32        50.69878
222.77        46.60758
223.23        46.21476
223.69        47.00373
224.15        46.99866
224.61        45.96483
225.06        43.97075
225.52        42.14503
225.98        42.55291
226.44        45.07764
226.90        48.21262
227.36        50.22515
227.81        49.85476
228.27        47.32422
228.73        42.98031
229.19        38.20501
229.65        36.16538
230.10        37.48316
230.56        40.48584
231.02        43.19794
231.48        43.89803
231.93        42.54491
232.39        39.88375
232.85        36.71304
233.31        34.58944
233.77        34.09938
234.22        34.86357
234.68         36.2121
235.14        36.92484
235.60        36.65765
236.05        35.88731
236.51        35.31727
236.97        35.82088
237.43        37.69836
237.88        41.00735
238.34         45.4124
238.80         49.6638
239.26        52.40165
239.71        53.66455
240.17        53.76817
240.63        53.90467
241.08        54.68863
241.54        55.86786
242.00        58.30513
242.46        63.48207
242.91        71.33524
243.37         79.8278
243.83        86.09753
244.28        89.05683
244.74         89.2383
245.20        86.22839
245.66        81.86234
246.11         80.9173
246.57         85.6673
247.03        96.15293
247.48        107.7527
247.94        109.1219
248.40        100.6674
248.85        89.13902
249.31        81.16726
249.77        79.35031
250.22        83.38359
250.68        93.40208
251.14         109.491
251.59        119.6762
252.05        114.2864
252.51        102.5427
252.96        92.33344
253.42        86.36743
253.88        82.61765
254.33        79.29929
254.79        76.19691
255.25        73.35081
255.70        71.03831
256.16        69.75071
256.62        68.88943
257.07        67.80901
257.53        66.69124
257.99        65.34545
258.44        63.51355
258.90        61.72525
259.35        59.86363
259.81        58.32272
260.27        56.97921
260.72        55.72617
261.18        54.64367
261.63        53.44464
262.09        52.24504
262.55        50.90628
263.00          49.441
263.46        48.12109
263.91        46.77774
264.37        45.45503
264.83         44.0852
265.28        42.61969
265.74        41.37122
266.19         40.6199
266.65        40.43046
267.11        40.60802
267.56        40.78971
268.02        40.45402
268.47        39.48014
268.93        38.04192
269.38        36.38278
269.84        35.05872
270.30        34.23772
270.75        33.76837
271.21         33.4692
271.66        33.04474
272.12        32.40513
272.57        31.62373
273.03        30.79795
273.48        29.99479
273.94        29.29991
274.39        28.64374
274.85        28.02727
275.31        27.39797
275.76        26.73296
276.22        26.07862
276.67         25.4545
277.13         24.9564
277.58         24.5575
278.04        24.26452
278.49         23.9677
278.95        23.58723
279.40        23.07987
279.86        22.53704
280.31        22.01725
280.77        21.70993
281.22        21.60323
281.68        21.65027
282.13        21.74557
282.59        21.77892
283.04        21.70608
283.50        21.55681
283.95        21.35541
284.41        21.13921
284.86        20.92781
285.32        20.75739
285.77        20.59039
286.22        20.43591
286.68        20.31021
287.13         20.1742
287.59        20.12842
288.04        20.27144
288.50        20.60442
288.95        21.05376
289.41        21.45392
289.86        21.52981
290.32        21.27881
290.77        20.81263
291.22        20.34488
291.68        20.20794
292.13        20.48529
292.59        21.09404
293.04        21.95127
293.50        22.95667
293.95        24.06098
294.40        25.30312
294.86        26.61448
295.31        27.89374
295.77         29.1154
296.22        30.28185
296.68         31.4854
297.13        32.86076
297.58        34.44165
298.04        36.15373
298.49        37.91453
298.95        39.59659
299.40         41.1628
299.85        42.66998
300.31        44.16739
300.76        45.65687
301.21        47.19431
301.67        48.79799
302.12        50.48139
302.58        52.41153
303.03        54.56281
303.48        56.79797
303.94        59.04551
304.39        61.56948
304.84        63.63816
305.30         65.8212
305.75        67.85766
306.20        69.73854
306.66        71.48034
307.11        73.05125
307.57        74.55122
308.02        76.01587
308.47        77.51273
308.93        79.03775
309.38        80.57124
309.83        82.14907
310.29         83.7543
310.74        85.35384
311.19        86.84062
311.65        88.03905
312.10        88.91273
312.55        89.53685
313.00        90.10551
313.46        90.93044
313.91        92.05959
314.36        93.40044
314.82        94.76453
315.27        95.87138
315.72        96.61287
316.18        97.07742
316.63        97.34767
317.08        97.56934
317.53         97.8195
317.99        98.09511
318.44        98.37859
318.89        98.66152
319.35        98.94648
319.80        99.24268
320.25        99.65019
320.70        100.3162
321.16        101.2143
321.61        102.3304
322.06        103.3855
322.51        103.9419
322.97        103.8992
323.42        103.3968
323.87        102.7559
324.32        102.5171
324.78        102.8028
325.23        103.5291
325.68        104.4244
326.13        105.0197
326.59        105.1537
327.04        105.0016
327.49        104.7809
327.94        104.8925
328.39        105.4285
328.85        106.2004
329.30        107.0386
329.75        107.4569
330.20        107.3359
330.66        106.8431
331.11        106.2581
331.56        105.9433
332.01        106.0435
332.46        106.4585
332.92        107.0923
333.37        107.9282
333.82        108.8414
334.27        109.8388
334.72        110.8238
335.17        111.6349
335.63        112.1932
336.08        112.5708
336.53        112.7703
336.98        112.8943
337.43        112.9991
337.88        113.0736
338.34        113.1886
338.79         113.469
339.24        113.9312
339.69         114.575
340.14        115.2746
340.59        115.7973
341.05         116.096
341.50        116.2355
341.95        116.3533
342.40        116.6994
342.85        117.3129
343.30        118.0684
343.75        118.8447
344.20        119.4492
344.66        119.8399
345.11         120.121
345.56        120.2556
346.01        120.1765
346.46        119.9319
346.91        119.5363
347.36        119.3043
347.81        119.7187
348.26         120.816
348.72        122.4158
349.17        124.0517
349.62        124.8552
350.07        124.6191
350.52         123.643
350.97        122.4073
351.42        121.6508
351.87        121.5823
352.32          121.97
352.77        122.6326
353.22        123.2785
353.67        123.7591
354.13        124.1391
354.58        124.3554
355.03        124.2875
355.48         123.915
355.93        123.2452
356.38        122.3529
356.83        121.3796
357.28         120.394
357.73        119.4065
358.18        118.4549
358.63         117.578
359.08        116.7865
359.53        116.0812
359.98         115.449
360.43        114.8529
360.88        114.2763
361.33        113.7286
361.78        113.1692
362.23        112.5401
362.68        111.8346
363.13        111.0575
363.58        110.2917
364.03        109.6735
364.48        109.2191
364.93        108.8798
365.38        108.5347
365.83        107.9931
366.28        107.2163
366.73        106.2691
367.18        105.2647
367.63        104.3789
368.08        103.6538
368.53        103.0336
368.98        102.4546
369.43        101.8068
369.88        101.0759
370.33        100.3387
370.78        99.62016
371.23        98.95637
371.68        98.36569
372.13        97.79725
372.58        97.33984
373.03        97.14306
373.48        97.18493
373.93        97.39739
374.38         97.4987
374.83        97.03576
375.28        95.95634
375.72        94.42738
376.17        92.87115
376.62        91.74307
377.07        91.14642
377.52        90.91624
377.97        90.91115
378.42         90.8967
378.87        90.76781
379.32        90.59515
379.77         90.3238
380.22        89.86185
380.67        89.20348
381.11         88.3511
381.56        87.43385
382.01        86.70573
382.46          86.249
382.91        86.03017
383.36        85.90312
383.81        85.62494
384.26         85.1423
384.71        84.51851
385.15        83.91029
385.60         83.6215
386.05        83.66692
386.50        83.93101
386.95        84.17274
387.40        84.03094
387.85        83.45466
388.29        82.54803
388.74        81.64909
389.19        80.99704
389.64         80.6474
390.09        80.49313
390.54        80.43663
390.98        80.30917
391.43        80.09158
391.88        79.82078
392.33        79.49508
392.78        79.15948
393.23        78.82351
393.67        78.36773
394.12        77.87302
394.57         77.7739
395.02        77.05785
395.47        77.12584
395.91        77.52292
396.36        77.54493
396.81        77.14076
397.26        76.70571
397.71        76.33041
398.15         75.9632
398.60        75.72526
399.05        75.50791
399.50        75.30466
399.95        75.34113
400.39        75.27665
400.84        75.29433
401.29        75.22726
401.74        75.12027
402.18        74.90695
402.63        74.29514
403.08        73.53918
403.53        73.26589
403.97        73.53021
404.42         74.0508
404.87        74.56483
405.32        74.71421
405.76        74.37856
406.21        73.75655
406.66        73.06294
407.11        72.47401
407.55        72.19942
408.00        72.55315
408.45        73.32633
408.90        73.71329
409.34          73.575
409.79        73.28965
410.24        73.04829
410.68        73.00694
411.13        73.21654
411.58        73.59318
412.03        73.97281
412.47        74.09656
412.92        73.87315
413.37        73.44041
413.81        72.90414
414.26         72.4939
414.71        72.23882
415.15        72.08523
415.60        72.02857
416.05        72.11243
416.49        72.32816
416.94        72.66965
417.39        73.00789
417.83        73.11378
418.28        72.95329
418.73         72.5822
419.17        72.19176
419.62        72.11095
420.07         72.3842
420.51        72.88078
420.96        73.42352
421.41        73.64348
421.85        73.43916
422.30        73.14655
422.74        72.81688
423.19        72.32194
423.64        71.84038
424.08        72.03596
424.53         72.7597
424.98        73.18678
425.42         73.2081
425.87        73.27132
426.31        73.40014
426.76        73.34163
427.21        72.98964
427.65        72.97495
428.10        73.13671
428.54        72.87161
428.99        72.31082
429.44        71.92612
429.88        71.84326
430.33        72.10381
430.77        72.52014
431.22        73.06297
431.66        73.57084
432.11        73.37743
432.56        72.61617
433.00        72.45732
433.45        73.19632
433.89        73.11711
434.34        73.83324
434.78        75.08046
435.23        72.60377
435.67        71.95935
436.12        71.94418
436.57        72.21779
437.01        72.61654
437.46        72.90636
437.90        73.07156
438.35        73.41261
438.79        73.86895
439.24        74.00017
439.68         73.8142
440.13        73.79323
440.57        74.01965
441.02        74.06812
441.46        73.85395
441.91        74.73033
442.35         74.4486
442.80        74.72163
443.24        74.84174
443.69        74.63619
444.13        74.17155
444.58         73.8693
445.02        73.72885
445.47        73.63577
445.91        73.62233
446.36        73.64629
446.80        73.64381
447.24        74.32276
447.69        74.35461
448.13        74.57497
448.58        74.60229
449.02        74.48848
449.47        74.33375
449.91        74.28491
450.36        74.40211
450.80        74.60747
451.25        74.84189
451.69        74.97379
452.13        74.97507
452.58        74.91807
453.02        74.83674
453.47        74.76328
453.91        74.69466
454.36        74.80965
454.80        74.74652
455.24        74.79923
455.69        74.84767
456.13        74.90987
456.58        74.96696
457.02        74.78269
457.46        74.42632
457.91        74.38142
458.35         74.2654
458.79        74.18739
459.24        74.09615
459.68        74.00277
460.13        73.88339
460.57        74.13395
461.01        74.05034
461.46        73.95567
461.90        73.64187
462.34        74.15263
462.79         74.2157
463.23          74.062
463.68        73.45133
464.12        73.10969
464.56         73.0964
465.01        73.02262
465.45        72.84518
465.89        72.87286
466.34        73.07655
466.78        73.10551
467.22        73.16482
467.67        73.04982
468.11        72.85748
468.55        72.51416
468.99        72.12023
469.44        71.84412
469.88        71.72397
470.32        71.73678
470.77        71.81448
471.21         71.8661
471.65        71.84282
472.10        71.78403
472.54        71.73066
472.98        71.74915
473.42        71.83459
473.87          72.071
474.31        72.33248
474.75        72.16404
475.20        71.68204
475.64        71.64461
476.08        72.03162
476.52        71.87926
476.97        71.31155
477.41        71.35835
477.85        71.03961
478.29        70.57847
478.74        71.40957
479.18        71.31417
479.62          70.883
480.06        70.79855
480.50        71.11629
480.95        70.93065
481.39        71.35757
481.83        71.05091
482.27        71.67126
482.72        71.64417
483.16        71.46359
483.60        71.46037
484.04        71.62508
484.48        71.94629
484.93        72.28509
485.37        71.93029
485.81        70.72549
486.25        70.69964
486.69         72.1487
487.14        71.41026
487.58        70.96088
488.02        70.65731
488.46        71.42041
488.90        71.21941
489.34         70.8763
489.79        71.07462
490.23        70.76829
490.67        70.68214
491.11        70.46387
491.55        70.28214
491.99        70.16759
492.43        70.13061
492.88        70.17422
493.32        70.41706
493.76        70.63235
494.20        70.88463
494.64        71.07478
495.08        71.27787
495.52        71.44942
495.96        71.30042
496.41        70.91908
496.85        70.87683
497.29        71.09084
497.73        70.79024
498.17        70.27619
498.61        69.98438
499.05        70.04979
499.49        70.27656
499.93          70.522
500.37        70.43299
500.82        70.06642
501.26        69.95715
501.70        70.12817
502.14        70.22364
502.58         70.2318
503.02        70.31132
503.46        70.45914
503.90        70.62731
504.34        70.77364
504.78        70.83176
505.22        70.76266
505.66        70.62241
506.10        70.48974
506.54        70.37014
506.98        70.21923
507.42        70.78381
507.86        70.13162
508.30        70.49181
508.74        70.02469
509.18        69.77406
509.62        69.47467
510.06        69.41623
510.50        69.64107
510.94        70.05785
511.38        70.51537
511.82        70.72569
512.26        70.62035
512.70        70.29175
513.14        69.87304
513.58        69.60021
514.02        69.54525
514.46        69.58265
514.90        69.64058
515.34        69.92219
515.78        69.88514
516.22        69.95813
516.66        70.00205
517.10        70.03738
517.54        70.06267
517.98        70.07508
518.42        70.05182
518.86         69.9521
519.30        69.77979
519.74        69.55788
520.18        69.36056
520.62        69.28246
521.06        69.35373
521.50        69.58557
521.93        69.87943
522.37        70.02013
522.81        69.97228
523.25        69.79175
523.69        69.61248
524.13        69.63881
524.57        69.90217
525.01        70.32771
525.45        70.74274
525.89        70.86905
526.32        70.63799
526.76        70.17287
527.20        69.64358
527.64        69.31321
528.08        69.24943
528.52        69.36887
528.96         69.5715
529.40        69.69895
529.83        69.69461
530.27         69.6195
530.71        69.50829
531.15        69.41682
531.59        69.36537
532.03        69.33046
532.46        69.28938
532.90        69.24283
533.34        69.18484
533.78        69.12949
534.22        69.09685
534.66        69.11147
535.09        69.16934
535.53        69.27204
535.97        69.38596
536.41        69.47456
536.85        69.52264
537.28        69.53077
537.72        69.51146
538.16        69.48093
538.60        69.44433
539.04         69.4006
539.47        69.32587
539.91        69.24162
540.35        69.13481
540.79        69.02087
541.22         68.9171
541.66        68.86105
542.10        68.85572
542.54        68.89599
542.97        68.95466
543.41         69.0088
543.85        69.04054
544.29        69.07006
544.72         69.0733
545.16        69.05149
545.60        69.00433
546.04        68.90295
546.47        68.80021
546.91        68.88932
547.35        69.13605
547.79        69.28491
548.22        69.27673
548.66        69.39193
549.10        69.62889
549.53         69.6171
549.97        69.26162
550.41          69.845
550.84        69.28265
551.28        69.16278
551.72        68.87334
552.15         69.0218
552.59        68.76069
553.03        68.78242
553.46        68.83624
553.90        68.90094
554.34        68.94535
554.77        69.05836
555.21        69.22692
555.65        69.12825
556.08        69.05458
556.52        69.06759
556.96        69.22687
557.39        69.33615
557.83        69.35526
558.27        69.47746
558.70        69.28403
559.14        69.37937
559.57        69.56844
560.01        69.75114
560.45        69.85454
560.88        69.56712
561.32        69.32702
561.75        69.21078
562.19        69.31735
562.63        69.22712
563.06        68.97683
563.50          68.994
563.93        69.20213
564.37        69.27639
564.80        69.17401
565.24        69.06559
565.68        68.98312
566.11        68.97032
566.55        69.04082
566.98        69.07056
567.42        69.11494
567.85        69.15054
568.29        69.16536
568.72        69.34863
569.16         69.8681
569.60        69.35636
570.03        69.52859
570.47        70.08665
570.90        70.00423
571.34        69.66958
571.77        70.04044
572.21        70.03404
572.64         69.9995
573.08        70.05511
573.51        69.61918
573.95        69.85321
574.38        70.26425
574.82        70.02747
