SpectraSmart Spectrum 2.9.0.0
--------- Device Information -----------
Spectrum Name :  反射率_0
Saving Time :  2024/04/30 00:17:33
Spectro-Module Model Name : SE2030-DUVN
Spectro-Module Serial Number : OS361AC55029948
Wavelength Start : 200
Wavelength End : 1025
Wavelength Unit : Wavelength(nm)
Spectrum Unit : Reflectance(%)
-----------Spectrum Setting ------------
Integration Time : 20ms
Average : 10
Boxcar : 0
Background removal :  enabled
linearity correction :  enabled
SC :  disabled
Intensity correction :  disabled
DWT denoise :  enabled
savitzky-golay :  disabled
FFT :  disabled
Running average :  disabled
Kalman :  disabled
High pass :  disabled
---------------BEGIN--------------------
Wavelength(nm)             Reflectance(%)
200.29               0
200.75        64.15871
201.21        52.25203
201.67        40.14509
202.13        32.92402
202.58         32.9059
203.04        39.25671
203.50         50.8196
203.96        64.50739
204.42         77.0334
204.88        87.29896
205.34        91.44988
205.80        85.98657
206.26        74.59368
206.72        62.25607
207.18        51.86654
207.64        44.39202
208.10        39.00059
208.55        34.41989
209.01        31.88659
209.47        34.66058
209.93        41.90602
210.39        51.05339
210.85        58.37201
211.31        61.09528
211.77        59.26278
212.23        52.62484
212.69        42.19287
213.14        36.30618
213.60        39.47352
214.06        47.73679
214.52        55.49902
214.98        59.03702
215.44        59.01444
215.90        57.10911
216.36        55.09822
216.81        56.23403
217.27        62.32471
217.73        73.31923
218.19        88.54937
218.65        100.8277
219.11        103.6965
219.57         98.9381
220.02        91.45242
220.48        85.16802
220.94        79.27104
221.40        71.91504
221.86        62.23529
222.32        52.88984
222.77        47.46156
223.23        46.14853
223.69        46.19917
224.15         45.1721
224.61        42.70201
225.06        39.09612
225.52        35.39516
225.98        33.98154
226.44        35.34433
226.90        37.88983
227.36        40.15902
227.81        41.26085
228.27        41.31985
228.73        40.66291
229.19         39.7725
229.65        39.57661
230.10        40.18163
230.56        41.08414
231.02        41.67048
231.48         41.4147
231.93        40.27275
232.39         38.5505
232.85        36.58382
233.31        35.09347
233.77        34.39429
234.22         34.4275
234.68        34.86537
235.14        35.09686
235.60        34.98196
236.05        34.70815
236.51        34.81059
236.97        36.01431
237.43        38.59315
237.88        42.80132
238.34        48.11366
238.80         52.5808
239.26        54.51105
239.71        54.07964
240.17        52.47358
240.63        52.01918
241.08        53.69481
241.54        57.72167
242.00        65.25859
242.46        75.32938
242.91        84.16848
243.37        89.17186
243.83        90.73026
244.28        92.00284
244.74         94.1743
245.20        95.99495
245.66        97.93929
246.11        101.1667
246.57        105.7542
247.03        112.9353
247.48        118.9571
247.94        115.3937
248.40        104.5234
248.85        92.00445
249.31        83.81969
249.77        82.01685
250.22        86.07162
250.68        96.40187
251.14         112.633
251.59         121.286
252.05        113.2286
252.51        99.31052
252.96        88.17324
253.42        82.52153
253.88        80.10395
254.33        79.04039
254.79        78.75069
255.25        78.01247
255.70        76.53816
256.16        75.36491
256.62        74.49941
257.07        73.78987
257.53        73.43934
257.99        73.01903
258.44        71.94047
258.90        70.33129
259.35        68.07204
259.81        65.90701
260.27        63.97508
260.72        62.36015
261.18        61.15502
261.63        59.96629
262.09        58.78526
262.55        57.28745
263.00        55.50203
263.46        53.81419
263.91        52.20004
264.37        50.91541
264.83        49.85604
265.28        48.85619
265.74        48.06041
266.19        47.47047
266.65        47.12075
267.11        46.93896
267.56        46.68004
268.02        45.99443
268.47        44.80132
268.93        43.20416
269.38        41.47331
269.84          40.213
270.30        39.56789
270.75        39.36789
271.21        39.28046
271.66         38.7748
272.12        37.74757
272.57        36.35411
273.03        34.88985
273.48        33.73544
273.94        33.05592
274.39        32.67199
274.85        32.43888
275.31        32.08867
275.76         31.5402
276.22        30.90513
276.67        30.25747
277.13        29.78857
277.58        29.47003
278.04        29.25722
278.49        28.98558
278.95        28.51913
279.40        27.81158
279.86        27.01916
280.31        26.22196
280.77        25.64689
281.22        25.30746
281.68        25.15377
282.13        25.14156
282.59        25.25589
283.04         25.4368
283.50        25.67341
283.95        25.84834
284.41         25.7916
284.86        25.48119
285.32        25.02529
285.77         24.5217
286.22        24.18501
286.68        24.07621
287.13        24.09684
287.59          24.243
288.04        24.44795
288.50        24.68224
288.95        24.92172
289.41        25.11723
289.86        25.15277
290.32        25.05046
290.77        24.86267
291.22        24.66511
291.68        24.57521
292.13        24.63865
292.59        24.85926
293.04        25.31086
293.50        26.12604
293.95        27.30052
294.40        28.79923
294.86        30.42921
295.31        31.89139
295.77        33.10647
296.22        34.13674
296.68         35.1652
297.13        36.46661
297.58        38.10821
298.04        39.96184
298.49        41.86819
298.95        43.59115
299.40        45.06841
299.85        46.40197
300.31        47.70432
300.76        49.06525
301.21        50.56187
301.67        52.17968
302.12        53.89107
302.58        55.80379
303.03        57.87742
303.48        60.01364
303.94        62.16117
304.39        64.57395
304.84        66.58723
305.30        68.71904
305.75        70.73266
306.20         72.6389
306.66        74.44418
307.11        76.08871
307.57        77.64316
308.02        79.09624
308.47        80.50432
308.93        81.88193
309.38        83.20103
309.83        84.49075
310.29        85.75292
310.74        86.96856
311.19        88.09736
311.65         89.0618
312.10        89.84151
312.55        90.48582
313.00          91.116
313.46        91.92334
313.91        92.92556
314.36        94.06381
314.82        95.20521
315.27        96.16328
315.72        96.85549
316.18        97.33668
316.63        97.65034
317.08        97.88302
317.53        98.09279
317.99         98.2962
318.44        98.49549
318.89         98.7103
319.35        98.95261
319.80        99.22176
320.25        99.60293
320.70        100.2233
321.16        101.0499
321.61        102.0714
322.06        103.0307
322.51        103.5262
322.97        103.4645
323.42        102.9781
323.87        102.3476
324.32        102.0483
324.78        102.1941
325.23        102.7244
325.68        103.4296
326.13        103.9455
326.59         104.141
327.04        104.1627
327.49        104.1683
327.94        104.4613
328.39        105.1008
328.85        105.9153
329.30        106.7707
329.75        107.2469
330.20        107.2374
330.66        106.8814
331.11        106.4093
331.56        106.1103
332.01        106.1177
332.46        106.3659
332.92        106.8149
333.37        107.5406
333.82        108.4521
334.27        109.5303
334.72         110.654
335.17        111.6161
335.63        112.3114
336.08        112.8193
336.53        113.1177
336.98        113.2708
337.43        113.3275
337.88        113.2804
338.34         113.237
338.79        113.3865
339.24        113.7653
339.69         114.366
340.14        115.0416
340.59        115.5163
341.05        115.7392
341.50        115.8013
341.95         115.868
342.40        116.2287
342.85        116.9302
343.30        117.8229
343.75        118.7695
344.20        119.5565
344.66        120.1188
345.11        120.5502
345.56        120.7884
346.01         120.727
346.46        120.4173
346.91        119.9072
347.36        119.5306
347.81        119.7992
348.26        120.7673
348.72        122.2419
349.17        123.8215
349.62        124.7398
350.07        124.7879
350.52        124.2249
350.97        123.3758
351.42        122.7457
351.87         122.506
352.32        122.4971
352.77        122.7062
353.22        123.1202
353.67        123.6646
354.13        124.3235
354.58        124.9013
355.03        125.0597
355.48        124.7163
355.93        123.9501
356.38        122.9238
356.83         121.907
357.28        121.0025
357.73        120.1738
358.18        119.4025
358.63        118.6467
359.08           117.9
359.53        117.1975
359.98        116.5708
360.43        116.0522
360.88        115.6296
361.33        115.2624
361.78        114.8709
362.23        114.3428
362.68        113.6494
363.13        112.8242
363.58         111.926
364.03         111.048
364.48        110.2316
364.93        109.4685
365.38        108.7542
365.83        108.0816
366.28        107.4477
366.73        106.8501
367.18        106.3022
367.63        105.8179
368.08        105.3744
368.53        104.9466
368.98        104.4584
369.43        103.7899
369.88         102.939
370.33         101.979
370.78        101.0012
371.23        100.1589
371.68        99.50613
372.13        98.98154
372.58        98.61449
373.03        98.44523
373.48        98.42172
373.93        98.49996
374.38         98.4611
374.83        97.95605
375.28        96.94994
375.72        95.56927
376.17        94.14671
376.62          93.008
377.07        92.24036
377.52        91.72857
377.97        91.43143
378.42        91.28194
378.87        91.21216
379.32        91.22574
379.77        91.18553
380.22        90.87692
380.67        90.26272
381.11        89.39719
381.56        88.41793
382.01        87.59288
382.46        87.02527
382.91        86.66727
383.36        86.44244
383.81         86.2207
384.26        85.94872
384.71        85.64454
385.15        85.33617
385.60        85.12295
386.05        84.98296
386.50         84.8772
386.95         84.6794
387.40        84.21904
387.85        83.50109
388.29        82.56306
388.74        81.71212
389.19         81.1476
389.64        80.91344
390.09        80.92365
390.54        81.02523
390.98        81.03002
391.43        80.91892
391.88        80.50938
392.33        79.94982
392.78        79.93842
393.23        80.21795
393.67        79.61192
394.12        78.46162
394.57         77.7267
395.02        77.90234
395.47        77.96918
395.91        77.94608
396.36        77.88319
396.81        77.74845
397.26         77.5136
397.71        77.24596
398.15        76.97928
398.60         76.8062
399.05        76.77866
399.50         76.7991
399.95        76.55326
400.39        75.87956
400.84        75.94489
401.29        76.51347
401.74        76.59869
402.18        76.07626
402.63        75.31278
403.08        74.59759
403.53          74.279
403.97        74.41225
404.42        74.80583
404.87        75.21792
405.32         75.2851
405.76        74.91105
406.21        74.35329
406.66        73.74712
407.11        73.13328
407.55        72.73574
408.00        72.82015
408.45        73.30907
408.90        73.95966
409.34        74.46735
409.79        74.23487
410.24        73.50407
410.68        73.30724
411.13        73.72276
411.58         74.1499
412.03        74.40563
412.47        74.46968
412.92         74.2605
413.37        73.84245
413.81        73.33074
414.26        72.97249
414.71        72.79029
415.15        72.73232
415.60        72.75272
416.05         72.8184
416.49        72.90867
416.94        73.04475
417.39        73.15384
417.83        73.09853
418.28        72.86803
418.73        72.48919
419.17        72.12294
419.62        72.04553
420.07        72.28938
420.51        72.75285
420.96        73.25312
421.41        73.42625
421.85        73.18542
422.30        72.81127
422.74        72.40681
423.19        72.05215
423.64        71.85869
424.08        72.16278
424.53        72.81806
424.98         73.2252
425.42        73.26877
425.87        73.38615
426.31        73.54118
426.76        73.12624
427.21        72.19894
427.65        72.17616
428.10        72.83701
428.54        72.75178
428.99        72.01234
429.44          71.647
429.88        71.76676
430.33        71.98797
430.77        72.22082
431.22        72.91592
431.66        73.83303
432.11        73.80067
432.56        72.92734
433.00        72.67194
433.45        73.26018
433.89        73.39749
434.34        73.40942
434.78         74.5996
435.23        72.83909
435.67        72.39046
436.12         72.2084
436.57        72.21972
437.01        72.30795
437.46        72.93705
437.90        72.79513
438.35         73.2398
438.79        73.78622
439.24        74.00771
439.68        73.90845
440.13        73.90474
440.57        74.09017
441.02        74.14906
441.46        74.03147
441.91        74.24809
442.35        74.71852
442.80        73.99593
443.24        74.58802
443.69        74.26704
444.13        73.88066
444.58        73.68847
445.02        73.69114
445.47        73.75368
445.91        73.81216
446.36        73.90326
446.80        73.98267
447.24        74.09418
447.69        74.21896
448.13        74.21945
448.58        74.14717
449.02        74.17027
449.47         74.2959
449.91        74.34447
450.36        74.32433
450.80        74.31772
451.25        74.34158
451.69        74.33854
452.13        74.31906
452.58         74.3311
453.02        74.34961
453.47        74.35565
453.91        74.32488
454.36        74.34028
454.80        74.14712
455.24        74.32471
455.69        74.60387
456.13        74.63644
456.58        74.55896
457.02        73.37717
457.46        73.78006
457.91        73.59538
458.35        73.54451
458.79        73.53014
459.24        73.58291
459.68        73.77043
460.13        74.04572
460.57        74.04686
461.01        74.29647
461.46        74.14718
461.90        73.77687
462.34        74.18156
462.79        74.16984
463.23          73.897
463.68        73.17511
464.12        72.75816
464.56        72.69147
465.01        72.72491
465.45        72.74149
465.89        72.58549
466.34        72.31281
466.78        72.57642
467.22        72.84487
467.67        72.81137
468.11         72.5135
468.55        72.08239
468.99        71.68124
469.44        71.34525
469.88        71.12453
470.32        71.01922
470.77        71.00258
471.21        71.04782
471.65        71.11008
472.10        71.23874
472.54        71.40405
472.98         71.4941
473.42         71.4671
473.87        71.75716
474.31        71.61438
474.75        71.56972
475.20        71.43597
475.64        71.42942
476.08        71.52646
476.52        71.34333
476.97        70.83829
477.41        71.09254
477.85        70.27077
478.29        70.47369
478.74        70.99941
479.18        71.04465
479.62        70.65953
480.06        70.58842
480.50        70.87035
480.95        70.77256
481.39        71.42326
481.83        70.63924
482.27        71.35361
482.72        71.12849
483.16        71.20821
483.60        71.23393
484.04        71.34173
484.48        71.59749
484.93        71.78821
485.37        71.59982
485.81        70.36638
486.25        69.93848
486.69        71.54854
487.14        71.16716
487.58        70.31285
488.02         70.3167
488.46        70.84214
488.90        70.64429
489.34        70.14727
489.79        70.93699
490.23        70.51596
490.67        70.58007
491.11        70.36143
491.55         70.0939
491.99        69.85173
492.43        69.74726
492.88        69.82516
493.32        70.07111
493.76        70.38774
494.20         70.6135
494.64        70.69442
495.08        70.70574
495.52        70.67473
495.96        70.54347
496.41        70.40704
496.85        70.53601
497.29        70.75574
497.73         70.8975
498.17        70.18995
498.61        69.91973
499.05        69.95373
499.49        70.01127
499.93        69.99189
500.37        69.99466
500.82         70.0991
501.26        69.50291
501.70        69.99568
502.14        69.95467
502.58        69.91965
503.02        69.96337
503.46        70.09727
503.90        70.26991
504.34        70.42189
504.78        70.47652
505.22        70.41168
505.66        70.35065
506.10        70.31425
506.54        70.18861
506.98          69.966
507.42        70.19347
507.86        69.66267
508.30        69.97028
508.74        69.49833
509.18        69.32304
509.62        69.14501
510.06        69.14332
510.50        69.33721
510.94        69.67977
511.38        70.04373
511.82        70.18298
512.26        70.04529
512.70        69.70448
513.14        69.31139
513.58        69.10044
514.02        69.12993
514.46         69.3306
514.90        69.59273
515.34        69.73146
515.78        69.69569
516.22        69.55557
516.66        69.38427
517.10        69.27928
517.54        69.27015
517.98        69.32552
518.42        69.38861
518.86        69.37189
519.30        69.25771
519.74        69.08175
520.18        68.90997
520.62        68.83463
521.06        68.88247
521.50        69.03612
521.93        69.23385
522.37        69.35301
522.81        69.36945
523.25         69.2981
523.69        69.23091
524.13        69.31353
524.57        69.56088
525.01        69.92048
525.45        70.23677
525.89        70.25971
526.32        69.94012
526.76        69.39902
527.20        68.82341
527.64        68.50224
528.08        68.50225
528.52        68.72751
528.96        69.05504
529.40        69.28708
529.83        69.35168
530.27        69.31792
530.71        69.21412
531.15        69.09038
531.59        68.97231
532.03         68.8382
532.46        68.69753
532.90        68.60239
533.34        68.55634
533.78        68.56081
534.22        68.59685
534.66        68.62669
535.09        68.63275
535.53        68.63467
535.97        68.63579
536.41        68.65861
536.85        68.70463
537.28        68.75943
537.72        68.80141
538.16        68.79362
538.60        68.72949
539.04        68.62414
539.47        68.49464
539.91        68.42237
540.35        68.40456
540.79         68.4369
541.22        68.48393
541.66         68.5006
542.10        68.47205
542.54        68.41688
542.97        68.36891
543.41        68.39998
543.85        68.51023
544.29        68.68779
544.72        68.84261
545.16        68.87378
545.60         68.7587
546.04        68.50212
546.47        68.21966
546.91        68.20381
547.35        68.44557
547.79        68.65939
548.22        68.73611
548.66         68.8765
549.10        69.06628
549.53        68.97494
549.97        68.54874
550.41        69.10909
550.84        68.60069
551.28        68.58138
551.72        68.45731
552.15        68.69542
552.59        68.65215
553.03        68.89296
553.46        68.85988
553.90        68.86225
554.34        68.74429
554.77        69.00401
555.21        68.69588
555.65         68.6737
556.08        68.65258
556.52         68.6027
556.96        68.54363
557.39        68.63761
557.83        68.87527
558.27        69.03815
558.70        69.09955
559.14        69.16542
559.57        69.19552
560.01        69.14105
560.45        69.03867
560.88        68.81432
561.32        68.83058
561.75         68.7903
562.19        68.77429
562.63        68.65823
563.06        68.48129
563.50         68.4462
563.93        68.53088
564.37        68.67199
564.80        68.79658
565.24         68.8272
565.68        68.76299
566.11        68.76987
566.55        68.85753
566.98        68.79512
567.42        68.68371
567.85        68.67183
568.29        68.79134
568.72        68.91734
569.16        69.60166
569.60        69.01035
570.03        69.39745
570.47        69.35809
570.90        69.33311
571.34        69.03776
571.77        69.27429
572.21        69.51384
572.64        69.87718
573.08        69.68915
573.51        68.95971
573.95        69.53764
574.38        69.29991
574.82        69.50793
