SpectraSmart Spectrum 2.9.0.0
--------- Device Information -----------
Spectrum Name :  反射率_0
Saving Time :  2024/04/30 00:18:39
Spectro-Module Model Name : SE2030-DUVN
Spectro-Module Serial Number : OS361AC55029948
Wavelength Start : 200
Wavelength End : 1025
Wavelength Unit : Wavelength(nm)
Spectrum Unit : Reflectance(%)
-----------Spectrum Setting ------------
Integration Time : 20ms
Average : 10
Boxcar : 0
Background removal :  enabled
linearity correction :  enabled
SC :  disabled
Intensity correction :  disabled
DWT denoise :  enabled
savitzky-golay :  disabled
FFT :  disabled
Running average :  disabled
Kalman :  disabled
High pass :  disabled
---------------BEGIN--------------------
Wavelength(nm)             Reflectance(%)
200.29               0
200.75        62.43964
201.21        56.34006
201.67        52.04139
202.13         49.8522
202.58        50.04095
203.04        52.71231
203.50        59.30838
203.96        72.29227
204.42        90.54745
204.88        110.9202
205.34        123.7887
205.80        118.2444
206.26        99.17678
206.72        76.48344
207.18        57.68566
207.64        46.42634
208.10        41.00314
208.55        38.91081
209.01        38.96297
209.47        39.83875
209.93        40.85793
210.39        42.68412
210.85        44.45669
211.31        45.49179
211.77        45.93586
212.23        45.40886
212.69        45.46852
213.14        50.58385
213.60        59.52269
214.06        68.91245
214.52        74.94077
214.98        75.69534
215.44        72.30419
215.90        65.66196
216.36        58.57455
216.81        56.66615
217.27        62.81168
217.73        77.60744
218.19        99.08301
218.65        113.7798
219.11        112.5057
219.57        100.2983
220.02        86.99654
220.48        79.51778
220.94        76.66753
221.40        76.07736
221.86        74.81936
222.32        67.81238
222.77        56.64177
223.23        47.09682
223.69        40.80976
224.15        37.29318
224.61        35.45023
225.06        34.50482
225.52          34.611
225.98        35.74796
226.44        37.42574
226.90        39.20404
227.36        40.52734
227.81        41.15228
228.27        41.21706
228.73        40.71564
229.19        40.07961
229.65        40.15813
230.10        40.98674
230.56        42.19194
231.02        43.00994
231.48         42.7477
231.93        41.41135
232.39        39.32822
232.85        37.16855
233.31        36.26011
233.77        37.03191
234.22        39.27134
234.68        42.02408
235.14        43.47953
235.60        43.16575
236.05        41.63655
236.51        40.21119
236.97        40.70157
237.43        43.66497
237.88         49.2017
238.34        56.58568
238.80        62.85991
239.26        65.54285
239.71         65.0871
240.17         62.9972
240.63        62.11459
241.08        63.65499
241.54        67.48036
242.00        75.20763
242.46        87.42787
242.91         101.007
243.37        112.0656
243.83        118.1826
244.28        120.5928
244.74        120.5746
245.20        116.7178
245.66         110.386
246.11        105.9209
246.57        105.5362
247.03        110.0529
247.48        115.8459
247.94        113.9497
248.40        105.3596
248.85         95.3988
249.31        89.17188
249.77        88.37129
250.22        92.77531
250.68        102.7443
251.14        118.2173
251.59        127.3498
252.05        121.2062
252.51        109.1346
252.96        98.99164
253.42        93.53856
253.88        90.70239
254.33        88.73676
254.79         87.2672
255.25        85.66004
255.70         83.8149
256.16         82.5769
256.62        81.68768
257.07        80.74819
257.53        80.07249
257.99        79.43032
258.44        78.28493
258.90        76.85369
259.35        74.94737
259.81        73.17433
260.27        71.77367
260.72        70.97958
261.18        70.82714
261.63        70.75097
262.09        70.42241
262.55         69.0396
263.00        66.67151
263.46        64.02967
263.91        61.43879
264.37        59.60392
264.83        58.43024
265.28         57.6018
265.74        57.04026
266.19        56.39126
266.65        55.65077
267.11        54.87334
267.56        54.04996
268.02        53.16353
268.47        52.17149
268.93         51.0671
269.38        49.86563
269.84         48.7449
270.30        47.75475
270.75         46.8762
271.21        46.06889
271.66        45.19883
272.12        44.23698
272.57        43.18919
273.03        42.13369
273.48         41.1079
273.94        40.20565
274.39        39.37353
274.85         38.6384
275.31        37.94165
275.76        37.24523
276.22        36.59161
276.67        35.96608
277.13        35.45674
277.58        35.01049
278.04        34.64345
278.49        34.23546
278.95        33.72495
279.40        33.06268
279.86        32.36116
280.31        31.66195
280.77        31.15525
281.22        30.82923
281.68        30.65818
282.13        30.56905
282.59        30.51967
283.04        30.45555
283.50        30.39158
283.95        30.27712
284.41        30.05597
284.86        29.72055
285.32        29.34341
285.77        28.94909
286.22        28.65333
286.68        28.49343
287.13        28.39775
287.59        28.39869
288.04        28.47932
288.50        28.63129
288.95        28.81286
289.41        28.96318
289.86        28.94333
290.32        28.77431
290.77        28.51675
291.22        28.26863
291.68        28.17839
292.13        28.29306
292.59        28.60481
293.04        29.15108
293.50        30.01926
293.95         31.1937
294.40        32.65357
294.86        34.23831
295.31        35.70029
295.77        36.97303
296.22        38.10328
296.68        39.24001
297.13         40.6035
297.58        42.24821
298.04        44.06095
298.49        45.91779
298.95        47.64055
299.40        49.17399
299.85        50.59913
300.31        51.98376
300.76        53.34763
301.21        54.75694
301.67        56.22336
302.12        57.76486
302.58        59.55867
303.03        61.57693
303.48        63.71088
303.94        65.87248
304.39        68.21578
304.84        70.13213
305.30        72.11395
305.75        73.98375
306.20        75.81408
306.66        77.62687
307.11         79.3384
307.57        80.98481
308.02        82.49958
308.47        83.93022
308.93        85.30978
309.38        86.63692
309.83        87.98555
310.29        89.36369
310.74        90.72794
311.19        92.01339
311.65        93.10583
312.10        93.97505
312.55        94.68945
313.00        95.37365
313.46        96.22535
313.91        97.26667
314.36        98.42825
314.82        99.60799
315.27        100.6698
315.72        101.5347
316.18        102.2483
316.63        102.7784
317.08        103.0892
317.53        103.2221
317.99        103.2332
318.44        103.2373
318.89        103.4338
319.35        103.8727
319.80        104.4979
320.25        105.2774
320.70        106.1499
321.16        107.0252
321.61        107.9391
322.06        108.7254
322.51        109.1385
322.97        109.1321
323.42        108.7977
323.87        108.3233
324.32        108.0424
324.78        108.0412
325.23        108.3108
325.68        108.7577
326.13        109.2124
326.59        109.5853
327.04        109.9534
327.49        110.3368
327.94        110.8199
328.39        111.4011
328.85        111.9755
329.30        112.4999
329.75        112.7074
330.20        112.5591
330.66        112.1476
331.11        111.7007
331.56        111.5007
332.01         111.659
332.46        112.1119
332.92         112.757
333.37        113.5608
333.82        114.3995
334.27        115.2818
334.72        116.1378
335.17        116.8585
335.63        117.3821
336.08        117.7753
336.53        118.0353
336.98        118.2513
337.43        118.4658
337.88        118.6652
338.34        118.8955
338.79        119.2444
339.24        119.7203
339.69        120.3289
340.14        120.9633
340.59        121.4281
341.05        121.6885
341.50        121.7984
341.95         121.892
342.40        122.2104
342.85        122.7914
343.30        123.5216
343.75        124.2638
344.20        124.7998
344.66        125.0811
345.11        125.2027
345.56        125.1774
346.01        125.0183
346.46        124.7834
346.91        124.4727
347.36        124.2962
347.81        124.5726
348.26         125.322
348.72          126.42
349.17        127.5676
349.62        128.1773
350.07        128.1035
350.52        127.5458
350.97        126.8044
351.42        126.3449
351.87        126.3059
352.32        126.5378
352.77        126.9554
353.22        127.4267
353.67        127.8537
354.13        128.2397
354.58        128.4878
355.03        128.4314
355.48        128.0283
355.93        127.3112
356.38        126.3457
356.83        125.2476
357.28        124.0912
357.73        122.8997
358.18        121.7402
358.63        120.7008
359.08        119.8054
359.53        119.0374
359.98        118.3769
360.43         117.776
360.88        117.2012
361.33        116.6545
361.78        116.0658
362.23        115.3305
362.68        114.4392
363.13        113.4244
363.58         112.396
364.03        111.5335
364.48        110.8789
364.93        110.3794
365.38        109.9476
365.83        109.4424
366.28        108.8178
366.73        108.1071
367.18        107.3506
367.63          106.61
368.08        105.8947
368.53        105.1767
368.98        104.4232
369.43         103.582
369.88        102.6686
370.33        101.7496
370.78        100.8733
371.23         100.112
371.68        99.49015
372.13        98.95485
372.58        98.55885
373.03        98.38649
373.48          98.394
373.93        98.52008
374.38        98.50806
374.83        97.95311
375.28        96.81643
375.72        95.25308
376.17        93.65563
376.62        92.43246
377.07        91.68423
377.52        91.26939
377.97        91.09591
378.42        91.00881
378.87        90.91984
379.32        90.86713
379.77         90.7466
380.22        90.39549
380.67        89.78462
381.11        88.93034
381.56        87.97204
382.01        87.18539
382.46        86.65965
382.91        86.34972
383.36        86.10997
383.81        85.69923
384.26        85.06911
384.71        84.29782
385.15        83.54292
385.60         83.1039
386.05        83.00262
386.50        83.12837
386.95        83.27307
387.40        83.12355
387.85         82.6312
388.29        81.87968
388.74        81.14774
389.19        80.60064
389.64        80.27782
390.09        80.07842
390.54         79.9598
390.98        79.85818
391.43          79.771
391.88        79.67136
392.33        79.46888
392.78        79.17246
393.23        78.76591
393.67        77.97264
394.12        77.02453
394.57        76.88354
395.02        76.48111
395.47        76.56722
395.91        76.72337
396.36        76.80588
396.81        76.75147
397.26        76.61218
397.71        76.42355
398.15        76.11249
398.60        75.77322
399.05        75.53881
399.50        75.37642
399.95        74.94286
400.39        74.15086
400.84        74.42509
401.29        75.43134
401.74        75.65598
402.18        74.95572
402.63        74.13715
403.08        73.48636
403.53        73.09906
403.97        73.04918
404.42        73.20942
404.87        73.43066
405.32        73.60568
405.76        73.57231
406.21         73.1914
406.66        72.56129
407.11        71.96642
407.55        71.61934
408.00         71.6282
408.45        71.94345
408.90        72.43752
409.34        72.85237
409.79         72.6347
410.24        71.98228
410.68        71.78716
411.13        72.11137
411.58        72.42677
412.03        72.59048
412.47         72.6231
412.92        72.45635
413.37        72.13054
413.81        71.72395
414.26        71.43081
414.71        71.26276
415.15        71.18885
415.60          71.172
416.05        71.19439
416.49        71.24553
416.94        71.33752
417.39         71.4251
417.83        71.41516
418.28        71.30015
418.73        71.09666
419.17        70.90189
419.62        70.89133
420.07        71.07687
420.51        71.38077
420.96        71.69983
421.41        71.79948
421.85        71.61678
422.30         71.3882
422.74        71.12886
423.19        70.78989
423.64        70.46133
424.08        70.51896
424.53        70.90804
424.98        71.19522
425.42        71.30795
425.87        71.63145
426.31        72.06284
426.76        71.85412
427.21        71.05293
427.65        71.19453
428.10        72.00246
428.54        71.93204
428.99        71.07368
429.44        70.37423
429.88        70.10023
430.33        70.36196
430.77        70.94418
431.22        71.71318
431.66        72.42506
432.11        72.15745
432.56        71.09579
433.00        70.95863
433.45        71.97862
433.89        71.80935
434.34        71.85352
434.78        73.10506
435.23        71.44657
435.67         70.9517
436.12         70.6064
436.57        70.56743
437.01        70.60419
437.46         71.8418
437.90        71.33286
438.35        71.49828
438.79        72.17532
439.24        72.39973
439.68        72.32452
440.13        72.23911
440.57        72.32204
441.02        72.31711
441.46         72.1366
441.91        73.30071
442.35        73.11301
442.80        73.18913
443.24        72.81921
443.69        72.43314
444.13        72.14826
444.58         71.9452
445.02         71.8243
445.47        71.96082
445.91        72.29987
446.36        72.42036
446.80        72.20782
447.24        72.74675
447.69        72.54752
448.13        72.34558
448.58        72.55908
449.02        72.55514
449.47        72.60288
449.91        72.68288
450.36        72.82373
450.80        72.99644
451.25        73.15494
451.69        73.19688
452.13        73.11517
452.58        72.97618
453.02        72.82508
453.47          72.742
453.91        72.73109
454.36        72.87679
454.80         72.8312
455.24        73.05412
455.69        73.33166
456.13        73.30355
456.58        73.01539
457.02        72.63885
457.46        72.32619
457.91        72.32067
458.35        72.49637
458.79        72.50561
459.24        72.36558
459.68        72.21826
460.13        72.08183
460.57        72.23524
461.01        72.36425
461.46        72.31609
461.90        71.86388
462.34        72.82857
462.79        72.23064
463.23        71.98759
463.68        71.37592
464.12        71.02051
464.56        70.96893
465.01        70.93732
465.45        70.92729
465.89        71.12267
466.34        71.40894
466.78        71.83833
467.22        71.67262
467.67        71.46848
468.11        71.12457
468.55        70.82107
468.99        70.60382
469.44        70.33741
469.88        70.05288
470.32        69.90839
470.77        69.88685
471.21         69.8802
471.65        69.85693
472.10        69.86828
472.54        69.89542
472.98        69.93298
473.42        69.96593
473.87        70.02483
474.31        70.07254
474.75        69.97366
475.20        69.78498
475.64        69.82256
476.08        70.04117
476.52        69.92458
476.97        69.40871
477.41        69.45236
477.85        68.88284
478.29        68.74954
478.74        69.29239
479.18        69.61968
479.62         69.0203
480.06        69.00728
480.50        69.36594
480.95        69.12102
481.39        69.32645
481.83        69.18109
482.27        69.56748
482.72        69.27614
483.16        69.48679
483.60        69.55494
484.04        69.78083
484.48        70.10059
484.93        70.33462
485.37        70.17333
485.81        69.47251
486.25        68.40839
486.69        70.04823
487.14        69.27599
487.58        68.86935
488.02        68.68175
488.46        69.44096
488.90         69.1211
489.34        69.17917
489.79         69.8344
490.23        68.89913
490.67        68.71882
491.11        68.56058
491.55        68.35696
491.99        68.12096
492.43          68.011
492.88        68.05816
493.32        68.25467
493.76        68.54384
494.20        68.81303
494.64        68.99991
495.08         69.1845
495.52        69.37177
495.96        69.33429
496.41        69.05976
496.85        69.46623
497.29        69.18263
497.73        69.11391
498.17         68.6038
498.61        68.47483
499.05          68.336
499.49        68.44759
499.93        68.57323
500.37        68.56346
500.82        68.51045
501.26        68.00298
501.70        68.31809
502.14        68.62688
502.58        68.38044
503.02        68.48879
503.46        68.71753
503.90        68.52548
504.34        68.77003
504.78         68.7484
505.22         68.7188
505.66        68.64757
506.10        68.56716
506.54        68.52636
506.98        68.49307
507.42        68.65865
507.86        68.17953
508.30        68.44757
508.74        67.98769
509.18        67.77931
509.62        67.55276
510.06        67.54596
510.50        67.78049
510.94         68.1931
511.38        68.63431
511.82        68.81981
512.26        68.68601
512.70        68.32284
513.14        67.88673
513.58        67.62067
514.02        67.59158
514.46        67.72642
514.90        67.93752
515.34        68.08154
515.78        68.10975
516.22        68.06965
516.66        68.00281
517.10        67.96697
517.54         67.9783
517.98        68.00906
518.42        68.02932
518.86        68.00056
519.30        67.91641
519.74        67.79696
520.18         67.6796
520.62        67.61461
521.06        67.61781
521.50        67.68229
521.93         67.7786
522.37        67.83531
522.81        67.84311
523.25        67.81004
523.69        67.78343
524.13        67.83926
524.57        67.98277
525.01        68.18104
525.45        68.35165
525.89        68.36349
526.32        68.18403
526.76          67.886
527.20        67.55534
527.64        67.32864
528.08        67.24303
528.52        67.25703
528.96        67.33144
529.40        67.40145
529.83        67.43668
530.27        67.46747
530.71        67.48257
531.15        67.46878
531.59        67.42782
532.03        67.35685
532.46        67.27401
532.90        67.24129
533.34         67.2619
533.78        67.32306
534.22        67.39445
534.66        67.42767
535.09        67.40491
535.53        67.35369
535.97        67.28876
536.41        67.24946
536.85        67.24407
537.28         67.2551
537.72        67.26237
538.16        67.22894
538.60        67.14782
539.04        67.03809
539.47        66.90699
539.91        66.81822
540.35        66.76791
540.79        66.75574
541.22        66.76793
541.66         66.7932
542.10        66.82282
542.54        66.86544
542.97        66.92277
543.41        67.01637
543.85        67.13212
544.29        67.26797
544.72         67.3712
545.16        67.38368
545.60        67.29014
546.04        67.13078
546.47        66.96754
546.91         66.8878
547.35        66.92882
547.79        67.10339
548.22        67.29537
548.66        67.46346
549.10        67.59006
549.53        67.48423
549.97        67.09791
550.41        67.67187
550.84        67.18751
551.28        67.15288
551.72        66.97936
552.15        67.13414
552.59        67.14073
553.03        67.13267
553.46        66.99473
553.90        66.95409
554.34        67.01076
554.77         66.9886
555.21        66.92496
555.65        67.04396
556.08          67.271
556.52        67.31467
556.96        67.19231
557.39         67.2021
557.83        67.32495
558.27        67.44044
558.70        67.21618
559.14        67.24077
559.57        67.43879
560.01        67.54101
560.45         67.5592
560.88        67.45823
561.32        67.57171
561.75        67.54794
562.19        67.49516
562.63        67.37011
563.06        67.20961
563.50        67.19378
563.93        67.26252
564.37        67.24323
564.80        67.11084
565.24         66.9926
565.68        66.91067
566.11        66.91158
566.55        67.00354
566.98        67.02646
567.42        67.05822
567.85        67.17902
568.29        67.32937
568.72        67.52352
569.16        67.89101
569.60        67.20557
570.03         67.5266
570.47         67.8125
570.90        67.83469
571.34        67.42761
571.77        67.85545
572.21        67.97202
572.64        68.16385
573.08         68.0938
573.51        67.78246
573.95        68.02285
574.38        68.52156
574.82         67.9652
