SpectraSmart Spectrum 2.9.0.0
--------- Device Information -----------
Spectrum Name :  反射率_0
Saving Time :  2024/04/30 00:05:41
Spectro-Module Model Name : SE2030-DUVN
Spectro-Module Serial Number : OS361AC55029948
Wavelength Start : 200
Wavelength End : 1025
Wavelength Unit : Wavelength(nm)
Spectrum Unit : Reflectance(%)
-----------Spectrum Setting ------------
Integration Time : 20ms
Average : 10
Boxcar : 0
Background removal :  enabled
linearity correction :  enabled
SC :  disabled
Intensity correction :  disabled
DWT denoise :  enabled
savitzky-golay :  disabled
FFT :  disabled
Running average :  disabled
Kalman :  disabled
High pass :  disabled
---------------BEGIN--------------------
Wavelength(nm)             Reflectance(%)
200.29               0
200.75        61.99839
201.21        53.52218
201.67        45.23517
202.13        37.87244
202.58        32.11201
203.04        28.15278
203.50        28.45053
203.96        37.61944
204.42        55.77128
204.88        79.57458
205.34        99.19328
205.80        101.8105
206.26        89.96658
206.72        73.01338
207.18         57.5274
207.64        46.76015
208.10        39.70048
208.55        34.14581
209.01        30.46745
209.47        30.89557
209.93        35.01238
210.39        41.29394
210.85        46.71141
211.31        48.79513
211.77        47.49007
212.23        42.58903
212.69        35.00793
213.14        31.45623
213.60           34.97
214.06        42.15039
214.52        48.52412
214.98        51.25078
215.44        50.95265
215.90        48.97293
216.36        46.89795
216.81        47.60197
217.27        52.85495
217.73        62.95559
218.19        77.45011
218.65        89.74603
219.11        93.64752
219.57        90.11833
220.02        84.41538
220.48        81.43004
220.94        80.70457
221.40        80.92905
221.86        79.43825
222.32        71.56832
222.77        59.59333
223.23        49.53973
223.69        42.83585
224.15        38.73593
224.61        36.13521
225.06         34.2497
225.52        33.99231
225.98        36.66642
226.44        41.24096
226.90        45.98224
227.36        49.26191
227.81        50.18084
228.27          49.083
228.73        46.24091
229.19        42.50031
229.65        40.00099
230.10        39.53233
230.56        40.34659
231.02        41.23252
231.48        41.03168
231.93        39.62211
232.39        37.44325
232.85        35.19733
233.31        34.23719
233.77         34.9842
234.22        37.16336
234.68        39.71664
235.14        40.70161
235.60         39.6917
236.05        37.40316
236.51         35.3363
236.97        35.48996
237.43        38.47757
237.88        44.36138
238.34        52.57167
238.80        60.25357
239.26        64.64857
239.71        65.81667
240.17        64.88734
240.63        64.48253
241.08        65.77604
241.54        68.47401
242.00        73.21837
242.46        79.23978
242.91        84.22946
243.37        86.89017
243.83        88.23785
244.28        90.65603
244.74         94.8997
245.20        100.3026
245.66         106.122
246.11        110.3392
246.57        111.5849
247.03        111.4076
247.48        108.9414
247.94        102.9147
248.40        96.17644
248.85        90.06507
249.31        87.39582
249.77        89.07442
250.22        95.27271
250.68        107.4894
251.14        125.4502
251.59        134.4969
252.05        125.1098
252.51        109.2251
252.96        96.68025
253.42        90.65491
253.88        88.54446
254.33        88.20088
254.79        88.76251
255.25        88.34848
255.70        86.52462
256.16        84.82611
256.62        83.39453
257.07        82.07838
257.53        81.18103
257.99        80.31671
258.44        79.02704
258.90        77.64748
259.35        75.94894
259.81        74.50507
260.27        73.35223
260.72        72.54401
261.18        72.18135
261.63        71.77308
262.09        71.21957
262.55        69.99807
263.00        68.12106
263.46        66.12968
263.91        64.08931
264.37        62.42777
264.83        61.05437
265.28        59.78693
265.74        58.74437
266.19        57.85703
266.65        57.18576
267.11        56.68161
267.56        56.19759
268.02        55.53454
268.47        54.60217
268.93        53.44268
269.38        52.15216
269.84        51.03811
270.30        50.17442
270.75        49.48752
271.21        48.82462
271.66        47.89423
272.12        46.65678
272.57        45.18382
273.03        43.69662
273.48        42.45257
273.94        41.58797
274.39         40.9585
274.85        40.46447
275.31        39.86801
275.76         39.0926
276.22        38.25046
276.67        37.38526
277.13        36.67012
277.58         36.0808
278.04        35.61223
278.49        35.13437
278.95         34.5784
279.40         33.8891
279.86        33.18291
280.31        32.50685
280.77        32.05713
281.22        31.81129
281.68         31.7313
282.13        31.71376
282.59        31.67977
283.04        31.57295
283.50        31.42961
283.95        31.22701
284.41        30.95335
284.86        30.61511
285.32        30.27313
285.77        29.94495
286.22        29.73961
286.68        29.68319
287.13        29.69507
287.59        29.79537
288.04        29.94474
288.50        30.13103
288.95        30.32368
289.41        30.45779
289.86        30.38629
290.32        30.14208
290.77        29.79442
291.22        29.49041
291.68        29.45321
292.13        29.73738
292.59        30.30692
293.04        31.13261
293.50        32.20689
293.95        33.49105
294.40        34.98842
294.86        36.57931
295.31        38.08601
295.77        39.45459
296.22        40.69913
296.68        41.93737
297.13        43.33936
297.58        44.95364
298.04        46.70449
298.49         48.4739
298.95        50.09329
299.40        51.51661
299.85        52.80968
300.31        54.10304
300.76         55.5089
301.21        57.09258
301.67        58.83804
302.12        60.61878
302.58        62.39503
303.03         64.1127
303.48        65.74541
303.94        67.39542
304.39         69.4916
304.84        71.50381
305.30        73.81108
305.75        76.05565
306.20        78.02193
306.66        79.67086
307.11        81.01409
307.57        82.24603
308.02        83.52702
308.47        84.94866
308.93        86.46075
309.38        87.93835
309.83        89.26869
310.29        90.42408
310.74        91.44106
311.19        92.35778
311.65        93.21144
312.10        94.00831
312.55        94.75493
313.00        95.52332
313.46        96.43282
313.91        97.47351
314.36        98.60467
314.82        99.71105
315.27        100.6323
315.72        101.2986
316.18        101.7645
316.63        102.0557
317.08        102.2337
317.53        102.3582
317.99        102.4541
318.44        102.5803
318.89        102.8448
319.35         103.265
319.80        103.8049
320.25        104.4511
320.70        105.1719
321.16         105.897
321.61        106.6661
322.06        107.3127
322.51        107.5952
322.97        107.4744
323.42        107.0377
323.87        106.5185
324.32        106.3158
324.78        106.5115
325.23        107.0694
325.68        107.7785
326.13        108.2694
326.59        108.4124
327.04        108.3515
327.49        108.2523
327.94        108.4377
328.39        108.9793
328.85        109.7114
329.30        110.5137
329.75        110.9781
330.20        110.9974
330.66        110.6947
331.11        110.2986
331.56         110.094
332.01        110.2023
332.46        110.5552
332.92        111.0566
333.37        111.6968
333.82        112.3731
334.27        113.0993
334.72        113.8572
335.17        114.6138
335.63        115.3118
336.08        115.9889
336.53        116.5432
336.98        116.8924
337.43         117.037
337.88        117.0204
338.34        116.9694
338.79        117.1083
339.24        117.4899
339.69         118.071
340.14        118.7516
340.59        119.3436
341.05        119.7942
341.50         120.167
341.95        120.4971
342.40        120.8656
342.85          121.29
343.30        121.6982
343.75        122.1142
344.20        122.5844
344.66        123.1185
345.11        123.7366
345.56        124.2692
346.01         124.436
346.46        124.2189
346.91        123.6981
347.36        123.2539
347.81        123.4651
348.26         124.405
348.72        125.8684
349.17        127.3849
349.62        128.0824
350.07        127.7612
350.52        126.7406
350.97        125.5169
351.42        124.8435
351.87        124.9196
352.32        125.4852
352.77        126.3306
353.22        127.1245
353.67        127.6977
354.13        128.1247
354.58        128.3197
355.03        128.1299
355.48        127.5518
355.93        126.6234
356.38        125.4994
356.83        124.4403
357.28         123.534
357.73        122.7454
358.18        122.0508
358.63        121.3891
359.08        120.7311
359.53        120.1004
359.98        119.4729
360.43        118.8009
360.88        118.0771
361.33        117.3116
361.78        116.5175
362.23         115.725
362.68        114.9501
363.13        114.1871
363.58        113.4669
364.03        112.8351
364.48        112.2892
364.93        111.8092
365.38        111.3341
365.83         110.769
366.28        110.0931
366.73        109.3341
367.18          108.54
367.63        107.7867
368.08        107.0927
368.53        106.4355
368.98        105.7962
369.43        105.1404
369.88        104.4703
370.33        103.8236
370.78        103.2037
371.23         102.616
371.68        102.0596
372.13        101.4981
372.58        100.9874
373.03        100.6203
373.48        100.3811
373.93        100.2315
374.38        99.97827
374.83        99.31671
375.28        98.22904
375.72        96.83018
376.17        95.47367
376.62        94.50492
377.07        93.99587
377.52        93.82132
377.97        93.83366
378.42        93.78985
378.87        93.59681
379.32        93.31761
379.77        92.96761
380.22        92.56807
380.67        92.11987
381.11        91.58591
381.56        90.98097
382.01        90.36751
382.46        89.78331
382.91        89.25954
383.36        88.75769
383.81        88.19835
384.26        87.57718
384.71        86.91816
385.15        86.33054
385.60        86.04053
386.05        86.04575
386.50        86.26593
386.95        86.49176
387.40        86.41031
387.85        85.96464
388.29        85.20338
388.74        84.44711
389.19        83.92211
389.64         83.6823
390.09         83.6284
390.54        83.60764
390.98        83.43601
391.43        83.11417
391.88        82.50628
392.33        81.79669
392.78        81.63142
393.23        81.76625
393.67        81.20517
394.12        80.28581
394.57         79.3852
395.02        79.77641
395.47        79.97769
395.91        80.20239
396.36        80.28891
396.81        80.18678
397.26        79.95903
397.71        79.64754
398.15        79.25328
398.60        78.88974
399.05        78.58517
399.50        78.33854
399.95        78.06181
400.39        77.55249
400.84        77.76099
401.29        78.38733
401.74        78.44428
402.18        77.83335
402.63        77.05103
403.08        76.38977
403.53        76.07209
403.97        76.15668
404.42        76.54211
404.87        77.00916
405.32        77.15193
405.76        76.85567
406.21        76.45004
406.66        76.00529
407.11        75.27261
407.55        74.52884
408.00        74.52177
408.45        75.15675
408.90        75.61097
409.34        75.68014
409.79        75.48123
410.24        75.18338
410.68        75.18018
411.13        75.50997
411.58        75.88956
412.03        76.16869
412.47        76.24458
412.92        76.04126
413.37        75.63458
413.81        75.12035
414.26        74.72427
414.71        74.46916
415.15        74.31628
415.60        74.24009
416.05        74.24537
416.49        74.32327
416.94        74.47929
417.39        74.64382
417.83        74.68054
418.28        74.57436
418.73        74.35622
419.17        74.13516
419.62        74.11977
420.07        74.32176
420.51        74.61047
420.96        74.89941
421.41        75.01427
421.85        74.84558
422.30        74.59387
422.74        74.25034
423.19        73.60751
423.64        72.88287
424.08         72.9584
424.53         73.7251
424.98        74.16068
425.42        74.14404
425.87        74.39819
426.31        74.82442
426.76        74.57938
427.21        73.68668
427.65        73.56762
428.10        74.03592
428.54        73.92366
428.99        73.32202
429.44        72.74354
429.88        72.39364
430.33        72.78664
430.77        73.68919
431.22        73.87565
431.66        74.67823
432.11        74.26745
432.56        73.26343
433.00        73.27951
433.45        74.61438
433.89        73.97092
434.34        74.44192
434.78        75.78769
435.23        73.64687
435.67        72.89473
436.12        72.38403
436.57        72.50153
437.01        72.93458
437.46        74.03168
437.90        73.60268
438.35        73.60246
438.79        74.21207
439.24        74.37104
439.68        74.32522
440.13        74.35789
440.57        74.51211
441.02         74.6041
441.46        74.58521
441.91        74.69685
442.35        74.72369
442.80        74.64404
443.24        74.42678
443.69          74.302
444.13        74.24743
444.58        74.12087
445.02        73.87614
445.47        73.68082
445.91        73.61765
446.36        73.63344
446.80        73.68386
447.24        74.36521
447.69         74.5025
448.13        74.67807
448.58        74.59083
449.02         74.2915
449.47        73.95129
449.91        73.81226
450.36         73.9511
450.80        74.25325
451.25        74.60964
451.69        74.81252
452.13        74.81583
452.58        74.72064
453.02        74.57213
453.47        74.44856
453.91        74.36363
454.36          74.395
454.80        74.22484
455.24        74.39265
455.69        74.68541
456.13        74.70045
456.58        74.47621
457.02        74.06438
457.46        73.90205
457.91        73.81082
458.35         73.8232
458.79        73.78367
459.24        73.71851
459.68        73.72026
460.13        73.78703
460.57        73.84792
461.01        73.83387
461.46        73.71497
461.90         73.5251
462.34         73.6135
462.79        73.87034
463.23        73.75667
463.68        73.27455
464.12        73.00681
464.56        73.02974
465.01        72.52878
465.45        72.31152
465.89        72.36832
466.34         72.8122
466.78        72.82518
467.22        72.63712
467.67        72.44048
468.11        72.35657
468.55        72.11817
468.99        71.77489
469.44         71.4874
469.88        71.28288
470.32        71.15886
470.77        71.09072
471.21        71.04528
471.65        70.99419
472.10        70.96558
472.54        70.96846
472.98        71.02235
473.42        71.11166
473.87        71.31187
474.31        71.51968
474.75        71.37862
475.20        70.96472
475.64        70.90582
476.08        71.24191
476.52        71.06998
476.97        70.28429
477.41        70.77512
477.85        70.69733
478.29        69.58367
478.74        70.78432
479.18        70.61648
479.62        70.30506
480.06        70.23215
480.50        70.45572
480.95        70.33743
481.39        70.95634
481.83         70.2873
482.27        70.79096
482.72        70.72681
483.16        70.69455
483.60        70.68728
484.04        70.95377
484.48        71.26788
484.93        71.36028
485.37        71.25968
485.81        70.46002
486.25        69.10648
486.69        70.33273
487.14        70.66632
487.58        69.67584
488.02        69.61662
488.46        70.28382
488.90        70.54751
489.34        69.95837
489.79        70.31358
490.23        69.87851
490.67        69.78871
491.11        69.57614
491.55        69.29321
491.99        69.02551
492.43        68.97302
492.88         69.1586
493.32        69.49981
493.76        69.89265
494.20        70.18594
494.64        70.31419
495.08         70.4049
495.52        70.42988
495.96         70.1399
496.41         69.6619
496.85        69.65993
497.29        69.47804
497.73        69.80601
498.17        69.59815
498.61        69.29034
499.05         68.8026
499.49        68.88358
499.93        69.41228
500.37        69.47173
500.82        69.07299
501.26        68.93282
501.70        69.06373
502.14        69.10419
502.58        68.96443
503.02        68.97207
503.46        69.10464
503.90        69.29957
504.34        69.49218
504.78        69.57919
505.22        69.53097
505.66        69.37616
506.10        69.17329
506.54        69.06342
506.98        69.08447
507.42        69.16683
507.86        69.00721
508.30        69.34483
508.74        68.83834
509.18        68.56222
509.62        68.26711
510.06        68.18407
510.50         68.3436
510.94        68.68952
511.38        69.08671
511.82         69.2776
512.26        69.20016
512.70        68.93173
513.14        68.59989
513.58        68.41221
514.02        68.42586
514.46        68.55786
514.90        68.71996
515.34        68.88545
515.78        68.83289
516.22        68.74834
516.66        68.63889
517.10        68.59731
517.54        68.63804
517.98        68.72801
518.42        68.80193
518.86        68.74143
519.30        68.52811
519.74        68.25585
520.18        68.00346
520.62        67.77665
521.06        67.66249
521.50        67.87868
521.93        68.31581
522.37        68.55011
522.81        68.52748
523.25        68.42562
523.69        68.35012
524.13        68.40311
524.57        68.60825
525.01        68.91936
525.45        69.20282
525.89        69.24701
526.32        69.00536
526.76        68.58361
527.20        68.12574
527.64        67.85499
528.08        67.82589
528.52        67.96342
528.96        68.18487
529.40        68.35807
529.83        68.42955
530.27         68.4492
530.71        68.41969
531.15        68.35011
531.59        68.25357
532.03        68.12168
532.46        67.97782
532.90        67.89456
533.34         67.8791
533.78        67.92122
534.22        67.99031
534.66        68.03316
535.09        68.02945
535.53         68.0072
535.97        67.97558
536.41        67.96597
536.85         67.9834
537.28        68.00817
537.72        68.02498
538.16        68.00697
538.60         67.9466
539.04        67.85709
539.47         67.7348
539.91        67.62793
540.35        67.53091
540.79         67.4518
541.22        67.38698
541.66        67.34224
542.10        67.31575
542.54        67.31213
542.97        67.33712
543.41         67.4178
543.85        67.54202
544.29        67.70889
544.72        67.84996
545.16        67.89778
545.60        67.83619
546.04        67.65804
546.47        67.45248
546.91         67.4698
547.35         67.6941
547.79        67.85736
548.22        67.87944
548.66        68.00029
549.10        68.21089
549.53        68.16492
549.97         67.7822
550.41        68.33577
550.84        67.79079
551.28        67.68983
551.72         67.4342
552.15        67.61536
552.59        67.38647
553.03         67.4565
553.46        67.56753
553.90        67.58058
554.34        67.44444
554.77        67.69099
555.21        67.54222
555.65        67.47353
556.08        67.30991
556.52        67.35573
556.96        67.57413
557.39        67.75125
557.83        67.83543
558.27        67.93063
558.70        67.92765
559.14        67.94992
559.57        67.85629
560.01        68.30949
560.45        67.94587
560.88        67.73923
561.32        67.67722
561.75        67.68217
562.19        67.80003
562.63        67.64893
563.06        67.30969
563.50        67.29259
563.93        67.53982
564.37        67.64066
564.80        67.55971
565.24        67.54709
565.68        67.58237
566.11        67.60944
566.55        67.63588
566.98        67.49039
567.42         67.3164
567.85        67.42537
568.29        67.72528
568.72        67.90569
569.16        68.11774
569.60        67.52232
570.03        68.01161
570.47        68.40557
570.90        68.08109
571.34        67.76016
571.77        68.07399
572.21        68.26504
572.64        68.50437
573.08        68.27208
573.51        67.67246
573.95        67.91303
574.38        68.44098
574.82        68.20778
