SpectraSmart Spectrum 2.9.0.0
--------- Device Information -----------
Spectrum Name :  反射率_0
Saving Time :  2024/04/30 00:19:36
Spectro-Module Model Name : SE2030-DUVN
Spectro-Module Serial Number : OS361AC55029948
Wavelength Start : 200
Wavelength End : 1025
Wavelength Unit : Wavelength(nm)
Spectrum Unit : Reflectance(%)
-----------Spectrum Setting ------------
Integration Time : 20ms
Average : 10
Boxcar : 0
Background removal :  enabled
linearity correction :  enabled
SC :  disabled
Intensity correction :  disabled
DWT denoise :  enabled
savitzky-golay :  disabled
FFT :  disabled
Running average :  disabled
Kalman :  disabled
High pass :  disabled
---------------BEGIN--------------------
Wavelength(nm)             Reflectance(%)
200.29               0
200.75        57.94187
201.21        46.25626
201.67        33.23609
202.13        23.64716
202.58        19.80057
203.04        20.56042
203.50        27.09416
203.96        41.12179
204.42        60.95643
204.88        84.37828
205.34        101.0103
205.80         97.8738
206.26        79.83344
206.72        57.66154
207.18         39.3139
207.64        29.07891
208.10        25.37751
208.55        25.23023
209.01        28.22004
209.47        33.66554
209.93        39.62724
210.39        45.76431
210.85        49.86193
211.31        50.06443
211.77        46.30402
212.23        37.49223
212.69        25.28192
213.14         20.5483
213.60        28.07262
214.06         41.7716
214.52        53.46569
214.98         57.9733
215.44        56.40899
215.90        50.86587
216.36        44.24376
216.81         42.0878
217.27        47.24944
217.73        59.54673
218.19        77.43876
218.65        90.20905
219.11        90.25764
219.57         81.8689
220.02        72.21087
220.48         66.3593
220.94        63.57724
221.40        61.86069
221.86        60.31767
222.32        58.04246
222.77        55.30413
223.23        53.78244
223.69        52.68155
224.15        50.97052
224.61         48.4115
225.06        44.80125
225.52        41.15275
225.98        39.91102
226.44        41.41872
226.90        44.09081
227.36        46.26021
227.81        46.73258
228.27        45.64075
228.73        43.38247
229.19        40.65038
229.65         39.0833
230.10        39.17324
230.56        40.14589
231.02         41.1253
231.48        41.36833
231.93        40.76485
232.39        39.65427
232.85        38.31068
233.31        37.30607
233.77        36.85802
234.22        36.88645
234.68        37.01005
235.14        36.59425
235.60        35.58883
236.05        34.31641
236.51        33.43024
236.97        33.71223
237.43         35.3858
237.88        38.54965
238.34        42.84444
238.80        46.90427
239.26        49.30933
239.71        50.08464
240.17         49.5281
240.63        48.68578
241.08        47.93503
241.54        46.74186
242.00        45.42017
242.46        45.90036
242.91        50.06825
243.37        57.16145
243.83        64.38763
244.28        69.70779
244.74        73.30094
245.20        75.34826
245.66        76.49998
246.11        78.27156
246.57        81.29074
247.03        85.87617
247.48        89.68255
247.94        87.52132
248.40        80.89304
248.85        73.28499
249.31        68.68419
249.77        68.51098
250.22        72.59507
250.68        81.53663
251.14        94.88655
251.59        101.2291
252.05        93.41607
252.51        80.95898
252.96        70.95773
253.42        65.28236
253.88        61.91753
254.33        59.19939
254.79        57.21341
255.25          56.098
255.70        55.65701
256.16        55.96351
256.62        56.21443
257.07        55.73878
257.53        54.92117
257.99          53.823
258.44        52.53981
258.90        51.90711
259.35        51.61917
259.81        51.63198
260.27        51.64883
260.72        51.48684
261.18        51.24832
261.63        50.73905
262.09        50.04337
262.55         48.9761
263.00        47.58318
263.46        46.19059
263.91        44.73512
264.37        43.36649
264.83        42.03556
265.28         40.6683
265.74        39.53289
266.19         38.8405
266.65        38.64871
267.11        38.80519
267.56        38.97931
268.02        38.69349
268.47        37.83184
268.93        36.52769
269.38         35.0317
269.84        33.90733
270.30        33.30478
270.75        33.08188
271.21        32.95786
271.66        32.49551
272.12        31.61353
272.57        30.44239
273.03        29.27783
273.48        28.50133
273.94        28.22651
274.39        28.23786
274.85        28.30241
275.31        28.04659
275.76        27.39103
276.22        26.50791
276.67        25.53099
277.13        24.72289
277.58        24.11067
278.04         23.6403
278.49        23.21365
278.95        22.76898
279.40        22.25253
279.86        21.76429
280.31        21.28837
280.77        20.89075
281.22        20.55543
281.68        20.28001
282.13         20.0674
282.59           19.96
283.04        19.92833
283.50        19.93026
283.95        19.89197
284.41        19.70318
284.86        19.34602
285.32        18.90546
285.77        18.40079
286.22        17.91112
286.68        17.48389
287.13        17.08027
287.59        16.78716
288.04        16.69038
288.50        16.79305
288.95        17.02763
289.41        17.27618
289.86        17.33662
290.32        17.18979
290.77         16.9027
291.22        16.56149
291.68        16.30653
292.13        16.18415
292.59        16.16823
293.04        16.30133
293.50        16.65955
293.95        17.23451
294.40        18.00862
294.86        18.82875
295.31        19.46428
295.77        19.86011
296.22        20.06784
296.68        20.25605
297.13          20.677
297.58        21.39366
298.04        22.29554
298.49        23.23421
298.95        23.96968
299.40        24.44869
299.85        24.76179
300.31          25.028
300.76        25.37381
301.21        25.87128
301.67         26.4887
302.12        27.17567
302.58        27.99137
303.03         28.9263
303.48        29.84612
303.94        30.72542
304.39        32.23716
304.84        33.16933
305.30        34.47033
305.75        35.76149
306.20        37.07305
306.66          38.393
307.11         39.7045
307.57        41.00437
308.02        42.22124
308.47        43.38537
308.93        44.52969
309.38        45.71995
309.83        47.10335
310.29        48.69234
310.74        50.42817
311.19        52.17218
311.65        53.70638
312.10        54.97886
312.55        56.05557
313.00        57.10241
313.46        58.38751
313.91        59.95037
314.36        61.70343
314.82        63.46493
315.27        64.96503
315.72        66.10825
316.18        66.97933
316.63        67.68501
317.08         68.4123
317.53        69.23177
317.99         70.1067
318.44        70.98163
318.89         71.7828
319.35        72.49352
319.80        73.14745
320.25        73.82856
320.70        74.66302
321.16        75.64281
321.61        76.74759
322.06        77.79873
322.51        78.51761
322.97         78.8308
323.42        78.83125
323.87        78.69629
324.32        78.73249
324.78        79.01881
325.23        79.52769
325.68        80.13715
326.13        80.63333
326.59        80.93455
327.04        81.13648
327.49        81.33196
327.94        81.70828
328.39        82.29817
328.85        82.98499
329.30        83.68501
329.75        84.10485
330.20        84.17317
330.66        83.98833
331.11        83.71274
331.56        83.54593
332.01         83.5864
332.46         83.7896
332.92         84.1474
333.37        84.75667
333.82        85.55202
334.27        86.50154
334.72        87.47651
335.17        88.25739
335.63        88.75509
336.08        89.06536
336.53        89.19663
336.98        89.24146
337.43        89.26191
337.88        89.23611
338.34        89.28669
338.79        89.62774
339.24        90.27779
339.69        91.19947
340.14        92.16079
340.59        92.75228
341.05        92.88671
341.50        92.69034
341.95        92.40789
342.40        92.45409
342.85        92.92591
343.30        93.66542
343.75        94.51026
344.20        95.19816
344.66        95.65403
345.11        95.98609
345.56         96.1843
346.01        96.22017
346.46        96.13496
346.91          95.922
347.36        95.80042
347.81        96.11707
348.26        96.90379
348.72        98.04041
349.17        99.21432
349.62        99.83031
350.07        99.74554
350.52        99.16684
350.97         98.4198
351.42        98.00421
351.87        98.06497
352.32         98.4485
352.77        99.03206
353.22        99.61954
353.67        100.1057
354.13        100.5214
354.58        100.8273
355.03        100.9493
355.48        100.8632
355.93        100.5641
356.38        100.0626
356.83        99.39594
357.28        98.61069
357.73        97.74329
358.18        96.87915
358.63        96.13689
359.08        95.54802
359.53        95.08647
359.98        94.71034
360.43        94.33899
360.88        93.94007
361.33        93.53547
361.78         93.0984
362.23        92.59084
362.68        92.01324
363.13        91.36898
363.58        90.73129
364.03        90.21899
364.48        89.85837
364.93        89.62686
365.38        89.43241
365.83        89.12599
366.28        88.67277
366.73        88.10391
367.18        87.52895
367.63        87.12263
368.08        86.90472
368.53        86.80745
368.98        86.67889
369.43        86.27312
369.88        85.55268
370.33        84.63011
370.78        83.66052
371.23        82.89664
371.68        82.41944
372.13        82.13634
372.58         82.0155
373.03        82.00214
373.48         82.0279
373.93        82.08882
374.38        82.03497
374.83        81.62546
375.28        80.84595
375.72        79.77767
376.17        78.68755
376.62        77.83607
377.07         77.2914
377.52        76.96718
377.97        76.81895
378.42        76.76766
378.87        76.75655
379.32         76.7979
379.77        76.80149
380.22        76.62963
380.67        76.25491
381.11        75.69808
381.56        75.05663
382.01        74.52219
382.46        74.16402
382.91        73.95644
383.36        73.80984
383.81        73.57677
384.26        73.22316
384.71         72.7856
385.15        72.36851
385.60        72.18351
386.05        72.23251
386.50        72.44196
386.95        72.61963
387.40        72.47598
387.85        71.98087
388.29        71.21645
388.74        70.49133
389.19        70.03976
389.64         69.9063
390.09        69.98253
390.54        70.15154
390.98        70.20663
391.43        70.11595
391.88        69.93847
392.33        69.68072
392.78        69.41319
393.23        69.17171
393.67         68.7851
394.12        68.35857
394.57        68.50613
395.02        68.23767
395.47        68.31926
395.91        68.41245
396.36        68.41814
396.81        68.31518
397.26        68.15037
397.71        67.94038
398.15        67.64622
398.60        67.36106
399.05        67.07426
399.50        66.82772
399.95        66.69992
400.39        66.48789
400.84         66.7855
401.29        67.32465
401.74        67.43965
402.18        67.04103
402.63        66.41393
403.08        65.84437
403.53        65.64318
403.97         65.8765
404.42        66.43671
404.87        67.02842
405.32        67.17744
405.76        66.78256
406.21        66.04494
406.66        65.23096
407.11        64.78723
407.55        64.85605
408.00         65.1882
408.45        65.65286
408.90        66.26277
409.34        66.77573
409.79        66.63943
410.24         66.0782
410.68         65.9673
411.13        66.38589
411.58        66.87289
412.03        67.24226
412.47        67.37775
412.92        67.18855
413.37        66.76679
413.81         66.2512
414.26        65.90832
414.71        65.77341
415.15        65.79945
415.60        65.90592
416.05        65.99821
416.49          66.047
416.94        66.08773
417.39        66.13937
417.83        66.20918
418.28        66.30733
418.73        66.41447
419.17        66.53654
419.62        66.70762
420.07         66.9053
420.51        67.09417
420.96        67.26416
421.41        67.30825
421.85        67.19453
422.30        67.17336
422.74        67.16917
423.19        66.86125
423.64        66.38267
424.08        66.45692
424.53        67.04883
424.98        67.46122
425.42        67.62139
425.87        68.07659
426.31        68.67719
426.76        68.58998
427.21        67.83079
427.65        67.76652
428.10        68.27235
428.54        68.29016
428.99        67.87661
429.44        67.53737
429.88        67.38212
430.33        67.64706
430.77         68.1431
431.22        68.40309
431.66        68.42197
432.11        68.53638
432.56        68.73048
433.00        68.81972
433.45        68.99462
433.89        69.01514
434.34        69.36864
434.78        70.89836
435.23         69.5145
435.67         68.8803
436.12        68.18487
436.57        68.27012
437.01        68.92215
437.46        70.07352
437.90        69.59676
438.35        70.00947
438.79        70.64742
439.24        70.92827
439.68        70.86633
440.13        70.91213
440.57        71.08633
441.02        71.15488
441.46        71.10455
441.91        71.04574
442.35        70.94253
442.80        71.09594
443.24        71.38178
443.69        71.31006
444.13         70.9246
444.58        70.78735
445.02         70.8806
445.47        70.93789
445.91        70.94444
446.36        71.03945
446.80        71.20057
447.24        71.40701
447.69        71.61804
448.13        71.74622
448.58        71.79511
449.02        71.76688
449.47        71.74344
449.91        71.81683
450.36        72.01392
450.80        72.27674
451.25        72.53911
451.69        72.66372
452.13        72.63103
452.58        72.51789
453.02        72.36539
453.47        72.25018
453.91        72.18584
454.36        72.25695
454.80        72.16869
455.24        72.40676
455.69        72.72329
456.13        72.81876
456.58         72.8159
457.02        72.10722
457.46        72.39066
457.91        72.54409
458.35        72.15995
458.79        72.10751
459.24        72.18455
459.68        72.25751
460.13        72.24995
460.57        72.44874
461.01         72.4291
461.46        72.22228
461.90        71.75699
462.34        72.39529
462.79         72.5882
463.23        72.56151
463.68        71.96074
464.12        71.66627
464.56        71.70354
465.01        71.49736
465.45        71.49084
465.89         71.3385
466.34        71.09607
466.78        71.91607
467.22        71.78234
467.67        71.53983
468.11        71.70433
468.55        71.42586
468.99        71.10583
469.44         70.8495
469.88        70.72041
470.32        70.67217
470.77        70.65551
471.21        70.63969
471.65         70.5888
472.10        70.53877
472.54        70.51532
472.98        70.54732
473.42        70.61917
473.87         70.8731
474.31         71.0725
474.75        70.95718
475.20        70.59094
475.64        70.58632
476.08        70.91036
476.52        70.75256
476.97        70.29294
477.41         70.1083
477.85        69.90112
478.29        69.45753
478.74        70.28152
479.18        70.55205
479.62         69.8341
480.06        69.79679
480.50        70.17735
480.95        70.14767
481.39        70.77807
481.83        70.09584
482.27        70.90475
482.72        70.55309
483.16        70.72837
483.60        70.76892
484.04         71.0181
484.48        71.20094
484.93        71.00278
485.37        71.33243
485.81        70.45219
486.25        69.06744
486.69        70.18092
487.14        70.32656
487.58        69.67857
488.02        69.65301
488.46        70.45026
488.90        70.76707
489.34        70.07416
489.79        71.26007
490.23        70.18523
490.67        70.32608
491.11        70.43511
491.55        70.23893
491.99        69.82378
492.43         69.6573
492.88        69.79336
493.32         70.2682
493.76        70.46355
494.20        70.70012
494.64         70.7709
495.08        70.70871
495.52        70.59618
495.96        70.46733
496.41        70.38232
496.85        70.59409
497.29        70.95132
497.73        70.61295
498.17         70.2445
498.61        69.79492
499.05          69.614
499.49        69.77424
499.93        70.13358
500.37        70.24487
500.82        70.11137
501.26        70.03998
501.70        69.97668
502.14        70.49284
502.58        70.02567
503.02        70.11427
503.46        70.30167
503.90        70.54736
504.34        70.76434
504.78        70.84841
505.22        70.77892
505.66        70.59098
506.10         70.3662
506.54        70.23096
506.98        70.21707
507.42        70.44395
507.86        70.24802
508.30        70.65019
508.74        70.17483
509.18        69.93245
509.62        69.65085
510.06         69.5441
510.50        69.64695
510.94        69.90366
511.38        70.22073
511.82        70.40891
512.26        70.41743
512.70        70.30321
513.14        70.13618
513.58        70.02319
514.02        69.99783
514.46        70.02388
514.90        70.07471
515.34        70.11315
515.78         70.1239
516.22        70.12165
516.66        70.11691
517.10        70.11858
517.54         70.1293
517.98        70.14563
518.42        70.14894
518.86         70.1139
519.30        70.03914
519.74        69.93324
520.18        69.83974
520.62        69.82165
521.06        69.89477
521.50        70.05241
521.93        70.23827
522.37        70.33529
522.81        70.32591
523.25          70.228
523.69        70.13557
524.13         70.1974
524.57        70.43212
525.01        70.78796
525.45        71.12206
525.89          71.203
526.32        70.97789
526.76        70.55441
527.20        70.09101
527.64        69.83466
528.08        69.84419
528.52        70.03893
528.96        70.31272
529.40        70.49686
529.83        70.53036
530.27        70.47205
530.71        70.35852
531.15        70.25221
531.59        70.17607
532.03         70.1067
532.46         70.0219
532.90        69.92286
533.34        69.80639
533.78        69.69106
534.22         69.6018
534.66         69.5686
535.09        69.58956
535.53        69.66496
535.97        69.75879
536.41        69.83554
536.85        69.87825
537.28        69.87132
537.72        69.82801
538.16        69.79839
538.60        69.77221
539.04        69.67947
539.47        69.51161
539.91        69.37389
540.35        69.26194
540.79        69.14998
541.22        69.05618
541.66        69.03735
542.10        69.09323
542.54         69.2084
542.97        69.34921
543.41        69.48302
543.85        69.58655
544.29        69.68219
544.72        69.73615
545.16        69.73606
545.60        69.68292
546.04        69.55237
546.47        69.42021
546.91        69.51863
547.35        69.81701
547.79        70.04062
548.22        70.10471
548.66        70.25448
549.10         70.4807
549.53         70.4278
549.97        70.00604
550.41        70.51709
550.84        69.85941
551.28        69.65795
551.72         69.3376
552.15        69.49027
552.59        69.23282
553.03        69.59469
553.46        69.76026
553.90        69.87992
554.34        69.71926
554.77        70.09793
555.21        69.81819
555.65        69.76966
556.08        69.65643
556.52        69.78285
556.96        70.10078
557.39        70.27763
557.83        70.26537
558.27        70.35226
558.70        70.46708
559.14        69.97746
559.57        70.51633
560.01        70.51923
560.45        70.49924
560.88        70.28626
561.32        70.26571
561.75        70.33028
562.19         70.4943
562.63        70.19491
563.06        69.59515
563.50        69.62356
563.93        70.16233
564.37        70.37454
564.80        70.19618
565.24        70.10072
565.68         70.1224
566.11        70.16833
566.55        70.24428
566.98        70.25602
567.42        70.26694
567.85        70.24511
568.29        70.18718
568.72        70.31107
569.16        70.81233
569.60        70.10206
570.03        70.32903
570.47        70.65089
570.90        70.80301
571.34        70.10455
571.77        70.78588
572.21        70.79121
572.64        70.72966
573.08        70.90151
573.51        70.51003
573.95        70.37657
574.38        70.55422
574.82        70.39277
