SpectraSmart Spectrum 2.9.0.0
--------- Device Information -----------
Spectrum Name :  反射率_0
Saving Time :  2024/04/30 00:35:56
Spectro-Module Model Name : SE2030-DUVN
Spectro-Module Serial Number : OS361AC55029948
Wavelength Start : 200
Wavelength End : 1025
Wavelength Unit : Wavelength(nm)
Spectrum Unit : Reflectance(%)
-----------Spectrum Setting ------------
Integration Time : 20ms
Average : 10
Boxcar : 0
Background removal :  enabled
linearity correction :  enabled
SC :  disabled
Intensity correction :  disabled
DWT denoise :  enabled
savitzky-golay :  disabled
FFT :  disabled
Running average :  disabled
Kalman :  disabled
High pass :  disabled
---------------BEGIN--------------------
Wavelength(nm)             Reflectance(%)
200.29               0
200.75        117.9988
201.21        97.44221
201.67        76.68266
202.13        62.81474
202.58         59.2673
203.04        64.77628
203.50        77.90967
203.96        94.10979
204.42        109.0338
204.88        121.8128
205.34        127.1289
205.80        119.9151
206.26        104.7008
206.72        87.68681
207.18        73.29488
207.64        63.32865
208.10        56.50333
208.55        51.06731
209.01        47.53629
209.47        48.18698
209.93        52.62393
210.39         59.2705
210.85        64.80282
211.31        66.54365
211.77        64.31966
212.23        57.48899
212.69        47.60403
213.14        44.05673
213.60        50.60942
214.06        62.21267
214.52         71.5173
214.98        73.63297
215.44        69.66351
215.90        61.65826
216.36        53.11441
216.81        50.91841
217.27        58.62088
217.73         76.3213
218.19        102.5985
218.65        123.6032
219.11        127.8688
219.57        119.4483
220.02        107.4206
220.48        98.94108
220.94        93.11674
221.40        87.03951
221.86        79.41082
222.32        71.24683
222.77        65.33335
223.23        63.32202
223.69        62.73928
224.15        61.09195
224.61        58.03125
225.06        53.67338
225.52        49.65648
225.98        49.57584
226.44        53.44228
226.90        58.54165
227.36        62.53595
227.81        63.96449
228.27        63.21276
228.73         60.8851
229.19        57.70188
229.65        55.44691
230.10        54.79675
230.56        55.06128
231.02        55.54896
231.48        55.67695
231.93        55.26592
232.39        54.66669
232.85        53.82701
233.31        52.71748
233.77        51.45282
234.22        50.15726
234.68        49.00958
235.14         48.4563
235.60        48.68459
236.05        49.53455
236.51        51.05789
236.97        53.36259
237.43        56.56656
237.88        61.12362
238.34        66.47832
238.80        70.81229
239.26        72.51228
239.71        71.72525
240.17        69.51309
240.63        67.96013
241.08        67.82716
241.54        68.79818
242.00         72.0103
242.46        78.82726
242.91        88.74817
243.37        99.26466
243.83        107.2238
244.28        112.0331
244.74        114.5133
245.20        113.7011
245.66        111.2021
246.11        111.3662
246.57        115.9287
247.03        125.6682
247.48         134.791
247.94        130.6646
248.40        115.8299
248.85        98.82943
249.31        87.77152
249.77        85.61137
250.22        91.80821
250.68        107.2542
251.14        131.8243
251.59        146.4171
252.05        136.9039
252.51        118.0432
252.96        103.0768
253.42        96.72948
253.88         95.9529
254.33        97.93494
254.79        100.6785
255.25        100.1854
255.70        96.25327
256.16        92.12558
256.62        89.00788
257.07        87.33769
257.53        87.17047
257.99        87.58044
258.44        87.61253
258.90        86.96457
259.35        85.22112
259.81        83.31581
260.27        81.50254
260.72        79.97416
261.18        78.92091
261.63         77.8442
262.09        76.61778
262.55        74.67599
263.00        72.10107
263.46        69.49533
263.91         67.0844
264.37        65.50716
264.83        64.61519
265.28        64.09839
265.74        63.81654
266.19        63.29005
266.65        62.51307
267.11        61.57529
267.56        60.55102
268.02        59.56469
268.47        58.59081
268.93        57.57041
269.38        56.47591
269.84        55.40825
270.30         54.3864
270.75        53.42467
271.21        52.46638
271.66        51.33353
272.12        50.01547
272.57        48.53537
273.03           47.07
273.48        45.81018
273.94        44.88084
274.39        44.16544
274.85        43.59574
275.31        42.96498
275.76        42.19857
276.22        41.39062
276.67        40.56938
277.13        39.89981
277.58        39.34464
278.04        38.90535
278.49        38.43438
278.95         37.8476
279.40        37.08712
279.86        36.28093
280.31        35.49646
280.77        34.96953
281.22        34.68136
281.68        34.58607
282.13        34.55697
282.59         34.4889
283.04        34.31652
283.50         34.0894
283.95        33.79368
284.41        33.43834
284.86        33.03096
285.32         32.6235
285.77        32.22765
286.22         31.9485
286.68        31.81091
287.13        31.74069
287.59        31.74845
288.04        31.77699
288.50        31.81968
288.95        31.85162
289.41        31.84406
289.86        31.69925
290.32        31.45445
290.77        31.16011
291.22        30.91588
291.68        30.86945
292.13        31.05959
292.59        31.47709
293.04        32.13765
293.50        33.10191
293.95        34.34562
294.40        35.85188
294.86        37.47248
295.31        38.98299
295.77         40.3214
296.22        41.52482
296.68         42.7317
297.13        44.14365
297.58        45.81413
298.04        47.64368
298.49        49.51355
298.95        51.25648
299.40        52.81848
299.85        54.27166
300.31        55.70139
300.76        57.14789
301.21        58.67949
301.67        60.31097
302.12        62.00663
302.58        63.86609
303.03        65.84869
303.48        67.87189
303.94        69.94473
304.39        72.32168
304.84        74.48352
305.30        76.81921
305.75        79.02831
306.20        80.96188
306.66         82.6151
307.11        83.98467
307.57        85.27621
308.02        86.66429
308.47        88.24066
308.93        89.94813
309.38        91.64983
309.83        93.21281
310.29        94.58927
310.74        95.80412
311.19        96.86856
311.65        97.78212
312.10        98.55167
312.55        99.21185
313.00        99.86634
313.46        100.6833
313.91        101.6775
314.36        102.8006
314.82        103.9621
315.27        105.0383
315.72        105.9465
316.18        106.7116
316.63        107.2896
317.08        107.6317
317.53        107.7717
317.99        107.7735
318.44         107.728
318.89        107.8001
319.35        108.0423
319.80        108.4107
320.25        108.9462
320.70        109.6995
321.16        110.6097
321.61        111.7016
322.06        112.7137
322.51        113.2349
322.97        113.1758
323.42        112.6589
323.87        112.0055
324.32        111.7667
324.78        112.0607
325.23        112.8056
325.68        113.7141
326.13        114.2883
326.59        114.3617
327.04         114.129
327.49        113.8235
327.94        113.8735
328.39        114.3859
328.85        115.1671
329.30        116.0635
329.75        116.5967
330.20        116.6369
330.66        116.3292
331.11         115.935
331.56        115.7873
332.01        116.0149
332.46         116.521
332.92        117.1718
333.37        117.9084
333.82        118.6054
334.27        119.2969
334.72        119.9745
335.17        120.6203
335.63        121.1964
336.08        121.7521
336.53        122.2201
336.98        122.5773
337.43        122.8301
337.88        122.9907
338.34        123.1532
338.79        123.4872
339.24        124.0204
339.69        124.7274
340.14        125.4626
340.59        125.9695
341.05        126.2006
341.50        126.2432
341.95        126.2592
342.40        126.5288
342.85        127.1055
343.30        127.8596
343.75        128.6653
344.20        129.3221
344.66        129.7746
345.11        130.1107
345.56        130.2902
346.01         130.241
346.46        130.0061
346.91        129.6111
347.36        129.3324
347.81        129.5929
348.26        130.4366
348.72        131.7099
349.17        133.0631
349.62        133.8156
350.07        133.7947
350.52        133.2311
350.97        132.4681
351.42        132.0348
351.87        132.0886
352.32        132.4592
352.77        133.0334
353.22        133.6381
353.67        134.1574
354.13        134.5971
354.58        134.8852
355.03        134.8921
355.48        134.5824
355.93        133.9853
356.38        133.1093
356.83        131.9852
357.28        130.6841
357.73        129.2587
358.18        127.8875
358.63        126.8317
359.08         126.139
359.53        125.7327
359.98        125.4478
360.43        125.0056
360.88        124.3228
361.33        123.4789
361.78        122.5329
362.23        121.5865
362.68        120.6862
363.13        119.7968
363.58        118.9519
364.03        118.2118
364.48        117.5774
364.93        117.0352
365.38        116.5257
365.83        115.9463
366.28        115.2707
366.73        114.5255
367.18         113.739
367.63        112.9604
368.08        112.2003
368.53        111.4363
368.98        110.6773
369.43        109.9351
369.88        109.2261
370.33        108.5871
370.78        107.9796
371.23        107.3372
371.68        106.6501
372.13        105.9029
372.58        105.2322
373.03        104.8614
373.48        104.7899
373.93        104.9237
374.38        104.9558
374.83         104.395
375.28        103.1804
375.72        101.4994
376.17        99.79267
376.62        98.52251
377.07        97.80037
377.52        97.46309
377.97        97.37779
378.42        97.32745
378.87        97.20765
379.32        97.07397
379.77        96.86967
380.22        96.50106
380.67        95.95243
381.11        95.22279
381.56         94.3938
382.01        93.64883
382.46        93.05794
382.91        92.60413
383.36        92.21899
383.81        91.77732
384.26        91.25072
384.71        90.68054
385.15        90.13405
385.60        89.77367
386.05        89.59389
386.50        89.53172
386.95        89.47081
387.40        89.24341
387.85        88.82519
388.29         88.2336
388.74        87.67956
389.19         87.2187
389.64        86.87532
390.09        86.60098
390.54        86.37405
390.98         86.1757
391.43        86.02457
391.88        85.82772
392.33        85.55026
392.78        85.33863
393.23         85.1131
393.67        84.48182
394.12        83.61236
394.57        83.30067
395.02        82.50768
395.47        82.60928
395.91        83.10517
396.36        83.24529
396.81        82.94133
397.26        82.61668
397.71        82.35547
398.15        81.99339
398.60        81.63999
399.05        81.42616
399.50        81.28922
399.95        80.89028
400.39        80.09129
400.84         80.2722
401.29        81.12417
401.74        81.26894
402.18        80.59274
402.63        79.83958
403.08        79.28068
403.53        79.01771
403.97        79.10387
404.42         79.3792
404.87        79.69718
405.32        79.96329
405.76        79.99988
406.21        79.67653
406.66         79.0361
407.11         78.2506
407.55        77.59589
408.00        77.30548
408.45         77.4302
408.90        78.07563
409.34        78.87954
409.79        78.75676
410.24        77.92238
410.68        77.75925
411.13        78.32874
411.58        78.77173
412.03        78.92559
412.47        78.95712
412.92        78.79672
413.37        78.44195
413.81        77.95957
414.26        77.53543
414.71        77.18567
415.15        76.90195
415.60        76.68658
416.05        76.58472
416.49        76.60589
416.94        76.74682
417.39        76.93739
417.83        77.03001
418.28        77.00584
418.73        76.91138
419.17        76.82053
419.62        76.87901
420.07        77.07472
420.51        77.29074
420.96        77.51912
421.41        77.60567
421.85        77.45634
422.30        77.52818
422.74        77.62772
423.19        76.74868
423.64        75.29548
424.08        75.33846
424.53        76.74583
424.98        77.33655
425.42        76.90105
425.87        77.04531
426.31        77.73828
426.76        76.95403
427.21        75.95309
427.65        75.95528
428.10        76.96539
428.54         76.8486
428.99         75.7529
429.44        75.07681
429.88        75.04785
430.33        75.49307
430.77        76.14245
431.22        76.91352
431.66         77.5447
432.11        77.19067
432.56        76.08607
433.00         75.7771
433.45        76.56159
433.89         76.9047
434.34        77.11512
434.78        78.77533
435.23        76.78183
435.67        75.96096
436.12        75.18474
436.57        75.17624
437.01        75.78768
437.46        76.34028
437.90        76.27262
438.35        76.75234
438.79        77.51332
439.24        77.90323
439.68        77.88621
440.13        77.82278
440.57        77.82868
441.02        77.78288
441.46        77.66067
441.91         77.8287
442.35        78.19913
442.80         77.5322
443.24        78.08847
443.69        77.70725
444.13         77.1851
444.58        76.88474
445.02        76.80431
445.47        76.77618
445.91        76.75529
446.36        76.79539
446.80        76.85181
447.24        77.07106
447.69        77.17342
448.13        77.28407
448.58        77.33355
449.02        77.31715
449.47        77.29574
449.91        77.33481
450.36        77.46094
450.80        77.62421
451.25        77.78551
451.69        77.84431
452.13        77.79354
452.58        77.70512
453.02         77.5988
453.47        77.51513
453.91        77.45224
454.36        77.50462
454.80        77.35314
455.24        77.57442
455.69        77.94348
456.13        78.03238
456.58        77.85146
457.02        77.42308
457.46        77.14344
457.91        77.00349
458.35         77.0294
458.79        76.96471
459.24        76.83731
459.68        76.85555
460.13        76.99941
460.57        76.90025
461.01        77.12234
461.46        76.87267
461.90        76.30399
462.34        77.04195
462.79        76.79348
463.23        76.66274
463.68         76.0726
464.12        75.74812
464.56         75.7309
465.01         75.6384
465.45        75.47128
465.89        75.59427
466.34        75.87679
466.78        76.10284
467.22        75.75832
467.67        75.49895
468.11        75.56436
468.55         75.3868
468.99        75.09177
469.44        74.83402
469.88        74.64269
470.32        74.49269
470.77        74.37676
471.21        74.31197
471.65        74.27573
472.10        74.27873
472.54        74.31661
472.98         74.3783
473.42        74.43731
473.87         74.6198
474.31        74.82539
474.75        74.58534
475.20        74.03433
475.64        74.03848
476.08        74.55948
476.52        74.33402
476.97         73.6949
477.41        73.80998
477.85        73.38263
478.29        72.93552
478.74        73.53448
479.18        73.85352
479.62        73.25574
480.06        73.22633
480.50        73.42746
480.95        73.54793
481.39        74.20292
481.83        73.28364
482.27        74.04771
482.72        73.88444
483.16        73.84037
483.60        73.89443
484.04        74.13693
484.48         74.3875
484.93        74.39673
485.37        74.61189
485.81        73.75897
486.25        72.65965
486.69        74.55936
487.14        73.98579
487.58        73.15334
488.02        73.14017
488.46        73.91222
488.90         74.1533
489.34        73.29038
489.79        73.99058
490.23        73.33491
490.67        73.30544
491.11        73.08177
491.55        72.81351
491.99        72.56137
492.43        72.46216
492.88        72.55572
493.32        72.80122
493.76        73.10216
494.20        73.33112
494.64        73.43188
495.08         73.4307
495.52        73.38039
495.96        73.29925
496.41        73.19975
496.85        73.39194
497.29        73.29527
497.73        73.14952
498.17        72.67188
498.61        72.39688
499.05        72.35498
499.49        72.45961
499.93        72.59412
500.37        72.59853
500.82        72.53172
501.26        72.13729
501.70        72.42571
502.14         72.5057
502.58        72.37508
503.02        72.42785
503.46        72.58362
503.90        72.79011
504.34        72.97667
504.78         73.0696
505.22        73.02371
505.66        72.88366
506.10        72.74089
506.54        72.65057
506.98        72.55159
507.42        73.13291
507.86        72.40113
508.30        72.75648
508.74        72.30352
509.18        72.07694
509.62        71.78416
510.06        71.71404
510.50        71.90902
510.94        72.27927
511.38        72.70509
511.82        72.94859
512.26        72.94543
512.70        72.76785
513.14         72.5101
513.58        72.31805
514.02        72.23915
514.46        72.22794
514.90        72.25459
515.34        72.27608
515.78        72.27225
516.22        72.25994
516.66        72.24378
517.10        72.22066
517.54        72.19118
517.98        72.15726
518.42         72.1024
518.86        72.00577
519.30        71.87335
519.74        71.71699
520.18        71.59336
520.62        71.58562
521.06        71.70873
521.50        71.94224
521.93        72.21392
522.37        72.37904
522.81        72.40763
523.25        72.32467
523.69        72.21222
524.13        72.20347
524.57        72.32077
525.01        72.51723
525.45        72.69284
525.89        72.68688
526.32        72.46144
526.76        72.10761
527.20        71.72977
527.64        71.48881
528.08        71.42667
528.52        71.49011
528.96        71.62607
529.40        71.75004
529.83        71.82185
530.27        71.87383
530.71        71.89558
531.15        71.87688
531.59        71.82127
532.03        71.72645
532.46        71.60848
532.90        71.52883
533.34        71.49469
533.78        71.49931
534.22        71.52639
534.66        71.54631
535.09        71.54411
535.53        71.54242
535.97        71.54072
536.41        71.55393
536.85        71.58163
537.28        71.60886
537.72        71.62382
538.16        71.60424
538.60        71.54471
539.04        71.45657
539.47        71.33507
539.91        71.23061
540.35        71.13648
540.79        71.06055
541.22        71.00053
541.66        70.96333
542.10        70.94698
542.54         70.9591
542.97         70.9988
543.41        71.08009
543.85        71.19138
544.29        71.34364
544.72        71.47681
545.16         71.5302
545.60        71.48874
546.04        71.34335
546.47        71.16813
546.91        71.19272
547.35         71.3948
547.79        71.50467
548.22        71.46068
548.66        71.54839
549.10        71.76589
549.53        71.74397
549.97        71.39846
550.41        72.01349
550.84        71.42541
551.28        71.36436
551.72        71.23605
552.15        71.15384
552.59        71.21977
553.03        71.22329
553.46        71.19345
553.90        71.20598
554.34        71.24792
554.77        71.26087
555.21        71.25523
555.65        71.27287
556.08        71.29393
556.52         71.3322
556.96        71.40063
557.39         71.4716
557.83        71.49789
558.27        71.76967
558.70        71.67482
559.14        71.49754
559.57         71.8638
560.01        71.86002
560.45        71.76722
560.88        71.59763
561.32        71.69711
561.75        71.66605
562.19        71.59239
562.63        71.28975
563.06        70.89662
563.50        71.01125
563.93        71.49523
564.37        71.67178
564.80        71.48238
565.24        71.34971
565.68        71.29655
566.11         71.2497
566.55        71.24222
566.98        71.13377
567.42        71.06409
567.85        71.27593
568.29        71.67751
568.72        72.00928
569.16        72.44388
569.60         71.7879
570.03        72.25637
570.47        72.37883
570.90        72.26965
571.34        71.83502
571.77         72.0285
572.21        72.09006
572.64        72.31032
573.08        72.12444
573.51        71.55483
573.95        72.27321
574.38        72.82808
574.82        72.38544
