SpectraSmart Spectrum 2.9.0.0
--------- Device Information -----------
Spectrum Name :  反射率_0
Saving Time :  2024/04/30 00:00:13
Spectro-Module Model Name : SE2030-DUVN
Spectro-Module Serial Number : OS361AC55029948
Wavelength Start : 200
Wavelength End : 1025
Wavelength Unit : Wavelength(nm)
Spectrum Unit : Reflectance(%)
-----------Spectrum Setting ------------
Integration Time : 20ms
Average : 10
Boxcar : 0
Background removal :  enabled
linearity correction :  enabled
SC :  disabled
Intensity correction :  disabled
DWT denoise :  enabled
savitzky-golay :  disabled
FFT :  disabled
Running average :  disabled
Kalman :  disabled
High pass :  disabled
---------------BEGIN--------------------
Wavelength(nm)             Reflectance(%)
200.29               0
200.75        98.55997
201.21        80.42079
201.67        61.33076
202.13        48.65984
202.58        45.88418
203.04        51.51545
203.50         64.6136
203.96        81.80237
204.42        99.16926
204.88        115.7159
205.34        124.4777
205.80        118.0195
206.26        101.2163
206.72        81.65752
207.18        65.46418
207.64        55.67564
208.10        50.82422
208.55        48.84835
209.01        49.07955
209.47        50.93027
209.93        53.57071
210.39        57.03113
210.85         59.9448
211.31         61.3495
211.77         61.3192
212.23        59.24886
212.69        56.46642
213.14        58.29682
213.60         64.9993
214.06        73.54573
214.52        79.08369
214.98         78.4085
215.44        72.45679
215.90        62.35182
216.36         51.6438
216.81        47.51812
217.27        53.60872
217.73        70.44832
218.19        95.55198
218.65         112.607
219.11        110.8731
219.57        96.86792
220.02        82.19321
220.48        75.08743
220.94          74.473
221.40        77.61853
221.86         81.7807
222.32        79.88848
222.77        71.15653
223.23        62.28827
223.69        55.47219
224.15        50.56881
224.61        46.66033
225.06         42.6605
225.52        39.77871
225.98        40.64658
226.44          44.811
226.90        50.10778
227.36         54.1212
227.81        55.24371
228.27        53.89013
228.73        50.61266
229.19        46.62576
229.65        44.72475
230.10        45.54785
230.56        47.69867
231.02        49.72527
231.48        50.41537
231.93        49.65898
232.39        48.01117
232.85        45.83617
233.31        43.88244
233.77         42.4883
234.22         41.5345
234.68        40.73279
235.14        39.65559
235.60        38.35886
236.05        37.22123
236.51        36.76433
236.97        37.54887
237.43        39.79538
237.88        43.71173
238.34        49.14807
238.80        55.04028
239.26        59.78073
239.71        62.89658
240.17        64.35129
240.63        65.30828
241.08        66.50681
241.54        67.66129
242.00        69.05604
242.46        70.83816
242.91        72.91572
243.37        74.85728
243.83        76.90405
244.28        79.60741
244.74        83.22542
245.20          87.689
245.66        92.94295
246.11        98.27807
246.57        102.8842
247.03         107.674
247.48        110.3624
247.94        106.4406
248.40        98.37289
248.85        89.52169
249.31        84.39449
249.77        84.65717
250.22        90.26405
250.68        102.3312
251.14        120.6532
251.59        130.5442
252.05        121.7842
252.51        106.0694
252.96        93.30164
253.42        86.59197
253.88        83.37328
254.33        81.60532
254.79        80.40296
255.25        78.33926
255.70        75.53749
256.16        73.33598
256.62        71.95625
257.07        71.32604
257.53        71.52992
257.99        72.07533
258.44        72.05226
258.90        71.09731
259.35        69.04265
259.81        66.81337
260.27        64.90374
260.72        63.73996
261.18        63.33274
261.63        63.07804
262.09         62.6415
262.55        61.27079
263.00        59.03297
263.46        56.59564
263.91        54.23241
264.37        52.53635
264.83        51.42503
265.28        50.60888
265.74        50.08046
266.19        49.61492
266.65        49.20158
267.11        48.84583
267.56        48.42632
268.02        47.76327
268.47        46.80196
268.93        45.58976
269.38        44.25545
269.84        43.16885
270.30        42.42006
270.75        41.91343
271.21        41.49875
271.66        40.90215
272.12        40.05827
272.57        39.02593
273.03        37.92434
273.48        36.85667
273.94        35.94161
274.39        35.11663
274.85        34.40042
275.31        33.73614
275.76        33.08821
276.22         32.4968
276.67        31.95832
277.13        31.56064
277.58        31.24597
278.04        31.01083
278.49        30.71635
278.95         30.2655
279.40        29.61062
279.86        28.87736
280.31        28.12443
280.77        27.55917
281.22        27.18678
281.68        26.97595
282.13        26.87495
282.59        26.85923
283.04        26.87709
283.50        26.93146
283.95        26.94593
284.41        26.81517
284.86        26.52453
285.32        26.15716
285.77        25.76325
286.22        25.49201
286.68        25.38514
287.13        25.35615
287.59         25.4235
288.04        25.55394
288.50        25.73125
288.95        25.92692
289.41        26.07173
289.86         26.0183
290.32        25.78892
290.77        25.44704
291.22        25.11841
291.68        24.99808
292.13        25.13786
292.59         25.5081
293.04        26.10603
293.50        26.95247
293.95        28.02283
294.40        29.32111
294.86        30.71588
295.31        32.00877
295.77        33.14948
296.22         34.1669
296.68         35.2153
297.13        36.52257
297.58        38.13996
298.04        39.96141
298.49        41.82338
298.95        43.47984
299.40        44.87156
299.85         46.0964
300.31        47.29592
300.76        48.61023
301.21        50.11637
301.67        51.77663
302.12        53.51684
302.58        55.37229
303.03        57.29454
303.48        59.22059
303.94        61.13245
304.39        63.34798
304.84        65.20232
305.30        67.21323
305.75        69.15553
306.20        71.06563
306.66        72.94171
307.11        74.71538
307.57        76.39716
308.02        77.88797
308.47        79.23175
308.93        80.46939
309.38         81.6391
309.83        82.87675
310.29        84.20623
310.74        85.57283
311.19        86.88013
311.65        87.96297
312.10        88.78136
312.55        89.41875
313.00        90.02977
313.46        90.85637
313.91        91.93224
314.36        93.17603
314.82        94.44939
315.27         95.5598
315.72        96.41312
316.18        97.06287
316.63        97.52705
317.08        97.85057
317.53        98.08659
317.99        98.26672
318.44        98.42284
318.89        98.62456
319.35        98.89957
319.80        99.23357
320.25        99.70651
320.70        100.4336
321.16        101.3749
321.61        102.5265
322.06        103.6103
322.51         104.187
322.97         104.155
323.42        103.6489
323.87        102.9886
324.32        102.7168
324.78        102.9588
325.23        103.6356
325.68        104.4839
326.13        105.0458
326.59        105.1688
327.04        105.0347
327.49        104.8611
327.94        105.0462
328.39        105.6819
328.85        106.5755
329.30        107.5643
329.75        108.1738
330.20        108.2703
330.66        107.9984
331.11        107.6013
331.56        107.3896
332.01        107.4992
332.46        107.8532
332.92        108.3711
333.37         109.068
333.82        109.8432
334.27        110.6997
334.72        111.5923
335.17        112.4387
335.63        113.1678
336.08        113.8326
336.53         114.334
336.98         114.599
337.43        114.6405
337.88        114.4975
338.34        114.3437
338.79        114.4745
339.24         114.954
339.69        115.7297
340.14        116.6182
340.59         117.289
341.05        117.6584
341.50         117.826
341.95        117.9435
342.40        118.2776
342.85        118.8824
343.30        119.6283
343.75        120.4042
344.20        121.0411
344.66        121.4969
345.11        121.8572
345.56        122.0898
346.01        122.1303
346.46        122.0161
346.91        121.7644
347.36        121.6269
347.81        121.9913
348.26        122.8929
348.72        124.1851
349.17        125.5256
349.62        126.2552
350.07        126.2087
350.52        125.6109
350.97        124.8053
351.42        124.3206
351.87        124.3148
352.32        124.6252
352.77        125.1379
353.22        125.6759
353.67        126.1276
354.13        126.5065
354.58        126.7556
355.03        126.7667
355.48        126.5112
355.93         126.014
356.38        125.2705
356.83        124.2925
357.28        123.1411
357.73        121.8633
358.18        120.6449
358.63        119.7599
359.08        119.2521
359.53        119.0357
359.98        118.9124
360.43        118.5543
360.88        117.8719
361.33        116.9613
361.78        115.9316
362.23        114.9617
362.68        114.1185
363.13        113.3493
363.58        112.6428
364.03        111.9843
364.48        111.3589
364.93        110.7777
365.38        110.2274
365.83        109.6796
366.28        109.1213
366.73        108.5479
367.18        107.9434
367.63        107.2884
368.08          106.58
368.53        105.8285
368.98        105.0643
369.43        104.3335
369.88        103.6657
370.33        103.0743
370.78        102.5474
371.23        102.0646
371.68        101.6092
372.13        101.1506
372.58        100.7316
373.03        100.4228
373.48        100.2035
373.93        100.0377
374.38        99.74253
374.83         99.0356
375.28        97.91072
375.72        96.48321
376.17        95.10902
376.62        94.13517
377.07        93.63158
377.52        93.46958
377.97        93.49941
378.42        93.47427
378.87        93.29366
379.32        93.01637
379.77        92.64543
380.22        92.18326
380.67        91.63355
381.11        90.97602
381.56        90.24337
382.01        89.52761
382.46        88.88184
382.91        88.32977
383.36        87.84753
383.81        87.37527
384.26        86.90041
384.71        86.43159
385.15        86.02306
385.60         85.8198
386.05        85.79532
386.50        85.88219
386.95         85.9266
387.40        85.70022
387.85        85.18131
388.29        84.42725
388.74        83.68691
389.19        83.07768
389.64        82.63383
390.09        82.28011
390.54        82.02293
390.98        81.86064
391.43          81.804
391.88        81.83308
392.33        81.79844
392.78        81.54641
393.23        81.08181
393.67        80.33824
394.12        79.54082
394.57        79.44591
395.02        78.99229
395.47        79.24567
395.91        79.71148
396.36        79.90092
396.81        79.72488
397.26        79.41078
397.71        79.05834
398.15        78.65674
398.60        78.32732
399.05         78.1001
399.50        77.92988
399.95        77.62994
400.39        77.01318
400.84        77.14534
401.29        77.75144
401.74        77.79547
402.18        77.18533
402.63        76.45421
403.08        75.87605
403.53        75.61987
403.97        75.73431
404.42        76.13409
404.87         76.5891
405.32        76.69745
405.76        76.36204
406.21        75.85798
406.66        75.29505
407.11        74.66932
407.55        74.20554
408.00        74.18314
408.45         74.5645
408.90        75.19237
409.34        75.76383
409.79        75.60023
410.24        74.91263
410.68        74.74287
411.13        75.15816
411.58         75.5332
412.03         75.7123
412.47        75.74399
412.92        75.56004
413.37         75.2013
413.81        74.75158
414.26        74.41512
414.71        74.20578
415.15        74.08878
415.60        74.04272
416.05        74.07507
416.49        74.17694
416.94        74.35593
417.39         74.5228
417.83        74.51066
418.28        74.30332
418.73        73.94508
419.17        73.59607
419.62        73.53093
420.07         73.7761
420.51        74.21494
420.96        74.69518
421.41        74.86986
421.85        74.64269
422.30        74.38473
422.74        74.11141
423.19        73.54608
423.64        72.90456
424.08        73.08708
424.53        73.93453
424.98        74.37663
425.42        74.27567
425.87        74.27736
426.31          74.409
426.76        74.16454
427.21        73.52309
427.65        73.61581
428.10        74.16851
428.54        73.89391
428.99        72.97523
429.44        72.44551
429.88        72.45733
430.33        72.83619
430.77        73.34686
431.22        73.87873
431.66        74.25758
432.11        74.09593
432.56        73.53632
433.00        73.27599
433.45        73.55801
433.89        74.11577
434.34        74.31152
434.78        75.94357
435.23        73.77173
435.67        73.10196
436.12        72.74323
436.57        73.02504
437.01        73.77005
437.46         74.1758
437.90        74.20683
438.35        74.46475
438.79        74.93372
439.24        75.10065
439.68         74.9743
440.13        75.07755
440.57        75.41609
441.02        75.40073
441.46        74.93527
441.91        75.58241
442.35         74.8735
442.80        75.08755
443.24        75.37849
443.69        75.24158
444.13        74.73231
444.58        74.50816
445.02        74.54422
445.47         74.6136
445.91        74.70477
446.36         74.6618
446.80        74.39219
447.24        75.12894
447.69         74.7295
448.13        74.89027
448.58        74.99148
449.02        75.06995
449.47        75.13517
449.91         75.2018
450.36        75.30379
450.80        75.39677
451.25        75.48989
451.69        75.55522
452.13        75.59204
452.58        75.64086
453.02        75.68325
453.47        75.66415
453.91         75.5486
454.36        75.57525
454.80        75.43958
455.24        75.41555
455.69        75.38933
456.13        75.77084
456.58        75.86278
457.02        75.66563
457.46        75.12894
457.91        74.89397
458.35        74.91088
458.79        74.82273
459.24        74.69186
459.68        74.60122
460.13        74.53641
460.57        74.92588
461.01        74.95648
461.46        74.83907
461.90        74.90181
462.34        75.10435
462.79        75.32931
463.23        74.90123
463.68        73.99468
464.12        73.70329
464.56        73.98618
465.01        73.92117
465.45        73.48624
465.89        73.38512
466.34        73.60312
466.78        73.75458
467.22        73.79963
467.67        73.73591
468.11        73.58422
468.55        73.30614
468.99        72.97537
469.44        72.69784
469.88        72.50866
470.32         72.4012
470.77        72.36407
471.21        72.39659
471.65        72.46979
472.10        72.59414
472.54        72.72988
472.98        72.84634
473.42        72.92135
473.87        72.99058
474.31        73.01179
474.75        72.87186
475.20        72.60957
475.64        72.48656
476.08        72.55547
476.52         72.3569
476.97         71.8232
477.41        72.22169
477.85        72.06873
478.29        71.43739
478.74        72.31225
479.18        72.19366
479.62        71.85903
480.06        71.75535
480.50        71.92835
480.95        71.76643
481.39        72.13931
481.83        71.87672
482.27        71.96815
482.72         72.4446
483.16        72.39548
483.60        72.34632
484.04        72.62354
484.48        72.78406
484.93        72.81618
485.37         72.6124
485.81        71.59364
486.25        70.93518
486.69        71.94738
487.14        72.12489
487.58        71.16182
488.02        71.77361
488.46        72.47073
488.90        71.83324
489.34        71.46014
489.79        71.98332
490.23        71.44865
490.67         71.5392
491.11        71.47833
491.55        71.28867
491.99        71.00501
492.43         70.9024
492.88        71.00766
493.32        71.16334
493.76        71.31715
494.20        71.47266
494.64         71.6047
495.08        71.72203
495.52        71.77367
495.96        71.68962
496.41        71.53583
496.85        71.33693
497.29        71.09052
497.73        71.38012
498.17        71.32336
498.61        71.12874
499.05         70.6928
499.49        70.82167
499.93        71.33237
500.37        71.33098
500.82        70.95274
501.26        70.26047
501.70        70.91245
502.14        71.05398
502.58        71.11564
503.02        71.21684
503.46        71.34919
503.90        71.46082
504.34        71.51184
504.78        71.47642
505.22         71.3361
505.66        71.13995
506.10        70.96172
506.54         70.8359
506.98        70.76774
507.42        71.22015
507.86        70.94168
508.30        71.37784
508.74        70.86694
509.18        70.54806
509.62        70.18769
510.06        70.08321
510.50        70.28614
510.94        70.70983
511.38        71.19498
511.82        71.44063
512.26        71.36973
512.70        71.07652
513.14        70.69949
513.58        70.45113
514.02        70.39404
514.46        70.46254
514.90        70.58713
515.34        70.65985
515.78        70.64391
516.22        70.57686
516.66        70.50002
517.10        70.46783
517.54        70.49321
517.98        70.55523
518.42        70.60552
518.86        70.57377
519.30        70.45098
519.74        70.26543
520.18        70.09259
520.62         70.0437
521.06        70.14405
521.50        70.36611
521.93        70.63199
522.37        70.78915
522.81        70.80549
523.25        70.71047
523.69        70.59327
524.13        70.59549
524.57        70.74012
525.01        70.97681
525.45        71.19232
525.89        71.20548
526.32        70.97429
526.76        70.59476
527.20         70.1889
527.64        69.94465
528.08        69.90903
528.52        70.02042
528.96        70.20612
529.40        70.35086
529.83        70.40685
530.27        70.41425
530.71        70.38314
531.15        70.33525
531.59        70.28173
532.03        70.21208
532.46        70.12012
532.90        70.03152
533.34        69.94898
533.78        69.88071
534.22        69.84042
534.66        69.84212
535.09        69.88061
535.53        69.96505
535.97        70.06635
536.41        70.15437
536.85        70.21376
537.28        70.23631
537.72        70.23501
538.16        70.22863
538.60        70.21779
539.04        70.19985
539.47        70.13242
539.91        70.00839
540.35        69.81683
540.79        69.59161
541.22        69.38159
541.66         69.2747
542.10        69.28647
542.54        69.39148
542.97         69.5502
543.41        69.72005
543.85        69.86736
544.29        70.01322
544.72        70.10447
545.16        70.09911
545.60        69.99302
546.04        69.76925
546.47        69.52405
546.91         69.5297
547.35         69.7709
547.79        69.96111
548.22        70.01116
548.66        70.18121
549.10        70.38364
549.53        70.34608
549.97        69.98556
550.41        70.43492
550.84        69.97992
551.28        69.86566
551.72        69.58126
552.15        69.78616
552.59        69.59399
553.03        69.57581
553.46        69.49391
553.90         69.4966
554.34        69.56893
554.77        69.66172
555.21        69.75944
555.65        69.79292
556.08        69.76825
556.52        69.79985
556.96        69.87345
557.39        69.96959
557.83        70.07092
558.27        70.04067
558.70        69.92444
559.14        69.96402
559.57        70.11359
560.01        70.17568
560.45        70.14967
560.88        69.99271
561.32        70.04408
561.75        69.98399
562.19        69.91112
562.63        69.65321
563.06        69.31423
563.50        69.35325
563.93        69.67761
564.37        69.81506
564.80        69.72622
565.24        69.70323
565.68        69.73244
566.11        69.75338
566.55        69.77758
566.98        69.60381
567.42        69.39616
567.85        69.54858
568.29        69.95438
568.72        70.15193
569.16         70.2709
569.60        69.58975
570.03        70.24895
570.47        70.24269
570.90         70.1743
571.34        69.95947
571.77        70.14584
572.21        70.15916
572.64        70.09437
573.08        70.21056
573.51         70.0196
573.95        70.01998
574.38        70.26364
574.82        70.08005
