SpectraSmart Spectrum 2.9.0.0
--------- Device Information -----------
Spectrum Name :  反射率_0
Saving Time :  2024/04/30 00:20:12
Spectro-Module Model Name : SE2030-DUVN
Spectro-Module Serial Number : OS361AC55029948
Wavelength Start : 200
Wavelength End : 1025
Wavelength Unit : Wavelength(nm)
Spectrum Unit : Reflectance(%)
-----------Spectrum Setting ------------
Integration Time : 20ms
Average : 10
Boxcar : 0
Background removal :  enabled
linearity correction :  enabled
SC :  disabled
Intensity correction :  disabled
DWT denoise :  enabled
savitzky-golay :  disabled
FFT :  disabled
Running average :  disabled
Kalman :  disabled
High pass :  disabled
---------------BEGIN--------------------
Wavelength(nm)             Reflectance(%)
200.29               0
200.75        93.84355
201.21        79.76958
201.67        62.59919
202.13        46.94404
202.58        35.41927
203.04        26.57598
203.50        22.31559
203.96        26.69626
204.42        39.93669
204.88        60.25137
205.34        79.61588
205.80        86.00083
206.26        80.01665
206.72        68.89545
207.18        57.36477
207.64        47.74089
208.10        39.52037
208.55        31.03778
209.01        23.75592
209.47        22.51427
209.93        27.63992
210.39        36.42271
210.85        44.34348
211.31        47.77742
211.77        46.63706
212.23        40.85588
212.69        31.87361
213.14        28.34982
213.60         33.9279
214.06        43.84315
214.52        51.83102
214.98        53.84656
215.44        50.71837
215.90        44.12524
216.36         36.7636
216.81        33.79623
217.27         38.0053
217.73        49.41648
218.19        66.66629
218.65        79.54049
219.11        80.53304
219.57        73.24014
220.02         64.8103
220.48        60.70922
220.94        60.47165
221.40        62.49861
221.86              65
222.32        63.45014
222.77        57.52334
223.23        51.65088
223.69        47.42898
224.15        45.01485
224.61        43.78265
225.06        42.97561
225.52        42.89897
225.98        43.87637
226.44        45.46145
226.90        47.14955
227.36        48.16471
227.81        47.92253
228.27        46.56886
228.73        44.21586
229.19        41.58344
229.65         40.3715
230.10        40.96868
230.56        42.57285
231.02        44.10154
231.48        44.63443
231.93        44.11504
232.39        42.93678
232.85        41.59089
233.31        41.04416
233.77        41.58601
234.22        43.01913
234.68         44.5975
235.14         44.9979
235.60        43.96761
236.05        42.05215
236.51        40.32655
236.97        40.13205
237.43         41.8759
237.88        45.63821
238.34        51.03027
238.80         56.3867
239.26         59.9136
239.71        61.52089
240.17        61.69991
240.63        62.07639
241.08        63.46518
241.54        65.69517
242.00        69.06143
242.46        72.50909
242.91        74.29111
243.37        73.93977
243.83        73.09144
244.28        73.80794
244.74        76.45071
245.20        80.60169
245.66        85.99265
246.11        91.49193
246.57        95.94409
247.03        100.0628
247.48        101.7645
247.94        97.12292
248.40        88.77779
248.85         80.1217
249.31        74.64031
249.77         72.9815
250.22        74.71873
250.68        80.12675
251.14        89.80232
251.59        97.81666
252.05        97.60184
252.51        92.72766
252.96         87.6762
253.42        84.87217
253.88         83.1673
254.33        81.42229
254.79          79.092
255.25        75.48136
255.70         71.3827
256.16        68.17573
256.62        65.88136
257.07        64.15877
257.53        63.00971
257.99        62.03512
258.44        60.84139
258.90        59.70545
259.35        58.37487
259.81        57.26072
260.27        56.24012
260.72        55.21489
261.18        54.30948
261.63        53.27004
262.09        52.23166
262.55        51.08298
263.00        49.82861
263.46        48.70749
263.91        47.58118
264.37        46.54488
264.83        45.51487
265.28        44.41795
265.74         43.4685
266.19        42.78382
266.65        42.42683
267.11        42.28704
267.56        42.12757
268.02        41.60279
268.47        40.63175
268.93        39.33387
269.38        37.90965
269.84        36.83447
270.30        36.22317
270.75        35.92842
271.21        35.74594
271.66        35.34554
272.12        34.64501
272.57        33.73805
273.03        32.74327
273.48        31.76548
273.94          30.925
274.39        30.15462
274.85        29.50629
275.31        28.99074
275.76        28.56646
276.22        28.23193
276.67        27.91656
277.13        27.59425
277.58        27.20913
278.04        26.81707
278.49        26.34309
278.95        25.76584
279.40        25.07056
279.86        24.34697
280.31        23.68135
280.77        23.30929
281.22        23.21809
281.68        23.34386
282.13        23.54455
282.59        23.65976
283.04        23.62648
283.50        23.48773
283.95        23.26275
284.41        22.98852
284.86        22.69094
285.32        22.41164
285.77        22.13645
286.22        21.91216
286.68        21.76061
287.13        21.63068
287.59         21.6013
288.04        21.73478
288.50        22.02139
288.95        22.39225
289.41        22.69625
289.86        22.67571
290.32        22.33402
290.77        21.78172
291.22        21.21339
291.68        20.93523
292.13        21.03115
292.59        21.42691
293.04        22.08633
293.50        22.97528
293.95        24.04809
294.40        25.32209
294.86        26.65383
295.31        27.82361
295.77        28.78601
296.22        29.58335
296.68        30.40009
297.13        31.51685
297.58        33.00174
298.04        34.73517
298.49        36.55307
298.95        38.20012
299.40        39.60537
299.85        40.86162
300.31        42.07809
300.76        43.34946
301.21        44.75026
301.67        46.26519
302.12        47.85243
302.58        49.59745
303.03        51.46935
303.48        53.36455
303.94        55.27175
304.39        57.58749
304.84        59.53156
305.30        61.69748
305.75        63.76207
306.20        65.65179
306.66        67.35729
307.11        68.86264
307.57        70.28195
308.02        71.67915
308.47        73.12132
308.93        74.58927
309.38         76.0392
309.83        77.47142
310.29        78.86684
310.74        80.21311
311.19        81.44199
311.65        82.43385
312.10        83.16994
312.55        83.71343
313.00        84.22638
313.46         84.9682
313.91        85.97345
314.36        87.16086
314.82        88.37772
315.27        89.39897
315.72        90.12917
316.18        90.64162
316.63        90.96487
317.08        91.16212
317.53        91.29218
317.99        91.36921
318.44        91.45195
318.89        91.65103
319.35        91.99167
319.80        92.45093
320.25         93.0199
320.70        93.67053
321.16        94.33997
321.61          95.058
322.06        95.68705
322.51          96.029
322.97        96.04145
323.42        95.78932
323.87        95.43363
324.32        95.25935
324.78        95.33104
325.23        95.64454
325.68        96.06854
326.13        96.37363
326.59        96.47768
327.04        96.48069
327.49        96.50565
327.94        96.79635
328.39        97.39258
328.85        98.15751
329.30        98.95683
329.75        99.37886
330.20        99.32327
330.66        98.91466
331.11        98.40067
331.56        98.11201
332.01        98.17705
332.46        98.50918
332.92        99.01532
333.37        99.66563
333.82        100.3523
334.27        101.0999
334.72        101.8375
335.17        102.4436
335.63        102.8574
336.08        103.1338
336.53         103.296
336.98        103.4683
337.43        103.6954
337.88        103.9556
338.34        104.2344
338.79        104.5246
339.24        104.8213
339.69        105.1588
340.14         105.527
340.59        105.8933
341.05        106.2579
341.50        106.6215
341.95        107.0118
342.40        107.5006
342.85        108.0823
343.30        108.6972
343.75        109.2826
344.20        109.7421
344.66        110.0634
345.11        110.3009
345.56        110.4311
346.01        110.4096
346.46        110.2778
346.91        110.0654
347.36        109.9886
347.81        110.3753
348.26        111.2497
348.72        112.4701
349.17         113.752
349.62        114.5426
350.07        114.6867
350.52        114.3653
350.97        113.8057
351.42         113.366
351.87         113.174
352.32        113.1203
352.77        113.2166
353.22        113.4881
353.67        113.8826
354.13        114.3687
354.58        114.7823
355.03        114.8386
355.48         114.471
355.93        113.7649
356.38        112.8321
356.83        111.8585
357.28        110.9292
357.73         110.017
358.18        109.1816
358.63         108.506
359.08         107.994
359.53        107.6335
359.98        107.3202
360.43        106.8749
360.88        106.2506
361.33        105.4839
361.78        104.6567
362.23        103.9088
362.68        103.2767
363.13        102.7206
363.58        102.1761
364.03        101.5394
364.48        100.7916
364.93        99.97742
365.38         99.1714
365.83        98.49214
366.28        97.96575
366.73        97.54192
367.18        97.15204
367.63         96.6899
368.08        96.11372
368.53        95.44959
368.98        94.71658
369.43        93.94341
369.88        93.16419
370.33        92.40064
370.78        91.66627
371.23        90.98615
371.68        90.37214
372.13        89.80171
372.58        89.33706
373.03        89.07051
373.48        88.97603
373.93        88.99721
374.38        88.92365
374.83        88.42355
375.28        87.46294
375.72        86.16655
376.17        84.85168
376.62        83.83305
377.07        83.18735
377.52        82.79643
377.97         82.5962
378.42        82.48252
378.87        82.38622
379.32        82.33153
379.77        82.21323
380.22        81.86561
380.67        81.26469
381.11        80.44585
381.56        79.55091
382.01        78.84896
382.46         78.4296
382.91        78.24186
383.36        78.16144
383.81        77.98465
384.26        77.65572
384.71        77.22388
385.15        76.78625
385.60        76.54898
386.05         76.5139
386.50        76.60117
386.95        76.64472
387.40        76.40025
387.85        75.84812
388.29         75.0638
388.74        74.31901
389.19        73.78162
389.64        73.48665
390.09        73.34079
390.54        73.28981
390.98        73.23357
391.43        73.15945
391.88         73.0837
392.33        72.92485
392.78        72.63342
393.23         72.2296
393.67        71.58344
394.12        70.87556
394.57        70.84003
395.02        70.47655
395.47        70.54873
395.91        70.66507
396.36        70.65662
396.81        70.47934
397.26        70.19975
397.71        69.87664
398.15        69.51925
398.60        69.22846
399.05         68.9968
399.50         68.8027
399.95        68.58948
400.39         68.1566
400.84        68.24349
401.29          68.644
401.74        68.69267
402.18        68.32464
402.63         67.8659
403.08        67.50748
403.53        67.37863
403.97        67.51375
404.42        67.85452
404.87        68.20564
405.32        68.25903
405.76        67.94389
406.21        67.39223
406.66        66.76345
407.11        66.34795
407.55        66.24651
408.00        66.25862
408.45        66.33228
408.90         66.6166
409.34        66.93938
409.79        66.74753
410.24        66.22919
410.68        66.16912
411.13        66.62121
411.58        67.16286
412.03        67.60632
412.47        67.81353
412.92        67.68391
413.37        67.30138
413.81        66.79473
414.26        66.42735
414.71        66.23495
415.15        66.17022
415.60        66.17445
416.05        66.18854
416.49        66.19853
416.94        66.24611
417.39        66.31944
417.83        66.37231
418.28        66.40668
418.73        66.41301
419.17        66.46407
419.62        66.69894
420.07        67.10307
420.51        67.59751
420.96        68.05496
421.41        68.19041
421.85        67.93914
422.30        67.61257
422.74        67.26101
423.19         66.7445
423.64        66.24155
424.08        66.43405
424.53        67.18488
424.98        67.64204
425.42        67.68622
425.87        67.83875
426.31        68.09248
426.76        67.97865
427.21        67.47014
427.65        67.56958
428.10        68.07311
428.54        67.93974
428.99        67.31839
429.44        67.00507
429.88        67.10356
430.33        67.51107
430.77        68.00513
431.22        68.42371
431.66        68.71816
432.11        68.63174
432.56        68.21799
433.00        68.25751
433.45         69.0966
433.89        68.45145
434.34        69.59114
434.78        70.97461
435.23        69.36224
435.67        68.59534
436.12        67.84865
436.57        67.97253
437.01        68.78906
437.46        69.18694
437.90         69.1246
438.35        69.41441
438.79        70.00709
439.24        70.26685
439.68        70.21552
440.13        70.28154
440.57        70.48203
441.02        70.61282
441.46        70.64722
441.91        70.72018
442.35         70.7527
442.80        70.86587
443.24        71.07092
443.69        70.93777
444.13        70.55744
444.58        70.36628
445.02        70.33098
445.47        70.33173
445.91        70.37243
446.36        70.34495
446.80        70.18033
447.24        70.76904
447.69        70.64016
448.13        70.70625
448.58        70.89283
449.02        70.94289
449.47        70.99859
449.91        71.10153
450.36        71.28671
450.80        71.50102
451.25        71.70732
451.69        71.82164
452.13        71.82927
452.58        71.78069
453.02        71.71331
453.47         71.6684
453.91        71.64248
454.36        71.81435
454.80        71.81232
455.24        71.87249
455.69        71.88277
456.13        71.87611
456.58         71.8646
457.02        71.70992
457.46        71.43027
457.91        71.39233
458.35        71.07284
458.79        70.99072
459.24         71.0514
459.68         71.1331
460.13        71.16267
460.57        71.41435
461.01        71.58311
461.46        71.14127
461.90        70.96716
462.34        71.39253
462.79        71.54527
463.23         71.3615
463.68         70.6684
464.12        70.32481
464.56        70.35791
465.01        70.37423
465.45        70.41688
465.89        70.33168
466.34         70.1246
466.78        70.69167
467.22        70.51372
467.67         70.5854
468.11        70.46822
468.55        70.25738
468.99        70.00299
469.44        69.76294
469.88        69.58077
470.32        69.45559
470.77        69.36171
471.21        69.27613
471.65        69.17693
472.10         69.0833
472.54        69.03243
472.98        69.09539
473.42        69.26057
473.87        69.57283
474.31        69.88087
474.75        69.79729
475.20        69.40584
475.64        69.20268
476.08        69.23773
476.52        69.08817
476.97        68.75116
477.41        68.61691
477.85        68.82264
478.29        68.27103
478.74        69.16122
479.18        69.03085
479.62         68.5776
480.06        68.45615
480.50         68.6981
480.95        68.58883
481.39        69.19845
481.83        68.53624
482.27         69.3498
482.72        69.07202
483.16        69.25064
483.60        69.18119
484.04        69.07173
484.48        69.73438
484.93        69.58529
485.37        69.38592
485.81         68.6072
486.25        67.96278
486.69        69.93369
487.14        69.94762
487.58        68.87466
488.02        68.92628
488.46        69.36706
488.90        69.12077
489.34        68.85652
489.79        69.56339
490.23        68.74542
490.67        68.66553
491.11        68.53576
491.55        68.36293
491.99        68.17178
492.43        68.10503
492.88        68.19203
493.32        68.41014
493.76        68.68179
494.20        68.88191
494.64        68.96995
495.08        68.99265
495.52        68.96323
495.96         68.8748
496.41        68.79705
496.85        68.82481
497.29        68.84723
497.73        69.03003
498.17        68.56884
498.61        68.30865
499.05         68.0422
499.49        68.07473
499.93        68.26869
500.37        68.34215
500.82        68.34631
501.26        67.93227
501.70        68.28112
502.14        68.44542
502.58        68.30512
503.02        68.36559
503.46        68.49857
503.90        68.65916
504.34        68.78817
504.78        68.85536
505.22        68.84885
505.66        68.72478
506.10        68.53896
506.54        68.54278
506.98        68.71039
507.42        68.71018
507.86        68.31517
508.30        68.51624
508.74         68.1026
509.18        67.89921
509.62        67.64335
510.06        67.56779
510.50        67.69182
510.94        67.96239
511.38        68.28046
511.82        68.44951
512.26        68.42011
512.70        68.24827
513.14        68.02834
513.58        67.90851
514.02        67.92853
514.46        68.03851
514.90        68.17168
515.34         68.2483
515.78        68.20136
516.22        68.09901
516.66        67.97736
517.10        67.94691
517.54        68.03264
517.98        68.12461
518.42        68.15168
518.86         68.3963
519.30        68.21346
519.74        68.13106
520.18        68.00886
520.62        67.92697
521.06          67.906
521.50         67.9451
521.93        68.02475
522.37        68.07343
522.81        68.08578
523.25        68.06868
523.69        68.07587
524.13        68.19228
524.57        68.41884
525.01        68.71521
525.45        68.97248
525.89        69.01687
526.32        68.80875
526.76        68.43851
527.20         68.0207
527.64        67.73589
528.08        67.63543
528.52        67.66645
528.96        67.78281
529.40          67.908
529.83        68.00164
530.27        68.09204
530.71        68.15805
531.15        68.17112
531.59        68.12762
532.03        68.02742
532.46        67.88857
532.90        67.77568
533.34        67.70131
533.78        67.66212
534.22        67.64618
534.66        67.63001
535.09         67.6017
535.53        67.58131
535.97        67.57568
536.41        67.60961
536.85        67.68027
537.28        67.76758
537.72        67.83812
538.16        67.83604
538.60        67.75206
539.04         67.6121
539.47        67.43532
539.91         67.3064
540.35        67.22884
540.79        67.19621
541.22        67.20026
541.66         67.2383
542.10        67.29794
542.54        67.38361
542.97        67.47733
543.41        67.56946
543.85        67.64595
544.29        67.72062
544.72        67.75945
545.16        67.75082
545.60        67.69282
546.04         67.5612
546.47         67.4272
546.91        67.50953
547.35        67.77995
547.79        67.98103
548.22        68.02682
548.66        68.14939
549.10        68.34207
549.53        68.25816
549.97        67.84106
550.41        68.40029
550.84        67.89687
551.28         67.8899
551.72        67.75668
552.15        67.97036
552.59        67.66354
553.03        67.89456
553.46        67.78756
553.90        67.84333
554.34        67.85886
554.77        67.89731
555.21        67.94743
555.65        67.90269
556.08        67.79679
556.52        67.79547
556.96        67.89719
557.39         68.0481
557.83         68.2243
558.27        68.32687
558.70        68.35761
559.14        68.42579
559.57        68.49564
560.01        68.47901
560.45        68.41276
560.88        68.17858
561.32        68.16119
561.75        68.24622
562.19        68.45927
562.63        68.31581
563.06        67.88686
563.50        67.82587
563.93        68.10505
564.37        68.06395
564.80         68.0679
565.24         68.0715
565.68        68.16405
566.11        68.23154
566.55        68.27029
566.98        68.17802
567.42        68.07541
567.85        68.09143
568.29        68.20299
568.72        68.45471
569.16        68.97398
569.60        68.39858
570.03        68.77347
570.47        69.16288
570.90        69.06506
571.34        68.61604
571.77         69.1013
572.21        69.25295
572.64        69.43242
573.08        69.37997
573.51        68.72643
573.95        68.96609
574.38        69.67918
574.82        69.12973
