SpectraSmart Spectrum 2.9.0.0
--------- Device Information -----------
Spectrum Name :  反射率_0
Saving Time :  2024/04/30 00:35:01
Spectro-Module Model Name : SE2030-DUVN
Spectro-Module Serial Number : OS361AC55029948
Wavelength Start : 200
Wavelength End : 1025
Wavelength Unit : Wavelength(nm)
Spectrum Unit : Reflectance(%)
-----------Spectrum Setting ------------
Integration Time : 20ms
Average : 10
Boxcar : 0
Background removal :  enabled
linearity correction :  enabled
SC :  disabled
Intensity correction :  disabled
DWT denoise :  enabled
savitzky-golay :  disabled
FFT :  disabled
Running average :  disabled
Kalman :  disabled
High pass :  disabled
---------------BEGIN--------------------
Wavelength(nm)             Reflectance(%)
200.29               0
200.75         87.2313
201.21        71.03993
201.67         53.6351
202.13        41.11161
202.58        36.44082
203.04        39.03619
203.50        47.71408
203.96        58.83394
204.42        69.41784
204.88         79.0136
205.34        85.43385
205.80        86.48862
206.26        83.20472
206.72        77.67139
207.18        71.44733
207.64        64.97378
208.10        57.90021
208.55        49.70601
209.01        41.43787
209.47        37.23029
209.93        38.28642
210.39        42.86889
210.85        47.46344
211.31        48.94575
211.77         47.0242
212.23        41.59257
212.69        34.49623
213.14        34.28526
213.60        43.12259
214.06         55.2622
214.52        64.46751
214.98        67.21909
215.44        64.65132
215.90        58.50469
216.36         51.1106
216.81         46.9954
217.27        48.56994
217.73        55.40361
218.19        67.38153
218.65        79.04939
219.11        84.53802
219.57        84.53392
220.02        81.60369
220.48        78.64596
220.94        75.42829
221.40        70.49321
221.86        63.30938
222.32        56.25653
222.77        52.09721
223.23        51.16285
223.69        50.97786
224.15        49.29572
224.61        45.86942
225.06        40.98101
225.52        36.22094
225.98        35.12801
226.44        38.13897
226.90        42.82365
227.36        46.87232
227.81        48.91533
228.27        49.22998
228.73        48.27995
229.19        46.86982
229.65        46.53846
230.10        47.49923
230.56        49.05291
231.02        50.08651
231.48         49.6163
231.93        47.62983
232.39        44.55288
232.85        41.28476
233.31        39.59129
233.77        40.04713
234.22        42.34643
234.68        45.20608
235.14        46.21924
235.60        44.84406
236.05        41.96663
236.51        39.32755
236.97        39.23915
237.43        42.35308
237.88        48.59599
238.34        57.25378
238.80        65.08451
239.26        69.08668
239.71        69.56255
240.17        67.60493
240.63        65.55238
241.08        64.25465
241.54        62.65964
242.00        61.38105
242.46        63.28798
242.91        70.73216
243.37         82.4195
243.83        93.86098
244.28        101.9704
244.74        107.0938
245.20        108.9725
245.66        108.4214
246.11        107.8626
246.57        108.3277
247.03        110.6879
247.48         111.332
247.94        103.5711
248.40        90.80261
248.85        78.32095
249.31         71.3757
249.77        71.80022
250.22        79.42838
250.68        96.03518
251.14        121.2417
251.59        134.7745
252.05        123.0116
252.51         102.086
252.96        86.22388
253.42        80.19667
253.88        80.84187
254.33        85.28976
254.79         91.1722
255.25        93.14346
255.70        90.31741
256.16        86.32582
256.62        83.10256
257.07        81.68098
257.53        82.03316
257.99        83.01758
258.44        83.30976
258.90        82.11253
259.35        79.29707
259.81        76.29234
260.27        73.65757
260.72        71.80392
261.18        70.80605
261.63          69.987
262.09        69.20338
262.55        67.92241
263.00        66.11396
263.46        64.28905
263.91        62.43896
264.37        60.88686
264.83        59.53915
265.28        58.24217
265.74        57.14973
266.19        56.25943
266.65        55.63661
267.11        55.19343
267.56        54.76878
268.02        54.14511
268.47        53.22302
268.93        52.05859
269.38        50.71482
269.84        49.44321
270.30        48.33086
270.75        47.34571
271.21         46.4213
271.66        45.38772
272.12        44.21934
272.57        42.94447
273.03        41.72268
273.48        40.70877
273.94        40.00204
274.39        39.49411
274.85         39.0843
275.31        38.54057
275.76        37.80142
276.22        36.97032
276.67         36.1408
277.13        35.55935
277.58        35.19835
278.04        35.01363
278.49        34.79967
278.95        34.37729
279.40        33.67472
279.86        32.84969
280.31        32.00221
280.77        31.40863
281.22        31.07204
281.68        30.93059
282.13         30.8704
282.59        30.79304
283.04        30.63883
283.50        30.45911
283.95        30.22648
284.41        29.91715
284.86        29.53838
285.32        29.14746
285.77        28.78861
286.22        28.60678
286.68        28.63206
287.13        28.78004
287.59        29.02031
288.04        29.23743
288.50        29.40742
288.95        29.51641
289.41        29.57656
289.86        29.56149
290.32        29.51026
290.77        29.44081
291.22        29.38914
291.68        29.40082
292.13        29.50378
292.59        29.74623
293.04        30.20179
293.50        31.00897
293.95        32.17535
294.40        33.65902
294.86        35.33669
295.31        37.02117
295.77        38.63736
296.22        40.20395
296.68        41.76724
297.13        43.38273
297.58        45.07404
298.04        46.78219
298.49        48.48177
298.95        50.15644
299.40        51.79404
299.85        53.42467
300.31        55.07264
300.76        56.68532
301.21        58.30325
301.67        59.96667
302.12        61.68268
302.58        63.61041
303.03        65.71949
303.48        67.90746
303.94        70.12541
304.39        72.54088
304.84          74.631
305.30        76.81423
305.75        78.87802
306.20        80.80671
306.66        82.60977
307.11        84.22449
307.57        85.75975
308.02        87.24912
308.47        88.75665
308.93        90.28011
309.38        91.73825
309.83        93.08479
310.29        94.30807
310.74        95.41043
311.19        96.40669
311.65        97.30345
312.10        98.09694
312.55         98.8149
313.00        99.53444
313.46        100.3758
313.91        101.3424
314.36        102.4047
314.82        103.4715
315.27        104.4232
315.72        105.1914
316.18        105.8011
316.63        106.2649
317.08         106.624
317.53        106.9175
317.99        107.1754
318.44        107.3955
318.89        107.5911
319.35        107.7817
319.80        107.9731
320.25        108.2778
320.70        108.8687
321.16        109.7221
321.61        110.8166
322.06        111.8766
322.51        112.4667
322.97        112.4751
323.42        112.0391
323.87        111.4277
324.32        111.1008
324.78        111.1743
325.23        111.6022
325.68        112.1954
326.13        112.6297
326.59        112.7886
327.04        112.8115
327.49        112.8638
327.94        113.2593
328.39        114.0514
328.85        115.0646
329.30        116.1166
329.75        116.6851
330.20         116.638
330.66        116.1294
331.11        115.4771
331.56        115.1124
332.01        115.2016
332.46        115.6413
332.92        116.2907
333.37        117.0623
333.82        117.8158
334.27        118.5897
334.72        119.3674
335.17        120.1146
335.63        120.7815
336.08        121.4103
336.53        121.9132
336.98        122.2411
337.43        122.4064
337.88        122.4414
338.34        122.4838
338.79        122.7721
339.24        123.3477
339.69        124.1553
340.14        125.0341
340.59        125.6962
341.05        126.0713
341.50        126.2592
341.95        126.3631
342.40        126.5746
342.85        126.9453
343.30        127.3715
343.75        127.8551
344.20        128.4048
344.66        129.0059
345.11        129.6848
345.56        130.2555
346.01        130.4026
346.46        130.1182
346.91        129.5192
347.36             129
347.81        129.1625
348.26        130.0949
348.72        131.5668
349.17        133.1884
349.62        134.2148
350.07        134.4241
350.52        134.0609
350.97        133.4064
351.42        132.8935
351.87        132.6807
352.32        132.6359
352.77        132.7581
353.22        133.0612
353.67        133.4869
354.13        134.0029
354.58        134.4697
355.03        134.6343
355.48        134.4197
355.93        133.8871
356.38        133.0719
356.83        132.0488
357.28         130.892
357.73        129.6193
358.18        128.3819
358.63        127.4069
359.08        126.7372
359.53        126.3214
359.98        126.0047
360.43        125.5215
360.88        124.8015
361.33        123.9203
361.78        122.9739
362.23        122.1205
362.68        121.4059
363.13        120.7703
363.58        120.1709
364.03        119.5478
364.48        118.8746
364.93        118.1721
365.38         117.451
365.83        116.7247
366.28        116.0051
366.73        115.2937
367.18        114.5791
367.63        113.8437
368.08        113.0828
368.53        112.2989
368.98         111.537
369.43        110.8633
369.88        110.2997
370.33        109.8501
370.78        109.4297
371.23        108.9037
371.68        108.2397
372.13        107.4429
372.58        106.6706
373.03        106.1799
373.48        105.9917
373.93        106.0131
374.38        105.9552
374.83        105.3535
375.28        104.1541
375.72        102.5386
376.17        100.9349
376.62        99.78332
377.07        99.18275
377.52        98.96631
377.97        98.98608
378.42        99.00304
378.87        98.90574
379.32        98.75401
379.77        98.50298
380.22        98.07906
380.67        97.47604
381.11         96.6934
381.56        95.81944
382.01        95.04565
382.46        94.44601
382.91        94.00586
383.36        93.65047
383.81        93.24289
384.26        92.74921
384.71         92.2069
385.15        91.68608
385.60        91.35741
386.05        91.21108
386.50        91.17657
386.95        91.12023
387.40        90.84849
387.85        90.34052
388.29        89.63435
388.74        88.96262
389.19        88.40486
389.64        87.98958
390.09        87.65574
390.54        87.39745
390.98        87.21085
391.43        87.11268
391.88        87.03239
392.33        86.87681
392.78        86.66537
393.23         86.3523
393.67        85.65553
394.12        84.77943
394.57          84.588
395.02        83.97607
395.47        84.12312
395.91        84.54499
396.36        84.73023
396.81        84.59395
397.26        84.40246
397.71        84.20478
398.15        83.86642
398.60        83.50063
399.05        83.20323
399.50         82.9446
399.95        82.52734
400.39        81.78502
400.84        81.87627
401.29        82.52963
401.74        82.69994
402.18        82.24256
402.63        81.55026
403.08        80.90373
403.53        80.63181
403.97         80.7844
404.42        81.15961
404.87        81.55278
405.32         81.6432
405.76        81.33437
406.21           80.94
406.66        80.50801
407.11        79.78805
407.55        79.06674
408.00        78.99189
408.45        79.50528
408.90        80.13761
409.34        80.54211
409.79        80.11747
410.24         79.1622
410.68        78.88274
411.13        79.37019
411.58        79.90022
412.03        80.26511
412.47        80.46437
412.92        80.38702
413.37        80.07394
413.81        79.61342
414.26        79.22746
414.71        78.94104
415.15        78.72372
415.60        78.56167
416.05        78.48263
416.49        78.49216
416.94        78.59746
417.39        78.74219
417.83        78.80025
418.28          78.755
418.73        78.63875
419.17        78.52603
419.62        78.55919
420.07         78.7275
420.51        78.94024
420.96        79.15874
421.41        79.16743
421.85        78.89613
422.30        78.82761
422.74        78.82227
423.19        78.05101
423.64        76.79157
424.08        76.86857
424.53        77.72729
424.98        78.19233
425.42        77.98151
425.87        78.32567
426.31        79.02859
426.76        78.56286
427.21         77.1021
427.65        77.00075
428.10        78.03263
428.54        78.20673
428.99        77.53117
429.44        76.98162
429.88          76.728
430.33        76.87348
430.77        77.35238
431.22        77.55571
431.66        78.63995
432.11         78.4322
432.56        77.49803
433.00        77.34525
433.45        78.21729
433.89        78.39912
434.34        78.54867
434.78        79.79931
435.23        77.88319
435.67        77.04459
436.12        76.39054
436.57        76.64543
437.01        77.51167
437.46        78.33418
437.90        77.93758
438.35        78.00376
438.79        78.26894
439.24        78.46306
439.68        78.55595
440.13        78.58356
440.57        78.57689
441.02        78.58192
441.46        78.59365
441.91        78.75835
442.35        78.91096
442.80        78.93848
443.24        78.81247
443.69        78.73911
444.13        78.70329
444.58        78.58858
445.02         78.3104
445.47        78.14117
445.91         78.1759
446.36        77.99446
446.80        77.47893
447.24         78.8665
447.69        78.24416
448.13        78.54939
448.58        78.63612
449.02        78.60856
449.47        78.54015
449.91        78.58553
450.36        78.81308
450.80        79.10402
451.25        79.39059
451.69         79.5266
452.13        79.49097
452.58        79.37307
453.02        79.20493
453.47        79.05927
453.91        78.94861
454.36        78.92703
454.80        78.68686
455.24        78.92815
455.69          79.384
456.13        79.41737
456.58        79.07143
457.02        78.56686
457.46         78.3914
457.91        78.22551
458.35        78.14205
458.79        78.06103
459.24        78.02984
459.68         78.1084
460.13        78.27353
460.57        78.26717
461.01        78.68127
461.46        78.04373
461.90        78.22337
462.34        78.21987
462.79        78.42361
463.23        78.22009
463.68        77.67413
464.12        77.53323
464.56        77.73064
465.01        77.40063
465.45        76.67762
465.89        76.72424
466.34        77.41146
466.78        77.58819
467.22        77.46676
467.67        77.15932
468.11         77.1312
468.55        76.89618
468.99        76.60543
469.44        76.33966
469.88        76.13231
470.32         76.0515
470.77        76.04536
471.21        76.00655
471.65        75.89376
472.10        75.75433
472.54        75.66166
472.98        75.70303
473.42        75.86713
473.87         76.2963
474.31        76.76456
474.75        76.52746
475.20        75.78739
475.64        75.61583
476.08        75.97168
476.52        75.97258
476.97        75.62179
477.41        75.30491
477.85        75.12309
478.29        75.31158
478.74         75.7457
479.18        75.61419
479.62        75.02105
480.06        74.85838
480.50        75.19086
480.95        75.12366
481.39        75.52784
481.83        75.35185
482.27        76.13553
482.72         75.8375
483.16        75.94505
483.60        75.92006
484.04        76.12543
484.48        76.26681
484.93        76.15104
485.37        76.13789
485.81        75.31104
486.25        74.17329
486.69        75.65116
487.14        75.16492
487.58        74.41653
488.02          74.556
488.46         75.5107
488.90        75.57333
489.34         75.1068
489.79        75.37681
490.23        75.13157
490.67        75.08875
491.11        74.85498
491.55        74.61351
491.99         74.4126
492.43        74.32689
492.88         74.3764
493.32        74.54923
493.76        74.78565
494.20        75.01822
494.64        75.20599
495.08        75.34866
495.52        75.42691
495.96        75.40345
496.41        75.31937
496.85         75.2766
497.29        75.17671
497.73        75.18626
498.17        74.49284
498.61        74.25741
499.05        74.07303
499.49        74.30666
499.93        74.72894
500.37        74.81201
500.82        74.56124
501.26        74.50227
501.70        74.64405
502.14        74.62067
502.58        74.46986
503.02        74.44424
503.46        74.56271
503.90        74.75278
504.34         74.9624
504.78        75.07725
505.22        75.05567
505.66        75.03213
506.10        75.02249
506.54        74.86531
506.98         74.5434
507.42        74.82477
507.86        74.11979
508.30        74.42249
508.74        73.92506
509.18        73.78388
509.62        73.65506
510.06        73.67818
510.50         73.8739
510.94        74.22758
511.38        74.62568
511.82        74.81462
512.26        74.74153
512.70        74.48591
513.14        74.17053
513.58         73.9815
514.02        73.97146
514.46        74.08741
514.90        74.25271
515.34        74.34239
515.78        74.31911
516.22        74.22471
516.66        74.11543
517.10        74.07207
517.54        74.11259
517.98        74.20592
518.42        74.29568
518.86        74.29409
519.30        74.18369
519.74        74.00832
520.18        73.83443
520.62        73.73119
521.06        73.73862
521.50         73.8982
521.93        74.13731
522.37        74.25533
522.81        74.22528
523.25        74.11292
523.69        74.00922
524.13         74.0406
524.57        74.22544
525.01        74.51118
525.45        74.77882
525.89        74.83778
526.32        74.64011
526.76        74.28455
527.20        73.88145
527.64        73.60427
528.08        73.50175
528.52        73.51686
528.96        73.60983
529.40        73.71712
529.83        73.80075
530.27        73.88977
530.71        73.95022
531.15        73.93206
531.59        73.83321
532.03        73.66663
532.46        73.47644
532.90        73.36961
533.34        73.36362
533.78        73.43499
534.22        73.54911
534.66        73.64845
535.09        73.70828
535.53        73.76024
535.97        73.80244
536.41        73.84869
536.85        73.89845
537.28        73.93071
537.72        73.94354
538.16        73.93284
538.60        73.89445
539.04        73.83552
539.47        73.73081
539.91         73.5994
540.35        73.43247
540.79        73.25412
541.22        73.08978
541.66        72.99109
542.10        72.96774
542.54        73.01035
542.97        73.10299
543.41        73.24027
543.85        73.39654
544.29        73.58157
544.72        73.73087
545.16        73.77874
545.60        73.71011
546.04         73.5424
546.47        73.30996
546.91         73.3194
547.35        73.53544
547.79        73.67212
548.22        73.65535
548.66        73.76447
549.10        73.99706
549.53        73.97533
549.97        73.59393
550.41        74.22231
550.84        73.64776
551.28        73.49905
551.72        73.16033
552.15        73.44572
552.59        73.40074
553.03        73.49567
553.46        73.45317
553.90        73.47026
554.34        73.52435
554.77        73.53762
555.21        73.53308
555.65        73.49284
556.08        73.45069
556.52        73.58871
556.96        73.84528
557.39        73.99478
557.83        74.03101
558.27        74.05168
558.70        74.07138
559.14        74.08157
559.57        74.05465
560.01        74.00397
560.45        73.95782
560.88        73.77753
561.32        73.82099
561.75        73.80524
562.19        73.79128
562.63        73.49792
563.06        73.04237
563.50         72.9641
563.93        73.21332
564.37        73.38444
564.80        73.40762
565.24        73.46375
565.68        73.53476
566.11        73.60804
566.55        73.67743
566.98        73.59935
567.42        73.49654
567.85        73.45536
568.29        73.50072
568.72        73.79157
569.16        74.38919
569.60        73.80719
570.03        74.28574
570.47        74.23739
570.90        74.24638
571.34        73.77753
571.77        74.08472
572.21        74.12775
572.64        74.22798
573.08        74.17168
573.51        73.97162
573.95        74.08932
574.38        74.47832
574.82        73.92682
