SpectraSmart Spectrum 2.9.0.0
--------- Device Information -----------
Spectrum Name :  反射率_0
Saving Time :  2024/04/30 00:02:09
Spectro-Module Model Name : SE2030-DUVN
Spectro-Module Serial Number : OS361AC55029948
Wavelength Start : 200
Wavelength End : 1025
Wavelength Unit : Wavelength(nm)
Spectrum Unit : Reflectance(%)
-----------Spectrum Setting ------------
Integration Time : 20ms
Average : 10
Boxcar : 0
Background removal :  enabled
linearity correction :  enabled
SC :  disabled
Intensity correction :  disabled
DWT denoise :  enabled
savitzky-golay :  disabled
FFT :  disabled
Running average :  disabled
Kalman :  disabled
High pass :  disabled
---------------BEGIN--------------------
Wavelength(nm)             Reflectance(%)
200.29               0
200.75        101.1106
201.21        92.29872
201.67        83.03168
202.13        73.62962
202.58        64.70609
203.04        55.78152
203.50        49.26511
203.96        50.62481
204.42        61.03712
204.88        78.06651
205.34        94.13841
205.80        98.36169
206.26        91.43085
206.72        80.16305
207.18        68.89085
207.64        59.52972
208.10        51.47087
208.55        43.19713
209.01        35.67085
209.47        32.98745
209.93        35.81448
210.39        42.11658
210.85         48.2056
211.31        51.01093
211.77        50.49371
212.23        46.87544
212.69        41.60348
213.14        41.46054
213.60        48.12131
214.06         57.1954
214.52        64.26543
214.98        67.02602
215.44        66.28131
215.90        63.22609
216.36         59.3653
216.81        57.46181
217.27        59.07932
217.73         64.2149
218.19        72.30298
218.65        78.66789
219.11         79.5882
219.57        76.29269
220.02        72.24435
220.48        70.50269
220.94        70.56535
221.40        71.54034
221.86        71.13329
222.32        65.06771
222.77        54.92025
223.23        45.84169
223.69        39.50048
224.15        35.54684
224.61        32.97919
225.06        31.11934
225.52        30.46683
225.98        31.69937
226.44        34.29099
226.90         37.2296
227.36        39.54271
227.81        40.77027
228.27        41.12991
228.73        40.78553
229.19        40.08072
229.65        39.74919
230.10        39.94753
230.56        40.39552
231.02        40.65071
231.48        40.30573
231.93        39.28979
232.39        37.82776
232.85        36.20411
233.31        35.03127
233.77         34.5694
234.22        34.81845
234.68          35.363
235.14        35.44093
235.60        34.93057
236.05        34.07953
236.51        33.69535
236.97        34.88814
237.43         38.0165
237.88        43.32635
238.34        50.11129
238.80         55.5859
239.26        57.45423
239.71        56.03804
240.17        52.96198
240.63        51.05811
241.08        51.30433
241.54        53.59121
242.00        58.84433
242.46        66.59164
242.91        74.38784
243.37          80.343
243.83        84.31732
244.28        88.69171
244.74        94.54379
245.20        100.6146
245.66        106.8161
246.11        112.7069
246.57        117.3139
247.03        122.6043
247.48        124.2321
247.94        114.2563
248.40        97.53957
248.85        80.71441
249.31        70.66646
249.77        69.93933
250.22        78.01437
250.68         96.7006
251.14        125.4126
251.59        140.5223
252.05        126.3207
252.51        101.5852
252.96        82.57289
253.42        74.28972
253.88        72.92734
254.33        75.06935
254.79        78.30273
255.25        77.93034
255.70        73.76051
256.16        69.31213
256.62        65.96004
257.07        64.23044
257.53        64.05501
257.99        64.51891
258.44        64.87869
258.90        64.93206
259.35        64.22171
259.81        63.38632
260.27        62.47491
260.72        61.53318
261.18        60.74148
261.63        59.77919
262.09        58.71643
262.55        57.32914
263.00        55.65889
263.46        54.06099
263.91        52.51203
264.37        51.26643
264.83        50.22179
265.28        49.23251
265.74        48.41697
266.19        47.73128
266.65        47.22186
267.11         46.8442
267.56        46.42746
268.02         45.7238
268.47        44.66856
268.93        43.33825
269.38        41.92986
269.84        40.91354
270.30        40.38916
270.75        40.21583
271.21        40.12798
271.66        39.69782
272.12        38.84001
272.57        37.66634
273.03        36.40273
273.48        35.32627
273.94        34.57887
274.39         34.0159
274.85        33.56367
275.31        33.04395
275.76        32.39582
276.22        31.71548
276.67         31.0191
277.13        30.41547
277.58        29.87742
278.04        29.40457
278.49        28.91788
278.95        28.40082
279.40        27.81367
279.86        27.25263
280.31        26.70977
280.77        26.28385
281.22        25.95728
281.68        25.72678
282.13        25.58803
282.59        25.58465
283.04        25.67608
283.50        25.83154
283.95        25.94398
284.41        25.86126
284.86        25.56169
285.32        25.15585
285.77        24.70989
286.22        24.38869
286.68        24.24685
287.13        24.19735
287.59        24.27917
288.04        24.49213
288.50        24.81597
288.95        25.20281
289.41        25.54598
289.86        25.64682
290.32        25.51122
290.77        25.21126
291.22        24.88198
291.68        24.73698
292.13        24.83759
292.59        25.15269
293.04        25.68116
293.50        26.44498
293.95        27.42308
294.40        28.62355
294.86        29.92609
295.31        31.14745
295.77        32.23701
296.22         33.2152
296.68        34.21595
297.13         35.4361
297.58        36.91833
298.04        38.56392
298.49        40.22073
298.95         41.6622
299.40        42.83376
299.85        43.82257
300.31        44.76919
300.76        45.81373
301.21        47.03335
301.67        48.39725
302.12        49.81437
302.58        51.29456
303.03        52.78886
303.48        54.21986
303.94        55.61057
304.39        57.41051
304.84        58.85931
305.30        60.54404
305.75        62.12547
306.20        63.51134
306.66        64.69249
307.11        65.66545
307.57        66.57253
308.02        67.51424
308.47        68.55293
308.93        69.65638
309.38        70.73034
309.83        71.69524
310.29        72.53033
310.74        73.26378
311.19        73.90482
311.65        74.45297
312.10         74.9119
312.55        75.29303
313.00        75.69842
313.46          76.291
313.91         77.0732
314.36        77.99699
314.82         78.9047
315.27        79.56484
315.72        79.89893
316.18         79.9797
316.63         79.9096
317.08        79.87164
317.53        79.93966
317.99        80.09011
318.44        80.27625
318.89        80.43433
319.35        80.54714
319.80        80.64001
320.25        80.79173
320.70        81.11951
321.16        81.60921
321.61        82.24826
322.06        82.85042
322.51        83.13171
322.97         83.0276
323.42          82.637
323.87        82.16637
324.32        81.96227
324.78        82.10244
325.23        82.54478
325.68        83.11642
326.13        83.52066
326.59        83.65248
327.04        83.62595
327.49        83.58335
327.94        83.79577
328.39        84.31794
328.85        85.01055
329.30        85.74165
329.75        86.13216
330.20        86.08403
330.66        85.71426
331.11        85.24266
331.56        84.95773
332.01         84.9762
332.46        85.23008
332.92        85.63367
333.37        86.15297
333.82        86.69705
334.27        87.28452
334.72         87.8958
335.17         88.4922
335.63        89.03276
336.08        89.55257
336.53        89.97517
336.98        90.24699
337.43        90.36993
337.88        90.35947
338.34         90.3444
338.79        90.55206
339.24        91.02144
339.69        91.71185
340.14        92.44367
340.59        92.89956
341.05        93.02062
341.50        92.92303
341.95        92.80425
342.40        92.99425
342.85        93.56242
343.30        94.36185
343.75        95.26061
344.20        96.05103
344.66        96.66039
345.11        97.16677
345.56        97.50433
346.01         97.5603
346.46        97.37064
346.91        96.97933
347.36        96.66879
347.81        96.87556
348.26        97.65948
348.72        98.87034
349.17         100.196
349.62        101.0357
350.07        101.2184
350.52        100.9378
350.97        100.4487
351.42         100.148
351.87        100.1668
352.32         100.382
352.77        100.7441
353.22        101.1828
353.67        101.6325
354.13        102.0939
354.58        102.4928
355.03        102.6935
355.48        102.6487
355.93        102.3743
356.38        101.8876
356.83        101.2323
357.28        100.4601
357.73        99.60482
358.18        98.75072
358.63        98.01959
359.08        97.44603
359.53        97.00365
359.98        96.66633
360.43        96.37673
360.88        96.10046
361.33        95.84714
361.78        95.55522
362.23        95.13181
362.68        94.56763
363.13        93.88592
363.58         93.1881
364.03         92.6415
364.48         92.2837
364.93        92.06736
365.38        91.89716
365.83        91.61996
366.28        91.18964
366.73        90.64223
367.18        90.04717
367.63         89.5117
368.08        89.05832
368.53        88.65663
368.98        88.23183
369.43        87.66249
369.88        86.94559
370.33        86.15351
370.78        85.39996
371.23        84.86668
371.68        84.59116
372.13        84.48276
372.58        84.47875
373.03        84.47923
373.48        84.41489
373.93        84.30256
374.38        84.02503
374.83        83.40548
375.28         82.4644
375.72        81.27419
376.17        80.13788
376.62        79.35887
377.07        78.99503
377.52        78.94013
377.97        79.05613
378.42        79.10757
378.87        79.00036
379.32        78.79056
379.77        78.48624
380.22        78.09808
380.67        77.63879
381.11        77.09653
381.56        76.50455
382.01        75.94984
382.46        75.47464
382.91          75.083
383.36        74.76565
383.81        74.48898
384.26         74.2364
384.71        74.01183
385.15        73.79535
385.60        73.61172
386.05        73.43118
386.50        73.23335
386.95        73.00259
387.40        72.72572
387.85        72.41228
388.29        72.04166
388.74        71.70581
389.19        71.33607
389.64        70.92975
390.09        70.47864
390.54        70.06406
390.98        69.81277
391.43        69.77223
391.88        69.87624
392.33        69.95073
392.78        69.81628
393.23        69.46277
393.67        68.81843
394.12        68.09331
394.57        68.03825
395.02        67.70909
395.47        67.81973
395.91        67.99084
396.36        68.05602
396.81        67.96164
397.26        67.77511
397.71        67.54181
398.15        67.22186
398.60        66.90533
399.05        66.68134
399.50        66.53313
399.95        66.21198
400.39        65.62397
400.84        65.94514
401.29        66.85694
401.74        67.06509
402.18        66.43578
402.63        65.62936
403.08        64.96722
403.53        64.64871
403.97        64.74919
404.42        65.18027
404.87          65.688
405.32        65.84364
405.76        65.54285
406.21        65.02695
406.66        64.44608
407.11        63.93591
407.55        63.68491
408.00        63.77754
408.45        64.14188
408.90        64.72482
409.34        65.23445
409.79        64.95079
410.24         64.1349
410.68        63.91628
411.13        64.38083
411.58        64.89491
412.03        65.25764
412.47        65.41949
412.92        65.28422
413.37        64.91837
413.81        64.44499
414.26        64.11494
414.71        63.96085
415.15        63.93298
415.60        63.98568
416.05        64.08164
416.49        64.20037
416.94        64.36512
417.39        64.52625
417.83        64.57897
418.28         64.5166
418.73        64.35964
419.17        64.20805
419.62        64.24136
420.07        64.46555
420.51        64.79778
420.96        65.14526
421.41        65.24489
421.85        65.02726
422.30        64.87199
422.74        64.75224
423.19        64.22199
423.64        63.53035
424.08        63.81129
424.53        64.90207
424.98         65.5003
425.42        65.46236
425.87        65.58521
426.31        65.87101
426.76        65.75879
427.21        65.22702
427.65        65.23077
428.10        65.63171
428.54        65.57439
428.99        65.13148
429.44        64.93751
429.88          65.043
430.33        65.15718
430.77        65.27172
431.22        65.84681
431.66        66.72154
432.11        67.03982
432.56        66.77168
433.00        66.66827
433.45        66.90994
433.89        66.98113
434.34        67.06693
434.78        68.03103
435.23        66.56365
435.67        66.23947
436.12        66.18899
436.57         66.2741
437.01        66.45725
437.46        66.81342
437.90        67.09182
438.35        67.64268
438.79        68.27261
439.24        68.57943
439.68        68.56326
440.13        68.59428
440.57        68.74881
441.02        68.76658
441.46        68.61353
441.91        68.74229
442.35         69.0943
442.80        68.50365
443.24        68.97719
443.69        68.84624
444.13        68.71921
444.58        68.64466
445.02        68.59574
445.47        68.56595
445.91        68.57932
446.36        68.64678
446.80         68.7244
447.24        69.30976
447.69        69.42329
448.13        69.60842
448.58        69.59241
449.02        69.42828
449.47        69.24181
449.91        69.21474
450.36        69.40434
450.80        69.71739
451.25        70.06444
451.69        70.27141
452.13        70.30197
452.58        70.24434
453.02        70.14024
453.47        70.05807
453.91        70.00479
454.36         70.0953
454.80        70.03671
455.24        70.26805
455.69        70.55804
456.13        70.91579
456.58        70.47153
457.02        70.41265
457.46        70.49462
457.91        70.47655
458.35          70.309
458.79         70.1792
459.24        70.13974
459.68        70.05798
460.13        69.93725
460.57        70.06138
461.01        69.95522
461.46         69.8673
461.90        69.70512
462.34        69.90892
462.79         70.3019
463.23        70.15778
463.68        69.55547
464.12        69.23454
464.56        69.24953
465.01        69.19615
465.45        69.03745
465.89        69.04941
466.34        69.19418
466.78        69.42206
467.22        69.42448
467.67        69.39812
468.11        69.27726
468.55        69.00916
468.99        68.67859
469.44        68.43768
469.88        68.32607
470.32        68.31828
470.77        68.36056
471.21        68.38534
471.65        68.35286
472.10        68.29943
472.54        68.25549
472.98         68.2739
473.42        68.34837
473.87        68.55228
474.31        68.78779
474.75        68.65431
475.20        68.23884
475.64        68.24717
476.08        68.69513
476.52        68.38994
476.97        67.93975
477.41        68.04417
477.85        67.96125
478.29        67.15009
478.74        68.11058
479.18        68.09577
479.62        67.64493
480.06        67.60101
480.50        67.90645
480.95        67.85564
481.39        68.47726
481.83        67.85631
482.27        68.56066
482.72        68.19479
483.16        68.42848
483.60        68.27712
484.04        68.46587
484.48        68.60718
484.93        68.62527
485.37        68.60117
485.81        67.83265
486.25        67.01762
486.69        68.71619
487.14        68.53126
487.58         67.9103
488.02        67.79622
488.46        68.06815
488.90        68.16965
489.34        67.99365
489.79        68.59298
490.23        67.87206
490.67        67.80937
491.11        67.78469
491.55        67.57842
491.99         67.2489
492.43         67.1118
492.88        67.20898
493.32         67.4358
493.76        67.71266
494.20        67.95596
494.64        68.11266
495.08        68.20782
495.52        68.27126
495.96        68.24814
496.41        68.12948
496.85        68.30876
497.29        68.19678
497.73         67.9219
498.17        67.60687
498.61        67.37346
499.05        67.13452
499.49        67.24116
499.93        67.51135
500.37        67.46679
500.82        67.15142
501.26        67.10395
501.70        67.34006
502.14        67.52127
502.58        67.60504
503.02         67.6928
503.46        67.77687
503.90        67.78849
504.34        67.81046
504.78        67.82777
505.22        67.86649
505.66        67.90061
506.10          67.908
506.54        67.92678
506.98        67.96581
507.42           67.89
507.86        67.63795
508.30        67.87453
508.74        67.36678
509.18        67.13421
509.62        66.90082
510.06        66.84108
510.50        66.97044
510.94        67.25696
511.38         67.5931
511.82        67.76378
512.26        67.71747
512.70        67.51268
513.14        67.25399
513.58        67.11377
514.02        67.13685
514.46        67.25491
514.90          67.391
515.34        67.50139
515.78        67.42902
516.22        67.31326
516.66        67.17458
517.10        67.09818
517.54        67.10505
517.98        67.17042
518.42        67.24418
518.86        67.24662
519.30        67.16183
519.74        67.01705
520.18        66.87647
520.62        66.83442
521.06        66.91281
521.50        67.08794
521.93        67.29161
522.37         67.3903
522.81        67.36115
523.25        67.23457
523.69        67.09959
524.13         67.0951
524.57        67.24355
525.01        67.49519
525.45        67.74036
525.89        67.80274
526.32        67.63554
526.76        67.32407
527.20        66.97582
527.64        66.75848
528.08        66.71606
528.52        66.79735
528.96        66.93653
529.40        67.02937
529.83        67.03792
530.27        67.00288
530.71        66.95133
531.15        66.93004
531.59        66.95001
532.03         66.9882
532.46        67.01127
532.90        66.99985
533.34        66.94389
533.78        66.86301
534.22        66.78085
534.66        66.73022
535.09        66.71289
535.53        66.72868
535.97        66.76051
536.41        66.79606
536.85        66.82574
537.28        66.84939
537.72        66.85324
538.16        66.80987
538.60        66.71809
539.04        66.59023
539.47        66.44221
539.91        66.35439
540.35        66.32361
540.79        66.34409
541.22        66.38785
541.66        66.41947
542.10        66.42514
542.54        66.42297
542.97        66.42587
543.41        66.47332
543.85        66.56152
544.29        66.68491
544.72        66.79201
545.16        66.84203
545.60        66.82088
546.04        66.71504
546.47        66.58351
546.91        66.62466
547.35        66.81378
547.79        66.90331
548.22        66.84419
548.66        66.91847
549.10        67.12773
549.53        67.11512
549.97        66.78642
550.41        67.37082
550.84        66.85363
551.28        66.76571
551.72        66.51334
552.15        66.68003
552.59        66.44398
553.03        66.47002
553.46        66.51209
553.90        66.55594
554.34        66.57587
554.77        66.64663
555.21        66.74569
555.65        66.67159
556.08        66.47871
556.52        66.49183
556.96        66.68556
557.39        66.84022
557.83        66.92268
558.27        66.98218
558.70        66.92227
559.14        67.01251
559.57        67.15836
560.01        67.23656
560.45        67.23591
560.88          66.998
561.32        66.91663
561.75        66.92401
562.19        67.07237
562.63        66.95783
563.06         66.6338
563.50         66.5797
563.93        66.75813
564.37        66.84241
564.80        66.80223
565.24         66.8391
565.68        66.92235
566.11        66.97972
566.55        67.00584
566.98        66.88469
567.42        66.74634
567.85        66.74932
568.29         66.8794
568.72        67.10564
569.16        67.50025
569.60        66.91962
570.03         67.4239
570.47        67.39227
570.90         67.4341
571.34        67.21789
571.77         67.4276
572.21        67.53595
572.64        67.68434
573.08        67.64298
573.51        67.41785
573.95         67.5956
574.38        67.74602
574.82        67.44271
