SpectraSmart Spectrum 2.9.0.0
--------- Device Information -----------
Spectrum Name :  反射率_0
Saving Time :  2024/04/30 00:26:08
Spectro-Module Model Name : SE2030-DUVN
Spectro-Module Serial Number : OS361AC55029948
Wavelength Start : 200
Wavelength End : 1025
Wavelength Unit : Wavelength(nm)
Spectrum Unit : Reflectance(%)
-----------Spectrum Setting ------------
Integration Time : 20ms
Average : 10
Boxcar : 0
Background removal :  enabled
linearity correction :  enabled
SC :  disabled
Intensity correction :  disabled
DWT denoise :  enabled
savitzky-golay :  disabled
FFT :  disabled
Running average :  disabled
Kalman :  disabled
High pass :  disabled
---------------BEGIN--------------------
Wavelength(nm)             Reflectance(%)
200.29               0
200.75        81.43349
201.21        68.53363
201.67        56.49288
202.13         51.3971
202.58        55.86175
203.04        68.59347
203.50        87.16178
203.96        105.6416
204.42        119.0152
204.88        126.3728
205.34        124.2485
205.80        111.2119
206.26        93.12812
206.72        75.44189
207.18        61.53215
207.64        52.26016
208.10        46.24418
208.55        42.05778
209.01        40.21188
209.47        42.60832
209.93         48.3294
210.39        55.45165
210.85        61.22677
211.31        63.75021
211.77        63.11161
212.23        59.11718
212.69        52.23309
213.14         47.7555
213.60        48.54576
214.06        52.61226
214.52        56.61996
214.98        58.08918
215.44         57.3801
215.90         55.7304
216.36        54.26589
216.81        55.02699
217.27        59.41024
217.73         67.5082
218.19        79.83643
218.65        92.95764
219.11        101.2422
219.57         103.262
220.02        101.4884
220.48        99.61296
220.94        97.63288
221.40        94.76157
221.86        89.16456
222.32        79.68846
222.77        69.72883
223.23        62.76963
223.69        58.93172
224.15        57.20999
224.61        56.66162
225.06        56.92889
225.52        57.85118
225.98        58.61419
226.44        58.84984
226.90        58.79722
227.36        58.39788
227.81        57.54412
228.27        56.29486
228.73        54.45362
229.19        52.65614
229.65        52.29757
230.10        53.44952
230.56        55.43877
231.02        57.00293
231.48        57.03716
231.93        55.53004
232.39        52.91593
232.85        50.02061
233.31        48.52073
233.77        48.92223
234.22         50.8614
234.68        53.16221
235.14        53.67215
235.60         51.9475
236.05        48.92352
236.51        46.04147
236.97        45.06852
237.43        46.50351
237.88        50.20572
238.34        56.01184
238.80        62.74615
239.26        68.58822
239.71        73.26163
240.17        76.18951
240.63        77.89017
241.08        79.11338
241.54        79.20611
242.00        79.08565
242.46        82.41392
242.91        91.68303
243.37        104.2681
243.83        115.5638
244.28        122.8783
244.74        126.7401
245.20        127.3232
245.66        125.2967
246.11         122.589
246.57        120.4338
247.03        119.8706
247.48        119.4392
247.94        115.9101
248.40        110.6493
248.85        105.2334
249.31        103.3211
249.77        106.5066
250.22        115.3723
250.68        132.0884
251.14        155.1512
251.59        162.8967
252.05        144.5636
252.51        118.9393
252.96        100.5048
253.42        93.14114
253.88        92.75613
254.33        96.26492
254.79        100.9736
255.25        101.2848
255.70        96.72145
256.16        91.36744
256.62        86.96243
257.07        84.22177
257.53        83.13499
257.99         82.6505
258.44        81.94571
258.90        80.93806
259.35        79.22984
259.81        77.57961
260.27        76.05853
260.72        74.70042
261.18        73.67516
261.63        72.56206
262.09        71.31288
262.55         69.4869
263.00        67.15985
263.46        64.85186
263.91        62.69553
264.37        61.19672
264.83        60.21954
265.28        59.50234
265.74        59.01248
266.19        58.44824
266.65        57.81377
267.11        57.13286
267.56         56.3475
268.02        55.38482
268.47        54.19976
268.93        52.81262
269.38        51.32006
269.84        50.03783
270.30        49.04952
270.75        48.29131
271.21        47.63172
271.66        46.79848
272.12        45.73781
272.57        44.50493
273.03        43.23989
273.48        42.07661
273.94        41.13844
274.39        40.33279
274.85        39.66317
275.31        39.03957
275.76        38.40763
276.22        37.82009
276.67        37.24986
277.13        36.76765
277.58         36.3196
278.04        35.93049
278.49        35.49222
278.95          34.968
279.40        34.31055
279.86        33.62143
280.31        32.93999
280.77         32.4563
281.22        32.15081
281.68        31.99986
282.13        31.90906
282.59        31.80779
283.04        31.64378
283.50         31.4516
283.95        31.21279
284.41        30.92332
284.86        30.58547
285.32        30.25098
285.77        29.92599
286.22        29.70239
286.68        29.60449
287.13        29.56413
287.59         29.6011
288.04        29.67542
288.50        29.78437
288.95         29.9023
289.41        29.99157
289.86        29.94682
290.32        29.79863
290.77        29.59085
291.22        29.42828
291.68        29.46875
292.13        29.74286
292.59        30.23021
293.04         30.9169
293.50        31.81633
293.95         32.9101
294.40        34.21625
294.86        35.62768
295.31        36.98517
295.77        38.24865
296.22        39.42871
296.68        40.67562
297.13        42.20878
297.58        44.06012
298.04        46.11202
298.49        48.15725
298.95        49.89017
299.40        51.24626
299.85        52.35968
300.31        53.42035
300.76        54.63314
301.21        56.11005
301.67        57.81023
302.12        59.66769
302.58        61.73043
303.03        63.92679
303.48        66.18198
303.94        68.45147
304.39        70.92313
304.84         73.0445
305.30        75.24197
305.75        77.28811
306.20         79.1681
306.66        80.89547
307.11        82.41673
307.57        83.86095
308.02        85.28902
308.47        86.77171
308.93        88.30645
309.38        89.79366
309.83        91.15398
310.29        92.36987
310.74        93.45249
311.19        94.44685
311.65        95.40567
312.10        96.33102
312.55        97.23161
313.00        98.13456
313.46        99.08695
313.91        100.0704
314.36        101.0632
314.82        102.0274
315.27        102.9319
315.72        103.7285
316.18        104.4272
316.63        104.9585
317.08        105.2305
317.53        105.2706
317.99        105.1632
318.44        105.0422
318.89        105.1335
319.35        105.4943
319.80        106.0518
320.25        106.7778
320.70        107.6181
321.16        108.4809
321.61        109.4106
322.06        110.2044
322.51        110.5571
322.97        110.4127
323.42        109.8709
323.87        109.1984
324.32        108.8539
324.78        108.9413
325.23        109.4176
325.68        110.0698
326.13        110.5202
326.59        110.6372
327.04        110.5739
327.49        110.4957
327.94        110.7225
328.39        111.3184
328.85        112.1036
329.30        112.9497
329.75        113.4342
330.20         113.445
330.66        113.1145
331.11        112.6611
331.56        112.3514
332.01         112.314
332.46        112.4902
332.92        112.8437
333.37        113.4681
333.82        114.2835
334.27        115.2768
334.72        116.3435
335.17        117.3023
335.63        118.0474
336.08         118.645
336.53        119.0579
336.98        119.3247
337.43        119.4776
337.88        119.5159
338.34        119.5072
338.79        119.5833
339.24        119.7776
339.69        120.0917
340.14        120.4698
340.59        120.7938
341.05        121.0403
341.50        121.2508
341.95         121.463
342.40        121.7598
342.85        122.1476
343.30        122.5549
343.75        122.9591
344.20        123.3307
344.66        123.6656
345.11        124.0017
345.56        124.2397
346.01        124.2121
346.46        123.9355
346.91        123.4733
347.36          123.13
347.81        123.3674
348.26        124.2325
348.72        125.5369
349.17        126.9153
349.62        127.6717
350.07        127.6236
350.52        127.0176
350.97        126.1614
351.42        125.5284
351.87        125.2771
352.32        125.2538
352.77        125.4484
353.22        125.8532
353.67        126.3875
354.13        127.0213
354.58         127.543
355.03        127.5924
355.48        127.0902
355.93        126.1394
356.38        124.9134
356.83         123.696
357.28        122.5994
357.73        121.5768
358.18        120.6481
358.63        119.8311
359.08        119.1142
359.53        118.5074
359.98         117.949
360.43        117.3222
360.88        116.5965
361.33        115.7957
361.78        114.9492
362.23        114.1151
362.68         113.318
363.13        112.5448
363.58        111.8095
364.03        111.1329
364.48        110.5141
364.93        109.9476
365.38        109.4099
365.83        108.8635
366.28        108.2939
366.73        107.7001
367.18        107.0851
367.63        106.4567
368.08        105.8107
368.53        105.1429
368.98         104.445
369.43        103.7016
369.88        102.9315
370.33        102.1732
370.78         101.452
371.23        100.8087
371.68        100.2514
372.13        99.73582
372.58        99.30334
373.03        99.01869
373.48        98.85072
373.93        98.76205
374.38        98.54647
374.83           97.88
375.28        96.74778
375.72        95.27898
376.17        93.84385
376.62        92.81656
377.07        92.27546
377.52        92.07923
377.97        92.09499
378.42        92.10197
378.87        91.99863
379.32        91.83994
379.77        91.57775
380.22        91.13606
380.67         90.5116
381.11        89.70964
381.56        88.83694
382.01        88.10862
382.46        87.60141
382.91        87.29089
383.36        87.07346
383.81        86.77205
384.26        86.33912
384.71         85.8122
385.15        85.28941
385.60        84.98309
386.05         84.8938
386.50        84.94723
386.95        84.95849
387.40        84.65414
387.85        84.01176
388.29         83.1078
388.74        82.26221
389.19        81.68857
389.64        81.42789
390.09        81.37617
390.54        81.41617
390.98        81.34666
391.43        81.13726
391.88        80.82217
392.33        80.41915
392.78        80.01401
393.23        79.62135
393.67        79.10546
394.12        78.54733
394.57        78.38265
395.02        77.60486
395.47        77.66044
395.91        78.10559
396.36        78.22002
396.81        77.93686
397.26        77.65078
397.71        77.42233
398.15        77.10994
398.60        76.82011
399.05        76.58093
399.50        76.37285
399.95        76.14895
400.39        75.68675
400.84        75.77321
401.29        76.17527
401.74        76.19711
402.18        75.75525
402.63          75.138
403.08        74.58642
403.53        74.35082
403.97        74.47442
404.42        74.84174
404.87        75.21823
405.32        75.22988
405.76        74.79476
406.21        74.13644
406.66        73.42873
407.11        72.87242
407.55         72.6526
408.00        72.77643
408.45        73.15071
408.90        73.76934
409.34        74.30395
409.79        73.90955
410.24        72.88961
410.68        72.54201
411.13         72.9706
411.58        73.46677
412.03         73.8019
412.47        73.91232
412.92        73.69172
413.37        73.21522
413.81        72.63818
414.26        72.26401
414.71        72.12469
415.15        72.15105
415.60        72.24437
416.05        72.28683
416.49        72.23984
416.94        72.15125
417.39        72.02919
417.83        71.86095
418.28        71.67213
418.73        71.46427
419.17        71.29987
419.62        71.32505
420.07        71.53728
420.51        71.78558
420.96         72.0196
421.41        72.24477
421.85        72.30522
422.30        72.07916
422.74        71.61351
423.19        71.03704
423.64        70.47591
424.08        70.52296
424.53        71.17205
424.98        71.00424
425.42        71.24775
425.87        71.72746
426.31        71.91721
426.76         71.6528
427.21        70.74809
427.65        70.82706
428.10        71.59896
428.54        71.40349
428.99        70.40188
429.44        69.80414
429.88        69.76849
430.33        70.05859
430.77        70.46573
431.22        70.91947
431.66        71.28362
432.11        71.12497
432.56        70.54956
433.00        70.35908
433.45        70.82733
433.89        70.57594
434.34        71.45028
434.78        72.25284
435.23        70.31886
435.67        69.60291
436.12        69.50162
436.57         69.6155
437.01        69.66695
437.46        70.84335
437.90        70.91943
438.35        70.25427
438.79        71.47656
439.24        71.48436
439.68        71.28882
440.13         71.2103
440.57        71.35283
441.02        71.43661
441.46         71.3922
441.91        71.57964
442.35         71.8633
442.80        71.55764
443.24        71.74046
443.69        71.44258
444.13        71.07941
444.58        70.85716
445.02        70.76925
445.47        70.74638
445.91        70.74824
446.36        70.78922
446.80        70.83276
447.24         70.8996
447.69        70.96361
448.13        70.95519
448.58        70.88836
449.02        70.76211
449.47        70.65577
449.91        70.65955
450.36        70.80379
450.80        71.03616
451.25        71.30225
451.69        71.48192
452.13        71.54684
452.58        71.55303
453.02        71.52193
453.47        71.47548
453.91        71.40534
454.36        71.47449
454.80        71.36755
455.24        71.33952
455.69        71.36281
456.13         71.3164
456.58        71.29659
457.02        70.67251
457.46        70.70396
457.91        70.54079
458.35        70.49727
458.79        70.45483
459.24        70.45063
459.68        70.52544
460.13        70.64925
460.57        70.58015
461.01        70.84321
461.46        70.31318
461.90        70.24206
462.34        70.30196
462.79        70.43079
463.23        70.29532
463.68        69.84637
464.12        69.60848
464.56        69.61372
465.01        69.47652
465.45        69.22598
465.89        69.44206
466.34        69.93198
466.78        70.10874
467.22        69.47449
467.67        69.25764
468.11        69.37963
468.55        69.34245
468.99        69.13424
469.44        68.95817
469.88        68.82764
470.32        68.70358
470.77        68.59849
471.21        68.55329
471.65        68.55644
472.10        68.61459
472.54        68.69736
472.98        68.77499
473.42        68.82135
473.87        68.89915
474.31         68.9624
474.75        68.80603
475.20        68.50062
475.64        68.49859
476.08         68.7907
476.52        68.61784
476.97        67.88811
477.41        68.10846
477.85        67.83916
478.29        66.93666
478.74        68.40506
479.18        68.33181
479.62        67.86732
480.06        67.73019
480.50        67.94084
480.95        68.25239
481.39        68.48052
481.83        68.08174
482.27        68.35744
482.72        68.59924
483.16        68.37655
483.60        68.50507
484.04        68.77551
484.48        68.98993
484.93        68.87069
485.37        69.39758
485.81        67.86159
486.25        67.45802
486.69        68.75046
487.14        68.54834
487.58        67.99427
488.02        67.74584
488.46        68.59384
488.90        68.92633
489.34        68.21896
489.79        68.74561
490.23        68.38247
490.67        68.24562
491.11        67.85346
491.55        67.72155
491.99        67.84155
492.43        67.89192
492.88         67.8616
493.32        67.93583
493.76        68.13608
494.20        68.36239
494.64        68.57964
495.08        68.97767
495.52        69.40424
495.96        69.16613
496.41        68.48106
496.85        68.46195
497.29        68.95586
497.73        69.17038
498.17        68.60741
498.61        68.09606
499.05        67.65546
499.49        67.87111
499.93         68.3433
500.37        68.41236
500.82        68.02657
501.26        67.97363
501.70        68.25755
502.14        68.40685
502.58        68.37589
503.02        68.40515
503.46        68.48357
503.90        68.60312
504.34        68.73251
504.78        68.68452
505.22         68.4948
505.66        68.53241
506.10        68.77065
506.54        68.78362
506.98        68.54564
507.42        68.82604
507.86        68.21172
508.30        68.56152
508.74         68.2686
509.18        67.68332
509.62        67.76183
510.06         67.6967
510.50        67.88245
510.94        68.23734
511.38        68.64231
511.82        68.83862
512.26        68.75619
512.70        68.47521
513.14        68.13535
513.58        67.96415
514.02        68.01968
514.46        68.21152
514.90        68.47069
515.34        68.58508
515.78        68.51702
516.22        68.32151
516.66        68.09705
517.10         67.9901
517.54        68.03429
517.98        68.18288
518.42        68.33575
518.86        68.33633
519.30        68.15467
519.74        67.85108
520.18        67.54442
520.62        67.40649
521.06        67.48144
521.50        67.72993
521.93        68.04395
522.37        68.21229
522.81        68.19107
523.25        68.04073
523.69        67.86729
524.13        67.83088
524.57        67.96495
525.01        68.20172
525.45        68.43859
525.89        68.51186
526.32        68.37476
526.76        68.11536
527.20        67.81001
527.64        67.58136
528.08         67.4698
528.52        67.42304
528.96         67.4306
529.40        67.51035
529.83        67.62244
530.27        67.70324
530.71        67.72974
531.15        67.73412
531.59        67.71001
532.03        67.62231
532.46        67.48198
532.90        67.35905
533.34         67.2662
533.78         67.1992
534.22        67.15863
534.66        67.14059
535.09        67.13842
535.53        67.16917
535.97         67.2282
536.41        67.32065
536.85        67.43502
537.28        67.55112
537.72        67.64639
538.16        67.67733
538.60        67.63504
539.04        67.55397
539.47        67.41011
539.91        67.24327
540.35        67.09251
540.79        66.94759
541.22         66.7736
541.66        67.11897
542.10        66.86726
542.54        66.97543
542.97         67.0985
543.41        67.22513
543.85        67.32951
544.29        67.43872
544.72        67.52409
545.16        67.55338
545.60        67.52248
546.04        67.40974
546.47        67.27583
546.91        67.32619
547.35        67.53539
547.79        67.65347
548.22        67.62532
548.66        67.72617
549.10        67.95695
549.53        67.96052
549.97        67.64501
550.41         68.2607
550.84        67.75665
551.28        67.69753
551.72         67.4966
552.15         67.6881
552.59        67.41403
553.03        67.71091
553.46        67.62529
553.90          67.711
554.34        67.74747
554.77        67.73417
555.21        67.69604
555.65        67.73184
556.08        67.81254
556.52        67.77222
556.96        67.65536
557.39        67.72396
557.83        67.95734
558.27         68.1456
558.70        68.25114
559.14        68.22704
559.57        68.04591
560.01        68.20151
560.45        68.05259
560.88        67.91038
561.32        67.92626
561.75        67.94039
562.19        68.01282
562.63        67.87192
563.06        67.59195
563.50        67.59322
563.93         67.8222
564.37        67.93478
564.80        67.89516
565.24        67.92401
565.68         67.9992
566.11        68.04707
566.55        68.06442
566.98        67.94673
567.42        67.81941
567.85        67.80073
568.29        67.87892
568.72        68.11287
569.16        68.59083
569.60        67.98885
570.03        68.37407
570.47        68.54299
570.90        68.61537
571.34        68.16063
571.77        68.61666
572.21         68.7201
572.64        68.79206
573.08        68.90281
573.51         68.2547
573.95        68.40792
574.38        68.80702
574.82        68.78736
