SpectraSmart Spectrum 2.9.0.0
--------- Device Information -----------
Spectrum Name :  反射率_0
Saving Time :  2024/04/30 00:23:43
Spectro-Module Model Name : SE2030-DUVN
Spectro-Module Serial Number : OS361AC55029948
Wavelength Start : 200
Wavelength End : 1025
Wavelength Unit : Wavelength(nm)
Spectrum Unit : Reflectance(%)
-----------Spectrum Setting ------------
Integration Time : 20ms
Average : 10
Boxcar : 0
Background removal :  enabled
linearity correction :  enabled
SC :  disabled
Intensity correction :  disabled
DWT denoise :  enabled
savitzky-golay :  disabled
FFT :  disabled
Running average :  disabled
Kalman :  disabled
High pass :  disabled
---------------BEGIN--------------------
Wavelength(nm)             Reflectance(%)
200.29               0
200.75         69.6102
201.21        57.19768
201.67        45.98962
202.13         38.9015
202.58        37.37782
203.04        42.06343
203.50        51.40145
203.96        61.09724
204.42        68.21143
204.88        71.79513
205.34        72.44691
205.80        72.38552
206.26        72.04491
206.72        71.12334
207.18        68.54722
207.64        62.82027
208.10         54.0249
208.55        42.54849
209.01        30.71411
209.47        25.59895
209.93        28.90224
210.39        36.97744
210.85        45.03889
211.31        49.36234
211.77        49.88457
212.23        47.24191
212.69        42.67367
213.14        41.91389
213.60        46.73507
214.06        53.92577
214.52        59.63649
214.98        61.71642
215.44        60.95538
215.90        58.42444
216.36         56.3418
216.81        58.90629
217.27        68.33138
217.73        85.30019
218.19        107.7919
218.65        122.5297
219.11        120.5312
219.57        106.9991
220.02        91.95996
220.48        82.10624
220.94        75.90317
221.40        70.57201
221.86          64.264
222.32        56.10651
222.77        48.65434
223.23        44.61763
223.69        42.57397
224.15        40.57952
224.61        38.08875
225.06        34.91325
225.52        32.44925
225.98        33.42234
226.44        37.52436
226.90        42.51316
227.36        46.31075
227.81        47.70079
228.27        47.02717
228.73        44.74406
229.19        41.80223
229.65        40.30399
230.10        40.79852
230.56        42.37485
231.02        43.78936
231.48        43.93425
231.93        42.77171
232.39        40.80659
232.85        38.75863
233.31        38.00325
233.77        38.97482
234.22        41.37188
234.68        44.24908
235.14        45.84984
235.60        45.70374
236.05        44.38973
236.51        43.11244
236.97        43.50143
237.43        46.09694
237.88        51.00082
238.34        57.74872
238.80        64.20217
239.26        68.22318
239.71        69.89861
240.17        70.05068
240.63        70.89476
241.08        73.67269
241.54        78.43018
242.00        86.63591
242.46        98.19904
242.91        109.6295
243.37        117.4613
243.83        120.8895
244.28        122.2749
244.74        122.7969
245.20        120.9928
245.66        117.8353
246.11        116.2529
246.57        117.3652
247.03        122.1711
247.48         126.315
247.94         120.513
248.40         107.411
248.85         93.5677
249.31        84.61171
249.77        81.91323
250.22        84.76625
250.68        93.39241
251.14         108.143
251.59        118.7244
252.05        115.9375
252.51        107.0138
252.96        99.42522
253.42         96.7157
253.88        97.28745
254.33         99.5569
254.79        102.2127
255.25        102.1885
255.70        99.27014
256.16        96.07863
256.62        93.76102
257.07        92.86148
257.53        93.48804
257.99        94.72755
258.44        95.35435
258.90        94.68974
259.35        92.40891
259.81        89.81717
260.27        87.43608
260.72        85.67845
261.18        84.70857
261.63        83.84763
262.09        82.88671
262.55        81.12025
263.00        78.59371
263.46        75.99974
263.91        73.53827
264.37        71.85452
264.83        70.80768
265.28        70.08745
265.74        69.63061
266.19        69.06349
266.65        68.38571
267.11        67.62003
267.56        66.74989
268.02        65.78139
268.47        64.65716
268.93        63.36922
269.38        61.91131
269.84        60.43061
270.30        59.00309
270.75        57.65549
271.21        56.40501
271.66        55.16317
272.12        53.91597
272.57        52.63678
273.03        51.42242
273.48        50.32391
273.94        49.42734
274.39        48.65667
274.85        47.95465
275.31        47.12307
275.76        46.11191
276.22        45.02098
276.67        43.95517
277.13        43.20737
277.58        42.73275
278.04        42.47836
278.49        42.18169
278.95        41.60001
279.40        40.64918
279.86        39.53514
280.31        38.38937
280.77        37.55308
281.22        37.04604
281.68        36.79452
282.13        36.68919
282.59         36.6563
283.04        36.61308
283.50        36.59665
283.95        36.51485
284.41        36.25817
284.86        35.81064
285.32        35.26342
285.77         34.7009
286.22        34.34221
286.68        34.23765
287.13         34.2784
287.59        34.42499
288.04        34.53969
288.50         34.5982
288.95        34.59752
289.41        34.55776
289.86        34.44589
290.32        34.31125
290.77        34.18035
291.22        34.09492
291.68        34.11179
292.13        34.25546
292.59        34.55716
293.04        35.10531
293.50        36.07059
293.95        37.44931
294.40         39.1898
294.86        41.08265
295.31         42.8065
295.77        44.26674
296.22        45.51871
296.68        46.74013
297.13        48.19458
297.58        49.94901
298.04        51.88356
298.49        53.82732
298.95        55.54074
299.40        56.96185
299.85        58.19727
300.31        59.41278
300.76        60.76089
301.21        62.33339
301.67        64.11281
302.12        65.98148
302.58        67.91644
303.03        69.84881
303.48        71.74337
303.94        73.68692
304.39        76.00906
304.84        78.27478
305.30        80.77512
305.75        83.14735
306.20        85.12285
306.66        86.67746
307.11        87.85301
307.57        88.92639
308.02        90.16705
308.47        91.69225
308.93        93.41415
309.38        95.16247
309.83        96.75334
310.29        98.12868
310.74         99.3396
311.19        100.4063
311.65        101.3411
312.10        102.1487
312.55        102.8373
313.00        103.5309
313.46        104.4348
313.91        105.5592
314.36         106.852
314.82        108.1324
315.27        109.1316
315.72        109.7534
316.18        110.0756
316.63        110.2148
317.08        110.3769
317.53        110.6477
317.99        111.0116
318.44        111.3967
318.89         111.705
319.35        111.9193
319.80        112.0739
320.25        112.3214
320.70        112.8971
321.16        113.7918
321.61        114.9635
322.06        116.0863
322.51        116.6485
322.97        116.5268
323.42         115.892
323.87        115.0882
324.32         114.689
324.78         114.834
325.23        115.4439
325.68        116.2583
326.13        116.8292
326.59        116.9994
327.04        116.9429
327.49        116.8718
327.94        117.1822
328.39        117.9512
328.85        118.9697
329.30        120.0366
329.75        120.5918
330.20        120.4939
330.66        119.9272
331.11        119.2104
331.56        118.7642
332.01        118.7645
332.46        119.1094
332.92        119.7088
333.37        120.5704
333.82        121.5614
334.27         122.677
334.72        123.8102
335.17        124.7761
335.63        125.4737
336.08        125.9862
336.53        126.2602
336.98        126.3198
337.43         126.221
337.88        125.9846
338.34        125.7948
338.79        125.9575
339.24        126.5243
339.69        127.4362
340.14        128.4588
340.59         129.171
341.05         129.468
341.50        129.4772
341.95        129.3822
342.40          129.51
342.85        129.9362
343.30        130.5076
343.75        131.1386
344.20        131.6987
344.66        132.1462
345.11        132.5693
345.56        132.8547
346.01        132.8036
346.46        132.4393
346.91        131.8238
347.36        131.3393
347.81        131.5714
348.26        132.5867
348.72        134.1714
349.17         135.853
349.62        136.7434
350.07        136.6179
350.52        135.7821
350.97        134.6834
351.42        134.0108
351.87        133.9614
352.32        134.3024
352.77        134.8897
353.22        135.5003
353.67        135.9974
354.13        136.4262
354.58        136.6692
355.03        136.5162
355.48        135.9374
355.93        134.9838
356.38        133.8013
356.83        132.6345
357.28        131.5757
357.73        130.5988
358.18        129.7002
358.63        128.8531
359.08        128.0441
359.53        127.2928
359.98        126.5841
360.43        125.8812
360.88        125.1683
361.33        124.4409
361.78        123.6819
362.23         122.876
362.68        122.0225
363.13        121.1241
363.58        120.2178
364.03        119.3599
364.48        118.5661
364.93        117.8316
365.38         117.119
365.83        116.3688
366.28        115.5737
366.73         114.751
367.18        113.9588
367.63        113.2844
368.08        112.7314
368.53        112.2638
368.98        111.7965
369.43        111.1892
369.88        110.4265
370.33        109.5798
370.78         108.728
371.23        108.0063
371.68        107.4505
372.13        106.9812
372.58        106.6148
373.03        106.3794
373.48        106.2256
373.93        106.1294
374.38        105.8742
374.83        105.1161
375.28        103.8457
375.72        102.2029
376.17        100.5928
376.62        99.42648
377.07        98.79585
377.52        98.55732
377.97        98.57015
378.42        98.59883
378.87        98.53012
379.32        98.40818
379.77        98.19211
380.22        97.81955
380.67         97.2808
381.11         96.5743
381.56        95.75133
382.01        94.94256
382.46        94.22016
382.91        93.59641
383.36        93.06483
383.81        92.59284
384.26        92.16155
384.71         91.7662
385.15        91.41917
385.60         91.1972
386.05        91.06628
386.50        90.99691
386.95        90.86452
387.40         90.4918
387.85        89.87925
388.29        89.05749
388.74        88.31782
389.19        87.83021
389.64         87.6257
390.09        87.60922
390.54        87.67205
390.98        87.65576
391.43        87.54609
391.88        87.27005
392.33        86.83695
392.78        86.57397
393.23        86.39669
393.67        85.60053
394.12        84.45055
394.57         84.3038
395.02        83.97932
395.47        84.10465
395.91        84.22133
396.36        84.27602
396.81        84.21522
397.26        84.06717
397.71        83.84686
398.15        83.50422
398.60        83.15285
399.05        82.76873
399.50        82.38941
399.95        82.13507
400.39        81.73436
400.84        81.81963
401.29        82.15025
401.74        82.15077
402.18         81.7565
402.63        81.23592
403.08        80.79079
403.53         80.5952
403.97        80.67978
404.42        80.96113
404.87        81.26525
405.32        81.28272
405.76        80.93824
406.21        80.48717
406.66        80.00269
407.11        79.39747
407.55        78.88599
408.00        78.82807
408.45        79.17809
408.90        79.68137
409.34        80.05919
409.79         79.7555
410.24        78.98902
410.68        78.72842
411.13        79.04307
411.58        79.34953
412.03         79.5124
412.47        79.59035
412.92        79.50489
413.37        79.27997
413.81        78.94166
414.26        78.61562
414.71        78.30499
415.15        78.00755
415.60        77.74543
416.05        77.60847
416.49         77.6197
416.94        77.75851
417.39         77.9438
417.83        78.01718
418.28        77.94672
418.73        77.77267
419.17        77.57903
419.62        77.51948
420.07         77.6013
420.51        77.74533
420.96         77.9015
421.41        77.87525
421.85        77.60514
422.30        77.44916
422.74        77.33538
423.19        76.78443
423.64        76.01628
424.08        76.14651
424.53        77.02637
424.98        77.43107
425.42        77.23441
425.87        77.20655
426.31        77.36177
426.76        77.11137
427.21        76.44512
427.65        76.51275
428.10        77.06352
428.54        76.97898
428.99        76.34197
429.44        75.75523
429.88        75.41903
430.33         75.6685
430.77        76.24256
431.22        76.57946
431.66        76.57316
432.11        76.31585
432.56        75.96654
433.00        75.87676
433.45        76.20034
433.89        76.72714
434.34        76.89561
434.78        78.29027
435.23        76.31203
435.67        75.62059
436.12         75.2263
436.57        75.13065
437.01        75.15105
437.46        76.17111
437.90        75.61401
438.35        76.03423
438.79        76.60932
439.24        76.90692
439.68        76.88357
440.13        76.98421
440.57        77.25665
441.02        77.21791
441.46        76.79037
441.91        77.24677
442.35         76.7636
442.80        76.62785
443.24        76.85855
443.69        76.72518
444.13        76.41074
444.58        76.22884
445.02        76.16553
445.47        76.06718
445.91        75.94973
446.36        75.94931
446.80        76.04674
447.24        76.22005
447.69        76.40363
448.13        76.46848
448.58        76.41209
449.02        76.25291
449.47        76.09261
449.91        76.04957
450.36        76.16553
450.80         76.3791
451.25        76.62587
451.69        76.76624
452.13        76.77242
452.58        76.71397
453.02        76.62482
453.47        76.54211
453.91        76.45776
454.36        76.51751
454.80        76.48035
455.24        76.42591
455.69        76.40717
456.13        76.50883
456.58        76.73119
457.02         76.1869
457.46        75.80125
457.91        75.58486
458.35        75.71239
458.79        75.67954
459.24         75.5094
459.68        75.50113
460.13        75.67307
460.57        75.61057
461.01         75.8528
461.46        75.82384
461.90        75.63156
462.34        75.98881
462.79        75.73756
463.23        75.57377
463.68        75.20893
464.12        74.96405
464.56        74.84358
465.01        74.55635
465.45        74.15657
465.89        74.10635
466.34        74.39116
466.78        74.60116
467.22        74.89717
467.67        74.78691
468.11          74.691
468.55        74.27593
468.99        73.78819
469.44        73.45484
469.88        73.33171
470.32        73.35661
470.77        73.45729
471.21        73.54855
471.65        73.58097
472.10        73.61143
472.54        73.62187
472.98         73.6216
473.42        73.61286
473.87        73.58449
474.31        73.54583
474.75        73.53569
475.20        73.53203
475.64        73.61762
476.08        73.79314
476.52        73.54952
476.97        72.88296
477.41        73.32278
477.85        72.59914
478.29         72.0249
478.74        72.27076
479.18        72.26046
479.62        72.35082
480.06        72.43102
480.50        72.48906
480.95        72.30756
481.39        73.14697
481.83        72.17876
482.27        73.14878
482.72        73.37174
483.16        73.18168
483.60        73.05106
484.04        73.42527
484.48        73.49394
484.93        73.24252
485.37        73.52906
485.81        72.22191
486.25        71.82479
486.69        72.66693
487.14        72.23796
487.58        72.02931
488.02        72.33028
488.46        73.38113
488.90         72.6617
489.34        71.98852
489.79        72.66058
490.23         72.1302
490.67        72.16354
491.11        71.87249
491.55        71.72755
491.99        71.72693
492.43        71.76875
492.88        71.86007
493.32        72.03457
493.76         72.2422
494.20        72.40585
494.64        72.49236
495.08        72.55128
495.52        72.58109
495.96        72.47679
496.41        72.26511
496.85         72.4224
497.29        72.11313
497.73         72.3079
498.17         72.2906
498.61        72.07364
499.05        71.64051
499.49        71.65292
499.93        72.03105
500.37        72.04403
500.82        71.71112
501.26        71.61722
501.70        71.77513
502.14        71.84247
502.58        71.82262
503.02        71.89056
503.46        72.05453
503.90        72.18266
504.34        72.38049
504.78        72.41788
505.22        72.30488
505.66        72.08467
506.10        71.88102
506.54        71.81771
506.98        71.82688
507.42        72.53296
507.86        71.90759
508.30        72.34801
508.74        71.94774
509.18        71.71243
509.62         71.3681
510.06        71.24622
510.50        71.40166
510.94        71.74004
511.38        72.12532
511.82        72.29852
512.26        72.20462
512.70        71.90557
513.14         71.5224
513.58        71.36641
514.02        71.51768
514.46        71.53799
514.90        71.68232
515.34        72.14703
515.78        71.84398
516.22        71.74461
516.66         71.5809
517.10        71.48711
517.54        71.47912
517.98        71.53401
518.42        71.60049
518.86        71.56752
519.30        71.41743
519.74        71.20232
520.18        70.99007
520.62        70.85105
521.06         70.8271
521.50        70.95823
521.93        71.17795
522.37         71.2998
522.81        71.29794
523.25        71.23051
523.69        71.18253
524.13        71.27303
524.57        71.51511
525.01         71.8547
525.45        72.16582
525.89         72.2481
526.32         72.0519
526.76        71.67784
527.20        71.24591
527.64         70.9437
528.08        70.82689
528.52        70.84122
528.96        70.94213
529.40        71.05663
529.83        71.14566
530.27        71.23792
530.71         71.3146
531.15        71.34984
531.59        71.33858
532.03         71.2782
532.46        71.17709
532.90        71.08672
533.34        71.01639
533.78        70.96626
534.22        70.93443
534.66        70.91306
535.09        70.89467
535.53        70.89759
535.97        70.92012
536.41        70.97345
536.85        71.05182
537.28        71.13828
537.72        71.21092
538.16        71.23141
538.60         71.1908
539.04        71.10505
539.47        70.97482
539.91        70.86068
540.35        70.76019
540.79        70.67686
541.22        70.61505
541.66        70.59248
542.10        70.60597
542.54        70.65739
542.97          70.727
543.41        70.80344
543.85        70.86861
544.29        70.93406
544.72        70.96559
545.16        70.95137
545.60        70.88799
546.04        70.75296
546.47        70.60309
546.91        70.63993
547.35        70.83521
547.79        70.93123
548.22        70.88042
548.66        70.98789
549.10        71.25343
549.53        71.29028
549.97        70.98885
550.41        71.64183
550.84        71.09922
551.28         71.0019
551.72        70.72248
552.15          70.853
552.59        70.51265
553.03        70.54469
553.46        70.48923
553.90        70.47212
554.34        70.56374
554.77        70.70389
555.21        70.88328
555.65        70.84155
556.08         70.6286
556.52        70.58906
556.96        70.72462
557.39        70.86964
557.83        71.00205
558.27        71.08296
558.70        71.11737
559.14        71.19877
559.57        71.27158
560.01         71.2636
560.45        71.19428
560.88        70.91988
561.32        70.85376
561.75        70.88853
562.19        71.07676
562.63        71.00169
563.06        70.71725
563.50         70.7392
563.93        70.99233
564.37        71.06446
564.80        70.91746
565.24         70.7923
565.68        70.71803
566.11        70.69631
566.55        70.73718
566.98        70.73112
567.42        70.74889
567.85        70.75886
568.29        70.74871
568.72        70.95559
569.16        71.49194
569.60        70.82085
570.03        71.06514
570.47        71.34417
570.90         71.2274
571.34        70.57841
571.77        71.06207
572.21        71.10185
572.64        71.19145
573.08        71.09026
573.51        70.87299
573.95        70.97186
574.38         71.2252
574.82        71.14836
