SpectraSmart Spectrum 2.9.0.0
--------- Device Information -----------
Spectrum Name :  反射率_0
Saving Time :  2024/04/30 00:05:54
Spectro-Module Model Name : SE2030-DUVN
Spectro-Module Serial Number : OS361AC55029948
Wavelength Start : 200
Wavelength End : 1025
Wavelength Unit : Wavelength(nm)
Spectrum Unit : Reflectance(%)
-----------Spectrum Setting ------------
Integration Time : 20ms
Average : 10
Boxcar : 0
Background removal :  enabled
linearity correction :  enabled
SC :  disabled
Intensity correction :  disabled
DWT denoise :  enabled
savitzky-golay :  disabled
FFT :  disabled
Running average :  disabled
Kalman :  disabled
High pass :  disabled
---------------BEGIN--------------------
Wavelength(nm)             Reflectance(%)
200.29               0
200.75         93.5174
201.21        78.54291
201.67        62.62464
202.13        52.41014
202.58        51.08996
203.04        57.75488
203.50        70.75329
203.96        85.56731
204.42        98.00759
204.88        106.7403
205.34         109.042
205.80        103.1975
206.26        92.47442
206.72        80.95471
207.18        69.79317
207.64        58.16543
208.10        45.34459
208.55        30.41745
209.01        16.79514
209.47        13.90486
209.93        22.76278
210.39        37.86004
210.85        51.44793
211.31        57.51865
211.77        55.97423
212.23        47.02251
212.69        32.87292
213.14        26.72875
213.60        34.77991
214.06         49.5263
214.52        61.66297
214.98         65.2152
215.44        61.44597
215.90        53.08057
216.36         43.6625
216.81        39.96643
217.27        45.50841
217.73        59.78488
218.19        81.84129
218.65        100.6251
219.11        106.0462
219.57        100.9877
220.02        91.82226
220.48         83.5844
220.94        75.59486
221.40        65.34181
221.86        52.63236
222.32         42.9906
222.77        40.52755
223.23        43.27924
223.69        46.85199
224.15        48.31257
224.61        47.65273
225.06         45.4814
225.52        42.68404
225.98        41.16919
226.44        41.50587
226.90        42.64748
227.36        43.44893
227.81         43.0141
228.27         41.4073
228.73        38.92626
229.19        36.47731
229.65         35.9575
230.10        37.55816
230.56        40.09172
231.02        42.32371
231.48        43.28504
231.93         42.9649
232.39        41.84775
232.85        40.32492
233.31        39.18341
233.77        38.74524
234.22        38.89358
234.68         39.3327
235.14        39.53185
235.60        39.43025
236.05        39.32042
236.51        39.67884
236.97        41.13595
237.43        43.98619
237.88        48.46769
238.34        54.44356
238.80        60.78582
239.26        65.80463
239.71        69.09647
240.17        70.59533
240.63        71.43887
241.08        72.38594
241.54        72.96191
242.00        73.78633
242.46        76.46827
242.91         81.9516
243.37        88.99767
243.83        95.17181
244.28        98.97248
244.74        100.5918
245.20        99.67213
245.66        97.53732
246.11        97.53123
246.57        101.0616
247.03        108.6201
247.48        115.3846
247.94        111.1964
248.40        98.58396
248.85        84.64296
249.31        76.03442
249.77        75.36555
250.22        82.39178
250.68        98.15326
251.14        123.2469
251.59        140.1194
252.05        133.7354
252.51        117.2261
252.96        102.8545
253.42        95.07663
253.88        91.32135
254.33        89.12459
254.79        87.91089
255.25         86.7889
255.70        85.39996
256.16         84.5519
256.62         84.1096
257.07        83.81802
257.53        83.92868
257.99        84.06911
258.44        83.29012
258.90        81.32176
259.35        78.19666
259.81        75.04959
260.27        72.50806
260.72        71.08351
261.18        70.75169
261.63        70.78226
262.09        70.72099
262.55        69.61979
263.00        67.49323
263.46        65.07408
263.91        62.70986
264.37        61.14688
264.83        60.28411
265.28         59.7789
265.74        59.49237
266.19        58.97165
266.65        58.21088
267.11        57.31112
267.56        56.34596
268.02        55.42059
268.47        54.51019
268.93        53.55965
269.38          52.534
269.84        51.52268
270.30        50.53775
270.75        49.58948
271.21        48.63471
271.66        47.52512
272.12        46.25159
272.57        44.83871
273.03        43.43458
273.48        42.18474
273.94        41.21714
274.39        40.45335
274.85         39.8693
275.31        39.32824
275.76        38.76083
276.22        38.21137
276.67        37.68013
277.13        37.28724
277.58        36.96722
278.04        36.71347
278.49        36.35011
278.95        35.74634
279.40        34.85602
279.86        33.84136
280.31         32.8149
280.77        32.07467
281.22        31.63496
281.68        31.43545
282.13        31.37526
282.59         31.3719
283.04        31.35111
283.50         31.3427
283.95        31.27139
284.41        31.04279
284.86        30.65135
285.32        30.18568
285.77        29.71704
286.22        29.43427
286.68        29.38411
287.13        29.46553
287.59        29.67182
288.04        29.92209
288.50        30.18775
288.95        30.44274
289.41        30.63716
289.86        30.64782
290.32        30.50384
290.77        30.25626
291.22         30.0116
291.68        29.93332
292.13        30.07212
292.59        30.42642
293.04        31.01804
293.50        31.90976
293.95        33.08605
294.40        34.53753
294.86        36.13438
295.31        37.67845
295.77        39.10647
296.22        40.43821
296.68        41.78553
297.13        43.30895
297.58        45.04775
298.04        46.91451
298.49        48.78885
298.95        50.50337
299.40         52.0141
299.85        53.39532
300.31        54.76492
300.76        56.21557
301.21        57.81614
301.67        59.55496
302.12        61.35411
302.58        63.24732
303.03        65.17967
303.48        67.09441
303.94         69.0132
304.39        71.22163
304.84        73.20026
305.30        75.35267
305.75        77.40611
306.20        79.26444
306.66        80.92188
307.11        82.35015
307.57        83.70864
308.02        85.10354
308.47        86.60944
308.93        88.19579
309.38        89.73593
309.83        91.11349
310.29        92.30051
310.74         93.3248
311.19        94.23964
311.65        95.10883
312.10        95.94514
312.55        96.75839
313.00        97.59418
313.46        98.52722
313.91        99.54367
314.36        100.6146
314.82        101.6778
315.27        102.6609
315.72        103.4996
316.18        104.2037
316.63        104.7187
317.08        104.9806
317.53        105.0208
317.99        104.9148
318.44        104.7691
318.89         104.767
319.35        104.9663
319.80        105.3203
320.25        105.8502
320.70        106.5749
321.16        107.4273
321.61        108.4365
322.06        109.3721
322.51        109.8776
322.97        109.8704
323.42        109.4486
323.87        108.8865
324.32        108.6612
324.78        108.8761
325.23        109.4783
325.68         110.216
326.13        110.6527
326.59        110.6517
327.04        110.3927
327.49        110.1164
327.94        110.2592
328.39        110.9198
328.85        111.8993
329.30        113.0038
329.75        113.6877
330.20        113.7944
330.66         113.478
331.11        113.0171
331.56        112.7823
332.01        112.9223
332.46        113.3383
332.92        113.9078
333.37         114.585
333.82        115.2501
334.27        115.9318
334.72        116.6256
335.17        117.3134
335.63        117.9493
336.08        118.5797
336.53        119.0898
336.98        119.3779
337.43        119.4445
337.88        119.3323
338.34        119.2238
338.79        119.4289
339.24         120.007
339.69        120.8898
340.14        121.8593
340.59        122.5327
341.05        122.8185
341.50        122.8387
341.95        122.7833
342.40        122.9808
342.85        123.5021
343.30        124.1975
343.75        124.9492
344.20        125.5715
344.66        126.0175
345.11        126.3932
345.56        126.6332
346.01        126.6199
346.46        126.3857
346.91        125.9483
347.36        125.6499
347.81        126.0191
348.26        127.1031
348.72        128.7138
349.17        130.3534
349.62        131.0966
350.07        130.7336
350.52        129.5922
350.97        128.2188
351.42        127.4472
351.87        127.5021
352.32        128.1198
352.77        129.0474
353.22        129.8797
353.67        130.4299
354.13        130.7812
354.58        130.9234
355.03        130.8256
355.48        130.4882
355.93        129.8944
356.38        129.0528
356.83        128.0052
357.28        126.8136
357.73        125.5331
358.18        124.3017
358.63        123.3088
359.08        122.5925
359.53        122.0984
359.98        121.7118
360.43        121.2365
360.88        120.6106
361.33        119.8876
361.78        119.0931
362.23        118.2751
362.68        117.4608
363.13        116.6283
363.58        115.8228
364.03        115.1216
364.48        114.5335
364.93        114.0424
365.38        113.5777
365.83        113.0219
366.28         112.348
366.73        111.5842
367.18        110.7919
367.63        110.0708
368.08         109.434
368.53        108.8396
368.98        108.2353
369.43        107.5326
369.88        106.7309
370.33        105.9058
370.78        105.0859
371.23        104.3159
371.68        103.6199
372.13        102.9473
372.58        102.4087
373.03        102.1821
373.48        102.2451
373.93        102.5219
374.38        102.6756
374.83        102.1632
375.28        100.9218
375.72        99.15285
376.17        97.36047
376.62        96.11069
377.07        95.52938
377.52        95.41715
377.97         95.5746
378.42        95.67085
378.87        95.56645
379.32        95.35262
379.77        95.01406
380.22        94.51786
380.67        93.87141
381.11        93.06152
381.56        92.16853
382.01        91.37283
382.46        90.74963
382.91        90.29634
383.36        89.95123
383.81        89.59362
384.26        89.18948
384.71         88.7622
385.15        88.37029
385.60        88.16654
386.05        88.13073
386.50        88.19363
386.95        88.20563
387.40        87.94997
387.85        87.40771
388.29        86.63011
388.74         85.8787
389.19        85.27921
389.64        84.86614
390.09        84.56905
390.54        84.35897
390.98        84.17509
391.43        84.02353
391.88         83.9026
392.33        83.73542
392.78        83.45933
393.23        83.07925
393.67        82.52126
394.12        81.92186
394.57        81.81523
395.02        81.16323
395.47         81.2604
395.91        81.55503
396.36        81.60115
396.81        81.31431
397.26        80.99045
397.71        80.70019
398.15        80.37502
398.60        80.12943
399.05        79.93941
399.50        79.79578
399.95        79.71864
400.39        79.44202
400.84         79.6726
401.29        80.13865
401.74        80.14192
402.18        79.60777
402.63        78.86613
403.08        78.17863
403.53        77.79385
403.97        77.76861
404.42        78.00366
404.87        78.30484
405.32        78.33508
405.76        78.01465
406.21        77.58054
406.66        77.09843
407.11        76.58652
407.55        76.23422
408.00        76.09049
408.45        76.18932
408.90        76.90393
409.34        77.83697
409.79        77.56556
410.24        76.39834
410.68         76.1039
411.13        76.78364
411.58        77.42993
412.03        77.79353
412.47        77.93309
412.92        77.74149
413.37        77.25815
413.81        76.64287
414.26        76.21436
414.71        76.01091
415.15        75.97189
415.60        76.01765
416.05        76.05492
416.49         76.0522
416.94        76.05428
417.39        76.03899
417.83        75.94092
418.28        75.76685
418.73         75.5262
419.17        75.31467
419.62        75.30714
420.07         75.5061
420.51        75.83047
420.96        76.17943
421.41        76.28492
421.85        76.07477
422.30        75.88697
422.74        75.69842
423.19        75.21026
423.64         74.5974
424.08        74.69806
424.53        75.41264
424.98        75.77141
425.42        75.65617
425.87         75.8566
426.31        76.25518
426.76        75.73528
427.21        74.44939
427.65        74.45041
428.10        75.46406
428.54        75.57003
428.99        74.80569
429.44        74.23767
429.88        74.07375
430.33        74.35423
430.77        74.87638
431.22        75.42714
431.66        75.82226
432.11        75.59804
432.56        74.85882
433.00        74.54469
433.45        74.95631
433.89        74.96138
434.34        75.03407
434.78        76.93876
435.23         74.8389
435.67        74.21342
436.12        73.69742
436.57        73.86605
437.01        74.47816
437.46        75.37879
437.90        75.22181
438.35        75.20804
438.79        75.98508
439.24        76.11546
439.68        75.93342
440.13        75.80746
440.57        75.83509
441.02        75.88052
441.46        75.91364
441.91        76.15614
442.35        76.37603
442.80        76.33569
443.24        76.01622
443.69         75.7226
444.13        75.53923
444.58        75.42497
445.02        75.36182
445.47        75.47203
445.91        75.68256
446.36        75.80093
446.80        75.76575
447.24        75.83788
447.69        75.70721
448.13        75.66655
448.58        75.64838
449.02        75.62446
449.47        75.61831
449.91        75.63757
450.36        75.69984
450.80        75.78466
451.25        75.88252
451.69        75.93742
452.13        75.94334
452.58        75.93816
453.02        75.93162
453.47        75.92735
453.91        75.90406
454.36        76.04308
454.80        75.98252
455.24        76.01144
455.69        75.99835
456.13        75.98843
456.58        75.99645
457.02        75.53035
457.46        75.30758
457.91         75.1262
458.35        75.14452
458.79        75.14028
459.24        75.13498
459.68        75.28612
460.13        75.56528
460.57        75.50177
461.01        75.61508
461.46        75.38908
461.90        75.06281
462.34        75.07096
462.79        75.30723
463.23        75.07211
463.68         74.3926
464.12        74.08057
464.56        74.22878
465.01         73.5913
465.45        73.68855
465.89        73.65333
466.34         73.8713
466.78        74.00587
467.22        74.29693
467.67        73.82395
468.11        73.92992
468.55        73.49873
468.99        73.03002
469.44        72.71622
469.88        72.61414
470.32        72.67259
470.77        72.78734
471.21        72.84438
471.65        72.77947
472.10        72.64199
472.54        72.50184
472.98        72.44529
473.42        72.47055
473.87         72.7254
474.31        73.04529
474.75        72.74643
475.20        72.01536
475.64        72.04438
476.08         72.7569
476.52        72.74944
476.97        71.90943
477.41        72.23784
477.85        71.58971
478.29        71.34245
478.74        72.46575
479.18         72.3828
479.62        71.70116
480.06        71.51618
480.50        71.90868
480.95         71.7386
481.39        72.11897
481.83        71.74289
482.27        72.28245
482.72        72.23615
483.16        72.08429
483.60        72.10369
484.04        72.31141
484.48        72.59064
484.93        72.70185
485.37         72.6595
485.81        71.63869
486.25        71.18898
486.69        72.07471
487.14        72.30286
487.58         71.3906
488.02        71.01633
488.46        71.83334
488.90        71.49847
489.34        71.22474
489.79        71.90504
490.23        71.22394
490.67        71.16166
491.11        70.97538
491.55        70.81219
491.99        70.68616
492.43        70.63844
492.88         70.6885
493.32        70.85868
493.76        71.09644
494.20        71.27974
494.64        71.37145
495.08        71.47203
495.52        71.53665
495.96         71.3516
496.41        71.03297
496.85        70.94693
497.29        71.01057
497.73         71.2547
498.17        70.83953
498.61        70.65067
499.05        70.51723
499.49        70.53462
499.93        70.63029
500.37        70.56796
500.82        70.39561
501.26        70.19007
501.70        70.37254
502.14         70.4515
502.58        70.52519
503.02         70.6147
503.46         70.7131
503.90        70.81299
504.34        70.89418
504.78        70.93974
505.22        70.94485
505.66        70.88155
506.10        70.76402
506.54        70.74477
506.98        70.82759
507.42        70.74133
507.86          70.429
508.30        70.69257
508.74        70.24597
509.18         70.0852
509.62        69.89981
510.06        69.86495
510.50        69.98931
510.94        70.23853
511.38        70.51689
511.82        70.63499
512.26        70.55583
512.70        70.31601
513.14        70.01263
513.58        69.85867
514.02        69.91058
514.46        69.86509
514.90        70.09911
515.34        70.14209
515.78        70.09482
516.22        69.98091
516.66        69.86485
517.10         69.8328
517.54        69.89877
517.98        70.03634
518.42        70.17055
518.86        70.18707
519.30        70.06371
519.74         69.8389
520.18        69.60612
520.62        69.50491
521.06        69.56863
521.50        69.76628
521.93        70.01462
522.37        70.12208
522.81        70.05152
523.25         69.9045
523.69        69.80575
524.13        69.65965
524.57        69.95618
525.01        70.26464
525.45        70.58842
525.89        70.70264
526.32        70.55269
526.76        70.23009
527.20         69.8588
527.64        69.64523
528.08        69.63792
528.52        69.77017
528.96        69.95467
529.40        70.05496
529.83         70.0237
530.27        69.91293
530.71        69.76494
531.15        69.64879
531.59        69.58769
532.03        69.56167
532.46        69.53227
532.90        69.47195
533.34        69.37124
533.78        69.25204
534.22         69.1612
534.66        69.16507
535.09        69.26457
535.53        69.44505
535.97        69.63818
536.41        69.75249
536.85        69.75983
537.28         69.6787
537.72        69.55263
538.16        69.44721
538.60        69.38277
539.04        69.34534
539.47        69.29338
539.91        69.22031
540.35        69.10709
540.79        68.98136
541.22        68.87257
541.66        68.83606
542.10        68.87661
542.54        68.97569
542.97         69.0968
543.41        69.20549
543.85        69.27729
544.29        69.33539
544.72        69.34732
545.16        69.30177
545.60        69.20018
546.04        69.01953
546.47        68.83472
546.91        68.87446
547.35        69.11295
547.79        69.28582
548.22        69.31447
548.66        69.44774
549.10        69.67674
549.53        69.64192
549.97        69.25965
550.41        69.83052
550.84        69.27579
551.28         69.1749
551.72        68.91296
552.15        69.09326
552.59        68.85912
553.03        68.91201
553.46        68.99356
553.90         69.0467
554.34        69.03575
554.77        69.18198
555.21        69.22462
555.65        69.15665
556.08        68.96565
556.52         68.9858
556.96        69.18774
557.39        69.35094
557.83        69.44211
558.27        69.46291
558.70        69.45018
559.14        69.45956
559.57        69.50491
560.01         69.6047
560.45        69.72449
560.88        69.43893
561.32        69.18043
561.75        69.15777
562.19        69.40856
562.63        69.24741
563.06        68.76176
563.50         68.7169
563.93         69.0421
564.37         69.1487
564.80        68.99199
565.24          68.931
565.68        68.97539
566.11        68.91883
566.55        68.99254
566.98        68.91499
567.42        68.86753
567.85        68.89732
568.29        68.98798
568.72        69.33003
569.16        69.99548
569.60        69.35247
570.03         69.4785
570.47        69.79246
570.90        69.72134
571.34        68.89425
571.77        69.50611
572.21        69.53664
572.64        69.62001
573.08        69.61969
573.51        69.61354
573.95        69.36105
574.38        69.78322
574.82        69.64368
