SpectraSmart Spectrum 2.9.0.0
--------- Device Information -----------
Spectrum Name :  反射率_0
Saving Time :  2024/04/30 00:37:09
Spectro-Module Model Name : SE2030-DUVN
Spectro-Module Serial Number : OS361AC55029948
Wavelength Start : 200
Wavelength End : 1025
Wavelength Unit : Wavelength(nm)
Spectrum Unit : Reflectance(%)
-----------Spectrum Setting ------------
Integration Time : 20ms
Average : 10
Boxcar : 0
Background removal :  enabled
linearity correction :  enabled
SC :  disabled
Intensity correction :  disabled
DWT denoise :  enabled
savitzky-golay :  disabled
FFT :  disabled
Running average :  disabled
Kalman :  disabled
High pass :  disabled
---------------BEGIN--------------------
Wavelength(nm)             Reflectance(%)
200.29               0
200.75        89.80729
201.21        79.85855
201.67        67.63466
202.13        56.14039
202.58        47.20984
203.04        39.43956
203.50        35.94188
203.96        43.33182
204.42        62.28965
204.88        89.76772
205.34        113.1727
205.80        115.1315
206.26        98.91788
206.72         76.6552
207.18        56.90452
207.64        44.10966
208.10        36.82528
208.55        31.95106
209.01        29.59543
209.47        31.32213
209.93        36.27308
210.39        43.30236
210.85        49.11123
211.31        50.92116
211.77        48.72655
212.23        42.07489
212.69        32.79057
213.14        30.76333
213.60        39.38206
214.06        52.50221
214.52        63.22756
214.98        67.59428
215.44        66.76521
215.90        62.67839
216.36        57.55981
216.81         55.5703
217.27        58.98482
217.73        67.65918
218.19        81.25792
218.65        93.50044
219.11         98.1711
219.57        96.23483
220.02        91.76562
220.48        88.81651
220.94        87.00822
221.40        84.95422
221.86        80.86899
222.32        73.13887
222.77        64.31574
223.23        58.06338
223.69         54.1216
224.15        51.09056
224.61        48.21338
225.06         45.1502
225.52        43.05445
225.98        44.11739
226.44        47.89572
226.90        52.38356
227.36        55.71474
227.81        56.76673
228.27        55.86322
228.73        53.37442
229.19        50.10571
229.65        48.00337
230.10        47.74258
230.56        48.61973
231.02        49.54306
231.48        49.52771
231.93        48.44723
232.39        46.67826
232.85        44.80416
233.31        43.96295
233.77        44.50006
234.22        46.22365
234.68        48.10958
235.14        48.34018
235.60        46.59404
236.05        43.59191
236.51        40.92322
236.97          40.637
237.43        43.30019
237.88        48.96735
238.34        56.90601
238.80        63.97013
239.26         67.3684
239.71        67.36857
240.17        65.33165
240.63        63.99953
241.08        64.43805
241.54        66.15916
242.00        69.84892
242.46         75.4492
242.91        81.48258
243.37        86.64444
243.83        90.46601
244.28        93.99393
244.74        97.92902
245.20        101.4793
245.66        104.8753
246.11         108.619
246.57        112.4142
247.03        117.4184
247.48        120.0071
247.94         113.296
248.40        100.5126
248.85        86.90635
249.31        78.27276
249.77         76.3007
250.22        80.40637
250.68        91.77913
251.14        109.3447
251.59        116.6863
252.05        104.8464
252.51         87.0635
252.96         74.9539
253.42        72.54807
253.88        76.93932
254.33        85.61757
254.79        94.66663
255.25         95.6778
255.70         88.5456
256.16        79.52343
256.62         72.3802
257.07        69.06501
257.53        69.11096
257.99        70.84801
258.44        72.52329
258.90        72.64566
259.35        70.81779
259.81        68.47241
260.27        66.39138
260.72        65.21528
261.18        64.95922
261.63         64.8853
262.09        64.56818
262.55        63.15619
263.00        60.73527
263.46        58.06236
263.91        55.49227
264.37        53.71448
264.83        52.63763
265.28        51.91479
265.74        51.49556
266.19        51.08384
266.65         50.6569
267.11        50.26432
267.56        49.76852
268.02        48.96578
268.47        47.80791
268.93        46.33352
269.38        44.78122
269.84        43.71013
270.30         43.2291
270.75         43.1736
271.21        43.18652
271.66        42.69347
272.12        41.59512
272.57         40.0578
273.03         38.4098
273.48        37.08941
273.94         36.2818
274.39        35.78271
274.85        35.45329
275.31        35.02073
275.76        34.39419
276.22         33.7007
276.67        32.97285
277.13        32.34401
277.58        31.79725
278.04        31.33418
278.49        30.86193
278.95         30.3553
279.40        29.77235
279.86        29.20759
280.31        28.69118
280.77        28.38184
281.22           28.25
281.68        28.26259
282.13        28.32345
282.59         28.3554
283.04        28.30747
283.50        28.20491
283.95        28.03153
284.41        27.78201
284.86        27.46259
285.32        27.12753
285.77        26.78536
286.22        26.52212
286.68        26.36749
287.13        26.26461
287.59        26.24785
288.04        26.30381
288.50        26.42949
288.95        26.58749
289.41        26.72369
289.86        26.71611
290.32        26.58252
290.77        26.37002
291.22        26.17375
291.68        26.13635
292.13        26.29848
292.59        26.65673
293.04         27.2175
293.50        28.01864
293.95        29.04888
294.40        30.30642
294.86        31.70406
295.31        33.11166
295.77        34.48322
296.22        35.82679
296.68        37.20802
297.13        38.71349
297.58        40.36386
298.04        42.08813
298.49        43.82021
298.95        45.47241
299.40        47.01624
299.85        48.49923
300.31        49.96617
300.76        51.40563
301.21        52.87223
301.67        54.39407
302.12        55.98581
302.58        57.81512
303.03        59.85634
303.48        61.99293
303.94        64.15677
304.39        66.55536
304.84        68.55202
305.30        70.65044
305.75        72.62723
306.20        74.49577
306.66        76.26846
307.11        77.88358
307.57        79.41862
308.02        80.87206
308.47        82.29926
308.93        83.70611
309.38        85.05991
309.83         86.3827
310.29        87.67375
310.74        88.92171
311.19        90.07048
311.65        91.01742
312.10        91.74474
312.55        92.31067
313.00        92.88268
313.46        93.72728
313.91        94.86646
314.36        96.20486
314.82        97.54604
315.27        98.60049
315.72         99.2584
316.18         99.6148
316.63        99.74047
317.08        99.76658
317.53        99.78239
317.99        99.79889
318.44        99.86488
318.89        100.0727
319.35        100.4382
319.80        100.9365
320.25        101.5771
320.70         102.359
321.16        103.2129
321.61        104.1605
322.06        104.9897
322.51        105.3839
322.97        105.2829
323.42        104.7931
323.87        104.1894
324.32        103.9406
324.78        104.1498
325.23        104.7607
325.68        105.5422
326.13        106.0879
326.59        106.2548
327.04        106.2001
327.49        106.0968
327.94        106.2764
328.39        106.8133
328.85        107.5343
329.30        108.3187
329.75        108.7651
330.20        108.7687
330.66         108.459
331.11        108.0529
331.56        107.8149
332.01         107.866
332.46        108.1441
332.92        108.5869
333.37        109.2401
333.82        110.0112
334.27        110.8908
334.72        111.8141
335.17        112.6677
335.63         113.375
336.08        114.0056
336.53        114.4779
336.98        114.7481
337.43        114.8358
337.88        114.7593
338.34        114.6938
338.79        114.9409
339.24        115.5531
339.69        116.4733
340.14        117.4661
340.59        118.1141
341.05        118.3276
341.50        118.2455
341.95         118.097
342.40        118.2738
342.85        118.8568
343.30        119.6664
343.75        120.5604
344.20        121.3123
344.66        121.8552
345.11         122.311
345.56        122.5847
346.01        122.5125
346.46        122.1361
346.91        121.4972
347.36        121.0198
347.81        121.3582
348.26        122.5788
348.72        124.4506
349.17        126.3981
349.62         127.361
350.07        127.0836
350.52        125.9368
350.97        124.4936
351.42        123.6315
351.87        123.6015
352.32        124.1273
352.77         124.995
353.22        125.8644
353.67        126.5569
354.13        127.1409
354.58        127.5432
355.03        127.6245
355.48        127.3554
355.93         126.743
356.38        125.8452
356.83        124.7864
357.28        123.6466
357.73        122.4524
358.18        121.3061
358.63        120.3412
359.08         119.588
359.53        119.0249
359.98        118.5653
360.43        118.0539
360.88        117.4408
361.33        116.7575
361.78        116.0356
362.23        115.3329
362.68        114.6685
363.13         114.021
363.58        113.3781
364.03        112.7267
364.48        112.0631
364.93        111.3926
365.38         110.742
365.83        110.1525
366.28        109.6301
366.73        109.1602
367.18        108.6865
367.63        108.1196
368.08        107.4345
368.53        106.6494
368.98        105.8329
369.43        105.0946
369.88        104.4763
370.33         103.977
370.78        103.5139
371.23        102.9533
371.68        102.2648
372.13        101.4595
372.58        100.7011
373.03        100.2515
373.48        100.1277
373.93        100.2296
374.38        100.2453
374.83        99.67604
375.28        98.45926
375.72        96.78761
376.17        95.10832
376.62        93.89869
377.07        93.26819
377.52        93.04559
377.97        93.07096
378.42        93.08334
378.87        92.96991
379.32        92.80304
379.77        92.55934
380.22        92.19455
380.67        91.70823
381.11          91.089
381.56        90.39959
382.01        89.78936
382.46        89.31188
382.91        88.94917
383.36         88.6479
383.81         88.3087
384.26        87.90224
384.71        87.45737
385.15        87.00065
385.60        86.63084
386.05        86.34184
386.50        86.10622
386.95         85.8695
387.40        85.55808
387.85        85.16931
388.29        84.68492
388.74         84.2735
389.19        83.94434
389.64        83.69475
390.09        83.48136
390.54         83.2739
390.98        83.01543
391.43        82.73624
391.88        82.44672
392.33        82.11015
392.78        81.74786
393.23        81.38273
393.67        80.84363
394.12        80.25896
394.57        80.34733
395.02         79.9468
395.47        79.94623
395.91        79.95692
396.36        79.88681
396.81        79.72023
397.26        79.50959
397.71         79.2573
398.15        78.90659
398.60        78.56228
399.05        78.16865
399.50        77.79838
399.95        77.68125
400.39        77.53132
400.84        77.78838
401.29        78.16155
401.74        78.13847
402.18        77.64258
402.63        76.86956
403.08        76.12462
403.53        75.79227
403.97        75.94178
404.42        76.43296
404.87        76.97916
405.32        77.12296
405.76        76.76324
406.21        76.10247
406.66        75.33408
407.11        74.85342
407.55        74.79845
408.00        74.75394
408.45         74.7312
408.90        75.40874
409.34        76.41486
409.79        76.22328
410.24        75.10637
410.68        74.78696
411.13        75.36497
411.58        75.87715
412.03        76.13558
412.47        76.27437
412.92        76.20237
413.37         75.9324
413.81        75.54099
414.26        75.22026
414.71        74.98607
415.15        74.81873
415.60        74.69746
416.05        74.63051
416.49        74.62103
416.94        74.68253
417.39        74.76799
417.83        74.77164
418.28        74.68319
418.73        74.52806
419.17        74.39406
419.62        74.43894
420.07        74.66378
420.51        74.98875
420.96        75.33172
421.41        75.44753
421.85        75.26305
422.30        75.14129
422.74        75.04697
423.19        74.55882
423.64        73.90703
424.08        74.18752
424.53        75.22192
424.98        75.70244
425.42        75.47288
425.87        75.38593
426.31        75.52133
426.76          75.047
427.21        74.47581
427.65        74.64469
428.10        75.38223
428.54         75.2831
428.99        74.52982
429.44        73.99974
429.88        73.84585
430.33        74.38593
430.77        75.37747
431.22        75.11784
431.66        75.77336
432.11        75.39081
432.56        74.85538
433.00        74.76659
433.45        75.25657
433.89        75.58099
434.34        75.73228
434.78        76.55098
435.23        75.43203
435.67        74.69256
436.12        73.94826
436.57        74.18912
437.01        75.22549
437.46        75.73608
437.90        75.64433
438.35        75.83229
438.79        76.28394
439.24        76.42455
439.68        76.29321
440.13        76.29933
440.57        76.48954
441.02        76.62837
441.46        76.66647
441.91        76.93562
442.35        77.20285
442.80        77.01143
443.24         76.5423
443.69        76.28269
444.13        76.30898
444.58        76.25307
445.02        76.08299
445.47        76.10461
445.91        76.28042
446.36        76.35942
446.80        76.28267
447.24        76.46943
447.69        76.33262
448.13        76.34754
448.58        76.36382
449.02        76.36457
449.47        76.38211
449.91         76.4481
450.36        76.57924
450.80        76.72996
451.25        76.88466
451.69        76.97797
452.13        77.00816
452.58        77.03668
453.02        77.04594
453.47        77.00658
453.91        76.90179
454.36        76.85739
454.80        76.62817
455.24        76.74218
455.69        77.31362
456.13        77.48695
456.58        77.32729
457.02         76.9316
457.46        76.48546
457.91        76.41685
458.35         76.6383
458.79        76.64789
459.24        76.47816
459.68        76.48277
460.13        76.64839
460.57        76.55928
461.01        76.78874
461.46        76.26726
461.90        75.99517
462.34         76.3185
462.79        76.92992
463.23        76.71641
463.68        75.72346
464.12        75.24672
464.56        75.34403
465.01        75.34536
465.45        75.19242
465.89        75.19701
466.34         75.3408
466.78        75.69624
467.22        75.88982
467.67          75.897
468.11        75.68519
468.55        75.25792
468.99        74.77367
469.44        74.43053
469.88        74.28978
470.32        74.31022
470.77        74.41048
471.21        74.47884
471.65        74.46261
472.10        74.41444
472.54        74.36067
472.98        74.37758
473.42        74.46569
473.87        74.61022
474.31         74.7349
474.75        74.68951
475.20        74.49129
475.64        74.40131
476.08        74.46517
476.52        74.24203
476.97        73.67236
477.41        73.97336
477.85         73.6465
478.29         73.0799
478.74        74.39652
479.18        74.20135
479.62        73.45434
480.06        73.23708
480.50        73.62517
480.95        73.59366
481.39        74.28817
481.83        73.57428
482.27        74.50056
482.72        74.38203
483.16        74.16785
483.60        74.09943
484.04        74.19357
484.48        74.41499
484.93        74.65739
485.37        74.28501
485.81        73.24471
486.25        73.33681
486.69        74.17933
487.14        73.66897
487.58        73.36116
488.02        73.13937
488.46        73.74007
488.90        74.04673
489.34        73.48689
489.79         74.3036
490.23        73.38068
490.67        73.30123
491.11        73.22057
491.55        73.12379
491.99        73.01935
492.43        73.00805
492.88        73.10625
493.32        73.28991
493.76        73.52468
494.20        73.72475
494.64        73.83508
495.08        74.01517
495.52        74.23398
495.96        73.96342
496.41        73.29498
496.85        73.61166
497.29        73.80171
497.73        73.51681
498.17        73.39702
498.61         73.0015
499.05        72.75957
499.49        72.87901
499.93        73.23766
500.37        73.27377
500.82        73.03107
501.26        72.66396
501.70        73.04338
502.14        73.08089
502.58        73.03484
503.02        73.08176
503.46        73.22949
503.90        73.41047
504.34        73.56679
504.78        73.62574
505.22        73.55307
505.66        73.40819
506.10        73.25459
506.54        73.12199
506.98        73.01955
507.42        73.37684
507.86        73.02113
508.30        73.44162
508.74        72.96317
509.18         72.7401
509.62        72.48129
510.06        72.40777
510.50        72.55499
510.94        72.86163
511.38        73.21722
511.82        73.40254
512.26        73.36138
512.70        73.15865
513.14        72.89279
513.58        72.71452
514.02        72.66929
514.46         72.7141
514.90        72.79527
515.34        72.82977
515.78        72.79257
516.22        72.71091
516.66         72.6328
517.10        72.62608
517.54        72.70086
517.98         72.8302
518.42        72.94514
518.86        72.93969
519.30        72.79729
519.74        72.55979
520.18        72.31627
520.62        72.19978
521.06        72.24642
521.50        72.42414
521.93        72.66676
522.37        72.83924
522.81        72.90893
523.25        72.89819
523.69        72.87107
524.13        72.92969
524.57        73.08778
525.01         73.3047
525.45        73.48383
525.89        73.47384
526.32        73.24182
526.76        72.87473
527.20        72.48764
527.64        72.25878
528.08        72.23072
528.52        72.34515
528.96        72.52874
529.40        72.66364
529.83        72.70242
530.27        72.68747
530.71         72.6292
531.15        72.55054
531.59        72.46552
532.03        72.36534
532.46        72.25177
532.90          72.163
533.34        72.10181
533.78           72.07
534.22        72.06823
534.66        72.09186
535.09        72.12821
535.53          72.188
535.97        72.24909
536.41        72.29332
536.85        72.31198
537.28        72.30159
537.72        72.26608
538.16        72.20892
538.60        72.13591
539.04        72.04852
539.47        71.92825
539.91        71.85311
540.35         71.8215
540.79        71.74902
541.22        71.61066
541.66        71.84309
542.10        71.69952
542.54        71.77974
542.97        71.85536
543.41        71.95461
543.85        72.05791
544.29        72.17452
544.72         72.2707
545.16        72.31558
545.60        72.30289
546.04        72.21663
546.47        72.10146
546.91        72.14516
547.35        72.31591
547.79        72.34798
548.22        72.23142
548.66        72.33692
549.10        72.67712
549.53        72.84774
549.97        72.66607
550.41        73.36911
550.84        72.74539
551.28        72.41861
551.72        71.86681
552.15        72.06359
552.59        72.04819
553.03        72.13482
553.46        72.09354
553.90        71.89211
554.34         72.2283
554.77        72.35508
555.21        72.44871
555.65        72.37123
556.08        72.18524
556.52        72.19231
556.96        72.35614
557.39        72.48289
557.83        72.54307
558.27        72.49111
558.70        72.40216
559.14        72.50821
559.57        72.75911
560.01        72.98322
560.45        73.09535
560.88        72.88372
561.32          72.742
561.75        72.45028
562.19        72.20533
562.63        72.05222
563.06        72.01218
563.50        72.11524
563.93        72.27531
564.37        72.39429
564.80        72.41785
565.24        72.40997
565.68        72.36932
566.11        72.31792
566.55        72.29265
566.98        72.20387
567.42        72.14825
567.85        72.18097
568.29        72.32554
568.72        72.41282
569.16        73.29272
569.60        72.65517
570.03        72.91442
570.47        73.13551
570.90        73.18302
571.34        72.48116
571.77        73.05584
572.21        73.17965
572.64        73.37635
573.08        73.23692
573.51        72.73158
573.95        72.67111
574.38        73.43967
574.82        73.01476
