SpectraSmart Spectrum 2.9.0.0
--------- Device Information -----------
Spectrum Name :  反射率_0
Saving Time :  2024/04/30 00:10:43
Spectro-Module Model Name : SE2030-DUVN
Spectro-Module Serial Number : OS361AC55029948
Wavelength Start : 200
Wavelength End : 1025
Wavelength Unit : Wavelength(nm)
Spectrum Unit : Reflectance(%)
-----------Spectrum Setting ------------
Integration Time : 20ms
Average : 10
Boxcar : 0
Background removal :  enabled
linearity correction :  enabled
SC :  disabled
Intensity correction :  disabled
DWT denoise :  enabled
savitzky-golay :  disabled
FFT :  disabled
Running average :  disabled
Kalman :  disabled
High pass :  disabled
---------------BEGIN--------------------
Wavelength(nm)             Reflectance(%)
200.29               0
200.75        119.2554
201.21        100.7798
201.67         81.6134
202.13        67.44541
202.58        61.22963
203.04        61.67704
203.50        68.73509
203.96        81.28246
204.42        96.63782
204.88        113.3471
205.34        124.3533
205.80        121.2522
206.26        107.6419
206.72        90.89947
207.18        76.20296
207.64        65.92202
208.10        58.87837
208.55        53.06624
209.01        49.09127
209.47        49.56381
209.93        54.11113
210.39        61.04625
210.85        66.75135
211.31        68.17825
211.77        65.07055
212.23        56.75693
212.69        44.82875
213.14        39.79012
213.60        46.36644
214.06        58.85266
214.52        69.36333
214.98        72.75626
215.44        70.11691
215.90        63.63756
216.36        56.44521
216.81        54.58212
217.27        61.20877
217.73        76.29948
218.19        98.72913
218.65        117.0253
219.11        121.2794
219.57        114.5185
220.02        104.4802
220.48        97.40819
220.94        92.59725
221.40        87.91325
221.86        81.57974
222.32        73.04392
222.77        65.20406
223.23         60.7126
223.69        58.90594
224.15        58.57762
224.61        59.08912
225.06        60.26602
225.52         61.9369
225.98        63.15854
226.44        63.48021
226.90        63.19464
227.36        62.57335
227.81        61.78413
228.27        60.88231
228.73        59.62416
229.19        58.32763
229.65         57.7468
230.10         58.0118
230.56        58.95748
231.02        59.74574
231.48        59.63028
231.93        58.56765
232.39        56.82581
232.85        55.14175
233.31        54.97196
233.77        56.71264
234.22         60.1477
234.68        63.87275
235.14        65.33302
235.60        63.94281
236.05        60.51963
236.51        57.18196
236.97        56.75364
237.43        60.01687
237.88        67.06709
238.34        76.66068
238.80        84.18191
239.26        86.07646
239.71        83.11177
240.17        78.03532
240.63        75.25227
241.08        76.29781
241.54        80.94283
242.00        90.13061
242.46         100.835
242.91        107.3664
243.37        108.0867
243.83        106.0608
244.28         106.563
244.74         110.842
245.20         117.071
245.66        124.7517
246.11        132.4411
246.57        138.3651
247.03        144.6213
247.48        147.0257
247.94          137.79
248.40        121.5905
248.85        104.7753
249.31        94.27089
249.77        92.25043
250.22        98.01302
250.68        112.8041
251.14        136.2832
251.59        149.2281
252.05        138.6966
252.51         119.829
252.96        105.6569
253.42        100.9962
253.88        102.8819
254.33        108.5072
254.79        115.6608
255.25        118.8738
255.70        116.8621
256.16        113.4939
256.62        110.5378
257.07        108.9157
257.53        108.9174
257.99        109.4439
258.44        109.4556
258.90        108.6555
259.35        106.6234
259.81        104.5807
260.27        102.7341
260.72        101.2347
261.18        100.3563
261.63        99.42619
262.09        98.44398
262.55        96.86049
263.00        94.65083
263.46        92.44477
263.91        90.21455
264.37        88.46581
264.83        87.03328
265.28        85.68593
265.74        84.53399
266.19        83.40987
266.65        82.40214
267.11        81.48373
267.56        80.51571
268.02        79.34373
268.47        77.87617
268.93        76.16611
269.38         74.3639
269.84        72.87778
270.30        71.80962
270.75        71.03623
271.21        70.35901
271.66        69.37395
272.12        68.01788
272.57        66.36998
273.03        64.63589
273.48        63.03101
273.94          61.735
274.39        60.61246
274.85        59.67373
275.31        58.78117
275.76        57.85315
276.22        56.97532
276.67        56.10426
277.13        55.34695
277.58         54.6218
278.04        53.96832
278.49         53.2293
278.95        52.35293
279.40        51.27719
279.86        50.15144
280.31        49.03799
280.77        48.20635
281.22        47.63244
281.68        47.27993
282.13        47.02602
282.59        46.80337
283.04        46.52429
283.50        46.24256
283.95         45.8772
284.41        45.35992
284.86        44.69063
285.32         43.9782
285.77        43.30666
286.22        42.90733
286.68        42.82613
287.13        42.93185
287.59        43.18469
288.04         43.4315
288.50        43.63734
288.95        43.78505
289.41        43.85733
289.86        43.75457
290.32        43.52737
290.77        43.21469
291.22        42.92745
291.68        42.83567
292.13        42.98223
292.59        43.36798
293.04        44.00092
293.50        44.94431
293.95        46.16452
294.40        47.64793
294.86        49.24323
295.31        50.72104
295.77        52.01346
296.22        53.14584
296.68        54.24794
297.13        55.50801
297.58        56.97463
298.04        58.55265
298.49           60.12
298.95        61.51252
299.40        62.68195
299.85        63.71556
300.31         64.7159
300.76        65.73867
301.21        66.85763
301.67        68.07657
302.12        69.36271
302.58        70.82198
303.03        72.40041
303.48        74.03201
303.94        75.67255
304.39        77.43525
304.84        78.88898
305.30        80.37269
305.75        81.71307
306.20        82.92552
306.66        84.03864
307.11        85.00478
307.57        85.90095
308.02         86.6991
308.47        87.45841
308.93        88.19291
309.38        88.91143
309.83        89.71008
310.29        90.59775
310.74        91.53016
311.19        92.39215
311.65        92.98885
312.10        93.27751
312.55        93.34956
313.00        93.41083
313.46        93.77068
313.91        94.45499
314.36        95.44112
314.82        96.55767
315.27        97.30463
315.72        97.51659
316.18        98.29494
316.63        97.96756
317.08        98.08585
317.53        98.19966
317.99        98.34267
318.44        98.46905
318.89        98.56306
319.35        98.64003
319.80        98.69715
320.25        98.85468
320.70        99.29018
321.16        99.98746
321.61        100.9279
322.06        101.8295
322.51        102.2478
322.97        102.0812
323.42        101.4729
323.87        100.7452
324.32        100.4369
324.78        100.6679
325.23        101.3506
325.68         102.205
326.13        102.7505
326.59         102.825
327.04        102.6072
327.49        102.3294
327.94        102.4161
328.39        102.9647
328.85        103.7802
329.30        104.6777
329.75        105.1472
330.20        105.0593
330.66        104.5876
331.11        104.0126
331.56        103.7018
332.01        103.8011
332.46        104.2023
332.92        104.8174
333.37         105.642
333.82        106.5518
334.27        107.5487
334.72        108.5115
335.17        109.2367
335.63         109.639
336.08        109.8065
336.53        109.7772
336.98        109.7117
337.43        109.6899
337.88        109.6923
338.34        109.7734
338.79         110.029
339.24        110.4603
339.69        111.0652
340.14        111.7262
340.59        112.2241
341.05        112.5116
341.50        112.6523
341.95        112.7458
342.40        112.9837
342.85        113.4064
343.30        113.9151
343.75        114.4679
344.20         115.001
344.66        115.4891
345.11         115.976
345.56        116.3428
346.01        116.3895
346.46        116.1234
346.91        115.6102
347.36        115.1716
347.81        115.2986
348.26        116.0537
348.72        117.2576
349.17        118.5424
349.62        119.2097
350.07        119.0851
350.52        118.4207
350.97        117.5547
351.42        117.0031
351.87        116.9212
352.32        117.1312
352.77        117.5569
353.22        118.0868
353.67        118.6126
354.13          119.13
354.58        119.4862
355.03        119.4206
355.48        118.8865
355.93        117.9665
356.38        116.7931
356.83        115.5864
357.28        114.4446
357.73        113.3398
358.18         112.341
358.63        111.5374
359.08        110.9272
359.53        110.4955
359.98        110.1052
360.43        109.5235
360.88        108.7001
361.33        107.6981
361.78        106.6412
362.23        105.7364
362.68         105.039
363.13        104.4851
363.58        103.9991
364.03        103.4606
364.48        102.8298
364.93        102.1451
365.38         101.443
365.83        100.7826
366.28        100.1808
366.73        99.60922
367.18        99.03647
367.63        98.41801
368.08        97.73724
368.53        97.00951
368.98        96.26041
369.43        95.52512
369.88        94.82924
370.33        94.18774
370.78        93.58308
371.23        92.98711
371.68        92.39547
372.13        91.79733
372.58         91.2674
373.03        90.92416
373.48        90.75655
373.93        90.70446
374.38        90.57858
374.83        90.07962
375.28        89.17725
375.72        87.98658
376.17        86.79351
376.62        85.86216
377.07        85.25891
377.52        84.87862
377.97        84.67855
378.42        84.59097
378.87        84.55553
379.32        84.58195
379.77        84.54856
380.22         84.2686
380.67        83.71122
381.11         82.9152
381.56        82.02899
382.01        81.33369
382.46        80.91806
382.91        80.72366
383.36        80.61374
383.81        80.36456
384.26        79.92458
384.71        79.36546
385.15        78.79961
385.60        78.45612
386.05        78.34718
386.50        78.38107
386.95        78.41849
387.40        78.25411
387.85        77.85846
388.29        77.28452
388.74        76.72843
389.19        76.24996
389.64        75.87459
390.09         75.5406
390.54         75.2808
390.98         75.1528
391.43        75.17256
391.88         75.2715
392.33        75.29788
392.78        75.10596
393.23        74.65733
393.67         73.8548
394.12        72.97803
394.57        72.49275
395.02        72.24604
395.47        72.25028
395.91        72.35233
396.36        72.39001
396.81        72.31153
397.26        72.16501
397.71        71.96727
398.15        71.67583
398.60        71.38057
399.05        71.10958
399.50        70.86559
399.95        70.57423
400.39        70.06626
400.84        70.22036
401.29        70.77849
401.74        70.85826
402.18        70.37022
402.63        69.74641
403.08        69.24481
403.53        69.07082
403.97        69.26553
404.42        69.71886
404.87        70.21634
405.32        70.36864
405.76        70.07683
406.21        69.67006
406.66        69.21868
407.11        68.51447
407.55        67.84273
408.00        67.82076
408.45        68.38283
408.90        69.05521
409.34        69.49199
409.79        69.12538
410.24         68.2253
410.68         67.9197
411.13        68.29823
411.58        68.68232
412.03        68.90027
412.47        69.00211
412.92        68.90205
413.37        68.61929
413.81        68.23811
414.26        67.96198
414.71        67.80473
415.15        67.73492
415.60        67.69492
416.05        67.63326
416.49         67.5402
416.94        67.44606
417.39        67.36378
417.83        67.28483
418.28        67.22386
418.73        67.18478
419.17         67.1899
419.62        67.28928
420.07        67.45544
420.51        67.64151
420.96        67.84173
421.41        67.90445
421.85        67.77936
422.30        67.88435
422.74        67.99096
423.19        67.51801
423.64        66.68434
424.08        66.78709
424.53        67.73904
424.98        68.25464
425.42        68.17778
425.87        68.35751
426.31         68.7208
426.76        68.29929
427.21        67.19279
427.65        67.19839
428.10        68.05492
428.54        67.86623
428.99        66.81605
429.44        66.45308
429.88        66.82522
430.33        67.15166
430.77         67.2951
431.22        67.74386
431.66        68.37312
432.11        68.27308
432.56        67.52431
433.00        67.49287
433.45        68.48286
433.89        68.10192
434.34        68.70074
434.78        70.19003
435.23        67.53347
435.67        66.97558
436.12        67.06333
436.57        67.33955
437.01        67.53513
437.46        68.54552
437.90        68.23877
438.35        68.58747
438.79        69.01379
439.24        69.15464
439.68        69.06372
440.13        69.11516
440.57        69.32415
441.02         69.4326
441.46        69.40923
441.91         69.4168
442.35        69.36343
442.80        69.50088
443.24        69.74587
443.69        69.67377
444.13        69.31033
444.58        69.09281
445.02        68.99442
445.47         68.8263
445.91        68.64157
446.36        68.58675
446.80        68.64291
447.24        69.00034
447.69        69.28158
448.13        69.34413
448.58        69.16834
449.02        69.16079
449.47        69.35699
449.91        69.46545
450.36        69.50542
450.80        69.63628
451.25        69.83566
451.69        69.94379
452.13        69.94971
452.58        69.92512
453.02        69.88665
453.47        69.86585
453.91        69.85953
454.36        69.96728
454.80        69.85662
455.24        69.99268
455.69        70.19453
456.13        70.05479
456.58        69.65751
457.02        69.40025
457.46        69.33031
457.91        69.25166
458.35        69.12357
458.79        69.02202
459.24        68.97356
459.68        68.98075
460.13         69.0464
460.57        68.92025
461.01        69.09527
461.46        68.80426
461.90        68.56216
462.34        68.80147
462.79        69.17721
463.23        68.97454
463.68        68.19933
464.12        67.77553
464.56        67.76103
465.01        67.62708
465.45        67.39112
465.89         67.5133
466.34        67.90788
466.78        68.33321
467.22        68.37403
467.67        68.36369
468.11        68.20448
468.55        67.77158
468.99        67.20993
469.44        66.81271
469.88        66.65266
470.32        66.67677
470.77        66.78946
471.21        66.84764
471.65        66.78534
472.10        66.65896
472.54        66.54451
472.98        66.53356
473.42        66.62347
473.87        66.94627
474.31        67.31661
474.75        67.04385
475.20        66.28409
475.64        66.17737
476.08        66.70729
476.52          66.564
476.97        65.67467
477.41        66.14755
477.85        65.82037
478.29        65.48724
478.74        65.99817
479.18        65.97497
479.62          65.844
480.06        65.82656
480.50        65.98401
480.95        65.64645
481.39        65.89171
481.83        65.65432
482.27        66.31185
482.72        66.16816
483.16        66.16766
483.60        66.17869
484.04        66.43153
484.48        66.65529
484.93        66.56966
485.37        66.50468
485.81        65.61754
486.25        64.33945
486.69        66.05592
487.14        66.12524
487.58        65.14447
488.02        65.15974
488.46        65.90992
488.90        65.76414
489.34        65.64262
489.79        65.71404
490.23        65.27988
490.67        65.21146
491.11        65.18766
491.55        64.98382
491.99        64.66094
492.43        64.58084
492.88        64.76617
493.32        65.06474
493.76        65.36172
494.20        65.55673
494.64        65.59889
495.08        65.51665
495.52        65.37228
495.96        65.24142
496.41        65.16528
496.85         65.3314
497.29        65.21275
497.73        65.35858
498.17        64.90343
498.61         64.6405
499.05        64.45607
499.49        64.46227
499.93        64.57389
500.37        64.60508
500.82        64.57404
501.26        64.20049
501.70        64.30304
502.14        64.35399
502.58        64.45573
503.02         64.5592
503.46        64.62434
503.90        64.75053
504.34        64.89568
504.78        64.93592
505.22        64.85131
505.66        64.72994
506.10        64.61697
506.54        64.50591
506.98         64.4044
507.42         64.6655
507.86         64.3426
508.30        64.67776
508.74         64.2228
509.18        63.98887
509.62        63.73373
510.06        63.67302
510.50        63.83818
510.94        64.17188
511.38        64.54312
511.82        64.70206
512.26        64.59163
512.70        64.29018
513.14        63.93505
513.58        63.73795
514.02        63.75515
514.46        63.92172
514.90         64.1484
515.34        64.29162
515.78        64.30543
516.22        64.23421
516.66        64.13689
517.10        64.10032
517.54        64.14514
517.98        64.23798
518.42         64.3222
518.86        64.31367
519.30        64.19831
519.74        64.01304
520.18        63.82711
520.62        63.74073
521.06        63.78056
521.50        63.92111
521.93        64.10976
522.37        64.23785
522.81        64.28175
523.25        64.26213
523.69         64.2315
524.13        64.27314
524.57        64.39981
525.01        64.57853
525.45        64.73846
525.89        64.76813
526.32         64.6384
526.76        64.41316
527.20        64.16765
527.64        64.02124
528.08        64.00216
528.52        64.06881
528.96        64.17493
529.40        64.24701
529.83        64.25397
530.27        64.22817
530.71        64.16932
531.15        64.08151
531.59        63.97543
532.03        63.85175
532.46        63.72687
532.90        63.65564
533.34         63.6417
533.78        63.67397
534.22        63.73413
534.66        63.79125
535.09         63.8264
535.53        63.85735
535.97         63.8718
536.41        63.86606
536.85        63.84016
537.28         63.7908
537.72        63.72681
538.16        63.65951
538.60        63.59376
539.04        63.53204
539.47        63.46351
539.91        63.42117
540.35        63.39313
540.79        63.38961
541.22        63.39889
541.66        63.41302
542.10        63.42529
542.54        63.43734
542.97        63.46339
543.41        63.54596
543.85        63.67624
544.29         63.8485
544.72        63.98509
545.16         64.0022
545.60        63.88467
546.04        63.63658
546.47        63.36152
546.91        63.33491
547.35        63.55312
547.79        63.72486
548.22        63.76437
548.66        63.95166
549.10        64.23775
549.53        64.14045
549.97        63.63325
550.41         64.1249
550.84        63.70645
551.28         63.7576
551.72        63.68335
552.15          63.875
552.59        63.49622
553.03        63.87306
553.46        63.61369
553.90        63.65451
554.34        63.63914
554.77        63.63758
555.21        63.64547
555.65        63.58755
556.08        63.50318
556.52        63.53019
556.96        63.65146
557.39        63.80885
557.83        63.97079
558.27          64.018
558.70        63.99166
559.14        64.08232
559.57        64.23956
560.01        64.36214
560.45         64.4046
560.88        64.11886
561.32         63.9167
561.75        63.82852
562.19        63.93789
562.63        63.93992
563.06        63.82274
563.50        63.76331
563.93         63.7508
564.37        63.81197
564.80        63.89068
565.24        63.85651
565.68        63.72917
566.11        63.71915
566.55        63.83461
566.98        63.86909
567.42        63.88704
567.85        63.91267
568.29        63.92724
568.72        64.14712
569.16        64.67844
569.60        64.13767
570.03        64.12269
570.47        64.68748
570.90        64.62704
571.34        63.87556
571.77        64.47707
572.21        64.42283
572.64        64.37721
573.08        64.38201
573.51        64.39749
573.95        63.97268
574.38        64.82935
574.82        64.37863
