SpectraSmart Spectrum 2.9.0.0
--------- Device Information -----------
Spectrum Name :  反射率_0
Saving Time :  2024/04/30 00:01:34
Spectro-Module Model Name : SE2030-DUVN
Spectro-Module Serial Number : OS361AC55029948
Wavelength Start : 200
Wavelength End : 1025
Wavelength Unit : Wavelength(nm)
Spectrum Unit : Reflectance(%)
-----------Spectrum Setting ------------
Integration Time : 20ms
Average : 10
Boxcar : 0
Background removal :  enabled
linearity correction :  enabled
SC :  disabled
Intensity correction :  disabled
DWT denoise :  enabled
savitzky-golay :  disabled
FFT :  disabled
Running average :  disabled
Kalman :  disabled
High pass :  disabled
---------------BEGIN--------------------
Wavelength(nm)             Reflectance(%)
200.29               0
200.75        70.29561
201.21        56.07176
201.67        39.38904
202.13        26.32316
202.58        19.80054
203.04        18.78971
203.50        23.04698
203.96        31.37697
204.42        42.00871
204.88        54.65704
205.34        65.24422
205.80        68.07935
206.26        64.19508
206.72        57.34432
207.18        50.57306
207.64        45.65635
208.10        42.15643
208.55        38.97062
209.01        36.41146
209.47        36.12138
209.93         38.0895
210.39        41.62208
210.85         44.3596
211.31        44.03619
211.77         40.3258
212.23        32.58686
212.69        22.51107
213.14        19.72614
213.60        27.83504
214.06        40.88963
214.52        51.75708
214.98        56.24587
215.44        55.48938
215.90        51.37558
216.36        46.25522
216.81        44.58673
217.27        48.73633
217.73        58.43028
218.19         72.8875
218.65        84.57595
219.11        86.99964
219.57        82.29101
220.02        75.25416
220.48        69.56473
220.94         64.4939
221.40        58.30341
221.86        49.93701
222.32        41.09653
222.77        35.29422
223.23        33.42962
223.69         33.3656
224.15          33.163
224.61        32.45335
225.06         31.2696
225.52        30.66436
225.98        32.17994
226.44        35.39064
226.90        38.93436
227.36        41.30452
227.81        41.55811
228.27        39.97441
228.73        36.84174
229.19          33.444
229.65        32.53154
230.10        34.45166
230.56        37.67592
231.02        40.37752
231.48         40.9646
231.93        39.47561
232.39        36.65162
232.85        33.37057
233.31         31.3464
233.77        31.19407
234.22        32.46117
234.68        34.44821
235.14        35.81582
235.60        36.12315
236.05        35.86982
236.51        35.56392
236.97        35.83523
237.43        36.90556
237.88          38.641
238.34        41.01026
238.80        44.04547
239.26        47.12378
239.71        50.08681
240.17        51.92989
240.63        51.84357
241.08        49.68012
241.54        44.57667
242.00        36.80964
242.46        32.44097
242.91        38.72779
243.37        54.34844
243.83        71.98985
244.28        85.54086
244.74        95.09768
245.20        101.7535
245.66        105.4741
246.11        106.2377
246.57        103.7098
247.03        98.02372
247.48        88.65383
247.94        76.83441
248.40        67.02732
248.85        60.97591
249.31           58.37
249.77        57.25853
250.22        56.96097
250.68        57.43296
251.14        59.81256
251.59         65.3745
252.05        71.13853
252.51         74.4877
252.96        75.10343
253.42        74.26211
253.88         72.1506
254.33        68.65288
254.79        64.76363
255.25        62.35683
255.70        61.75404
256.16        62.25117
256.62        62.80792
257.07        62.62386
257.53        62.07127
257.99        61.32033
258.44        60.12623
258.90        58.91385
259.35        57.55207
259.81        56.36921
260.27        55.50103
260.72        55.12074
261.18         55.2228
261.63        55.37354
262.09        55.30973
262.55        54.38761
263.00          52.662
263.46        50.70435
263.91        48.74679
264.37        47.30904
264.83        46.32979
265.28        45.56198
265.74        45.03873
266.19        44.60499
266.65        44.26149
267.11        44.00418
267.56        43.68692
268.02        43.08585
268.47        42.14622
268.93        40.92814
269.38        39.59779
269.84        38.58494
270.30        37.98183
270.75        37.66262
271.21        37.41833
271.66        36.90143
272.12        36.03769
272.57        34.92894
273.03        33.73388
273.48        32.62154
273.94        31.73113
274.39        30.98121
274.85        30.39215
275.31        29.92319
275.76        29.52311
276.22        29.20821
276.67        28.92543
277.13        28.67922
277.58        28.40856
278.04        28.14251
278.49        27.78853
278.95        27.30841
279.40        26.67807
279.86        26.00072
280.31        25.34214
280.77        24.91105
281.22        24.70322
281.68        24.67586
282.13        24.74247
282.59         24.8243
283.04        24.86337
283.50        24.87174
283.95        24.80989
284.41        24.62626
284.86        24.32433
285.32        23.97865
285.77        23.60912
286.22        23.31414
286.68        23.13314
287.13        23.00187
287.59        22.99365
288.04        23.15987
288.50        23.48969
288.95        23.91918
289.41        24.30237
289.86        24.38657
290.32        24.16983
290.77        23.74589
291.22        23.29722
291.68        23.11116
292.13        23.26388
292.59        23.69476
293.04        24.35069
293.50        25.17786
293.95        26.13411
294.40        27.24046
294.86        28.41439
295.31        29.53378
295.77        30.56301
296.22        31.51002
296.68        32.45651
297.13        33.51947
297.58        34.73468
298.04        36.03634
298.49        37.36579
298.95        38.63327
299.40        39.80902
299.85        40.93457
300.31          42.043
300.76        43.11342
301.21        44.18981
301.67        45.29291
302.12        46.42958
302.58        47.75619
303.03        49.25592
303.48        50.78878
303.94        52.29347
304.39        54.13468
304.84        55.46551
305.30        56.96015
305.75        58.33139
306.20         59.5878
306.66        60.74278
307.11        61.76627
307.57         62.7397
308.02         63.6809
308.47        64.63853
308.93        65.61324
309.38        66.57401
309.83        67.53555
310.29        68.48803
310.74        69.41404
311.19        70.26086
311.65        70.93548
312.10        71.42002
312.55         71.7636
313.00        72.08401
313.46        72.57033
313.91        73.24264
314.36        74.03722
314.82        74.84803
315.27        75.52608
315.72        76.00243
316.18        76.33577
316.63        76.52131
317.08        76.56572
317.53        76.51399
317.99        76.39641
318.44        76.31028
318.89        76.42255
319.35        76.76559
319.80        77.29007
320.25        77.93081
320.70        78.57399
321.16        79.13716
321.61        79.66486
322.06        80.07657
322.51        80.26887
322.97        80.23003
323.42        80.00223
323.87        79.69483
324.32        79.50652
324.78        79.48389
325.23        79.63725
325.68        79.90073
326.13        80.15172
326.59        80.33562
327.04        80.51553
327.49        80.72324
327.94        81.04993
328.39            81.5
328.85        81.98253
329.30        82.46598
329.75        82.75278
330.20        82.79942
330.66        82.66996
331.11        82.47311
331.56        82.32671
332.01        82.30049
332.46        82.36951
332.92        82.55682
333.37        83.00961
333.82         83.6889
334.27        84.56204
334.72        85.47496
335.17        86.16608
335.63        86.53979
336.08         86.6977
336.53        86.72255
336.98         86.8242
337.43        87.07687
337.88        87.41731
338.34        87.82095
338.79        88.27321
339.24        88.74801
339.69        89.27406
340.14        89.79061
340.59        90.17736
341.05          90.423
341.50        90.56657
341.95        90.69437
342.40        90.97093
342.85         91.4247
343.30        91.97091
343.75        92.56001
344.20         93.1094
344.66        93.59101
345.11        94.05134
345.56        94.38605
346.01        94.42253
346.46        94.17741
346.91        93.71239
347.36        93.33981
347.81        93.53676
348.26         94.3653
348.72        95.65733
349.17         97.0473
349.62        97.85147
350.07        97.89104
350.52        97.40049
350.97        96.70718
351.42        96.31599
351.87        96.38003
352.32        96.73379
352.77        97.28975
353.22        97.91353
353.67        98.50999
354.13        99.10034
354.58        99.58248
355.03        99.77692
355.48        99.64125
355.93        99.20439
356.38        98.56055
356.83        97.87563
357.28          97.219
357.73        96.58292
358.18        95.97047
358.63        95.37202
359.08        94.78989
359.53         94.2418
359.98        93.74976
360.43        93.33496
360.88        92.98902
361.33        92.69231
361.78        92.37996
362.23        91.95477
362.68        91.40173
363.13        90.75657
363.58        90.09097
364.03        89.52014
364.48        89.07568
364.93        88.72098
365.38        88.42267
365.83         88.1279
366.28        87.81194
366.73        87.48715
367.18        87.13857
367.63        86.74081
368.08         86.2866
368.53        85.77457
368.98        85.22979
369.43        84.69615
369.88         84.1991
370.33        83.75349
370.78        83.33962
371.23        82.92165
371.68        82.49344
372.13        82.04885
372.58         81.6612
373.03        81.44647
373.48        81.39918
373.93        81.46513
374.38        81.46569
374.83        81.11812
375.28         80.3875
375.72        79.37259
376.17        78.34918
376.62        77.58199
377.07        77.13702
377.52        76.92129
377.97        76.85176
378.42        76.79501
378.87        76.68581
379.32        76.54926
379.77        76.36681
380.22         76.1059
380.67        75.75603
381.11         75.3149
381.56        74.78827
382.01        74.21371
382.46        73.63807
382.91        73.09632
383.36        72.62269
383.81        72.25536
384.26        71.99267
384.71        71.79941
385.15        71.67226
385.60        71.65594
386.05         71.7037
386.50        71.79518
386.95        71.78809
387.40        71.47227
387.85        70.85223
388.29        69.99036
388.74        69.19011
389.19        68.68322
389.64        68.50809
390.09        68.55822
390.54        68.71886
390.98        68.78152
391.43        68.70768
391.88        68.55354
392.33        68.30219
392.78        67.99155
393.23        67.65969
393.67        67.15614
394.12        66.62419
394.57        66.71779
395.02        66.48676
395.47        66.66661
395.91        66.89253
396.36        67.00477
396.81        66.95166
397.26        66.78136
397.71        66.54974
398.15        66.24899
398.60        65.97312
399.05        65.79004
399.50        65.65807
399.95        65.34039
400.39        64.71947
400.84        64.85623
401.29        65.51929
401.74          65.684
402.18        65.25375
402.63        64.75915
403.08        64.41151
403.53        64.28069
403.97        64.40523
404.42        64.74116
404.87        65.09032
405.32        65.12894
405.76        64.79017
406.21        64.24708
406.66        63.65688
407.11        63.24529
407.55        63.14892
408.00        63.28764
408.45        63.59237
408.90        64.11348
409.34        64.60579
409.79        64.41497
410.24        63.74979
410.68        63.56166
411.13        63.92542
411.58        64.31393
412.03        64.58373
412.47        64.73237
412.92        64.68117
413.37        64.47537
413.81        64.17865
414.26         63.9542
414.71        63.81643
415.15        63.74374
415.60        63.71867
416.05        63.75411
416.49         63.8485
416.94        64.00524
417.39        64.17655
417.83        64.26318
418.28        64.25309
418.73        64.16811
419.17         64.0815
419.62        64.12854
420.07        64.31291
420.51        64.56618
420.96        64.83121
421.41        64.92458
421.85        64.79425
422.30        64.72841
422.74        64.67563
423.19        64.31331
423.64        63.79685
424.08        63.90354
424.53        64.57189
424.98         64.9889
425.42        65.06207
425.87        65.41548
426.31         65.9202
426.76        65.70417
427.21        64.82933
427.65        64.76047
428.10        65.33782
428.54        65.38126
428.99        64.91534
429.44        64.44915
429.88        64.19398
430.33        64.50769
430.77        65.17537
431.22        65.81549
431.66        66.27315
432.11        66.17178
432.56        65.67793
433.00        65.79169
433.45        66.59875
433.89        67.04185
434.34        66.71845
434.78              68
435.23        66.51539
435.67        66.19413
436.12        65.95615
436.57        65.98573
437.01        66.22977
437.46        66.56362
437.90        67.03471
438.35        67.16892
438.79        68.08943
439.24        68.39527
439.68        68.45412
440.13        68.60025
440.57        68.81319
441.02         68.8332
441.46        68.63887
441.91        68.39202
442.35         68.1339
442.80          68.216
443.24        68.54645
443.69         68.6938
444.13        68.59754
444.58        68.61301
445.02        68.69157
445.47        68.64135
445.91        68.51465
446.36        68.49993
446.80        68.59331
447.24          68.903
447.69        69.12453
448.13        69.20571
448.58        69.10683
449.02        69.01621
449.47        69.02713
449.91        69.11988
450.36         69.3277
450.80        69.66608
451.25         70.0546
451.69        70.29505
452.13        70.35516
452.58        70.32446
453.02        70.25555
453.47        70.22241
453.91        70.22963
454.36        70.40687
454.80        70.42613
455.24        70.57448
455.69        70.69597
456.13        70.82069
456.58         70.9469
457.02        70.42323
457.46        70.17205
457.91        70.03273
458.35        70.16311
458.79        70.11469
459.24        69.93276
459.68        69.86076
460.13        69.90817
460.57         69.8521
461.01        70.23668
461.46        69.76765
461.90        69.82066
462.34         70.1761
462.79        70.74237
463.23        70.50549
463.68        69.56078
464.12        69.11238
464.56        69.21931
465.01         69.2667
465.45        69.18666
465.89        69.19241
466.34         69.2242
466.78        69.45278
467.22        69.65351
467.67        69.14992
468.11        69.30544
468.55        69.15633
468.99        69.11865
469.44        69.00317
469.88        68.82768
470.32        68.70331
470.77        68.62366
471.21        68.58369
471.65        68.56514
472.10        68.57987
472.54        68.62619
472.98        68.70199
473.42         68.7832
473.87        68.98111
474.31        69.19076
474.75        68.97232
475.20        68.42216
475.64        68.37764
476.08        68.85602
476.52        68.66468
476.97        67.75096
477.41        68.59118
477.85         67.9445
478.29        67.45827
478.74        68.48685
479.18        68.40079
479.62        67.97736
480.06        67.88132
480.50        68.18315
480.95        68.07477
481.39        68.66712
481.83        68.09956
482.27        69.03359
482.72        69.03818
483.16        68.68533
483.60        68.63483
484.04        68.87064
484.48        69.07623
484.93        69.00492
485.37        69.00211
485.81        68.07738
486.25        67.42559
486.69        68.44286
487.14        68.65134
487.58        67.95412
488.02        68.06847
488.46        68.55958
488.90        68.57771
489.34        68.61414
489.79        69.57831
490.23        68.35706
490.67        68.16563
491.11        68.07786
491.55        67.90689
491.99        67.67314
492.43        67.59428
492.88         67.7066
493.32        67.97557
493.76        68.31505
494.20        68.58176
494.64        68.73232
495.08        68.79272
495.52        68.77171
495.96        68.73891
496.41        68.71837
496.85        68.61757
497.29        68.41752
497.73        68.53441
498.17        68.16451
498.61        68.22449
499.05        68.03533
499.49        68.00276
499.93        67.96513
500.37         67.9239
500.82        67.88848
501.26        67.84515
501.70        67.78299
502.14        67.91617
502.58        67.82777
503.02        67.92482
503.46        68.07999
503.90        68.28899
504.34        68.48788
504.78        68.58235
505.22        68.53052
505.66        68.37836
506.10        68.22472
506.54        68.12966
506.98        68.04288
507.42        68.65672
507.86        68.02003
508.30        68.38311
508.74        67.93726
509.18        67.66923
509.62        67.33387
510.06        67.24509
510.50        67.45428
510.94        67.87383
511.38         68.3394
511.82         68.5425
512.26        68.41129
512.70        68.03648
513.14        67.59944
513.58        67.40302
514.02        67.51952
514.46        67.81516
514.90        68.12255
515.34        68.39926
515.78        68.21574
516.22        67.95502
516.66          67.643
517.10        67.49183
517.54         67.5462
517.98        67.73404
518.42        67.96335
518.86        68.06274
519.30        67.98701
519.74        67.85375
520.18        67.71304
520.62        67.50347
521.06        67.31927
521.50        67.43425
521.93         67.7791
522.37        67.95624
522.81        67.92824
523.25        67.88691
523.69        67.88884
524.13        67.94176
524.57        68.05487
525.01        68.21442
525.45        68.34234
525.89        68.31705
526.32        68.11255
526.76        67.79972
527.20        67.47266
527.64        67.28008
528.08        67.25758
528.52        67.35691
528.96        67.51968
529.40        67.65175
529.83        67.71321
530.27        67.73762
530.71        67.72807
531.15        67.69677
531.59         67.6515
532.03        67.58321
532.46        67.49505
532.90        67.42512
533.34        67.37643
533.78        67.35169
534.22        67.34391
534.66        67.33703
535.09        67.32137
535.53        67.31424
535.97        67.31642
536.41        67.34469
536.85        67.39651
537.28        67.45603
537.72        67.50373
538.16        67.50485
538.60        67.45226
539.04        67.36268
539.47        67.23743
539.91        67.13407
540.35        67.04976
540.79        66.98682
541.22        66.94723
541.66        66.94531
542.10        66.97524
542.54        67.03606
542.97        67.10972
543.41        67.18658
543.85         67.2507
544.29        67.31645
544.72        67.34554
545.16        67.31715
545.60        67.22994
546.04        67.06686
546.47        66.90263
546.91        66.96146
547.35        67.21816
547.79        67.41135
548.22        67.46558
548.66        67.62661
549.10        67.88488
549.53        67.88885
549.97          67.549
550.41        68.11418
550.84        67.54253
551.28        67.41843
551.72        67.16722
552.15        67.29133
552.59        66.94443
553.03        67.29841
553.46        67.22106
553.90        67.36172
554.34        67.43002
554.77        67.48869
555.21          67.543
555.65        67.51994
556.08        67.44752
556.52        67.49069
556.96        67.60899
557.39        67.62556
557.83        67.56544
558.27        67.54826
558.70        67.60618
559.14        67.71715
559.57        67.81606
560.01        67.92223
560.45        68.01185
560.88        67.76658
561.32        67.60877
561.75        67.67098
562.19        67.97906
562.63        67.85487
563.06         67.3614
563.50        67.28461
563.93        67.61356
564.37        67.49008
564.80        67.55091
565.24        67.57202
565.68        67.70497
566.11        67.72821
566.55        67.67157
566.98         67.5987
567.42        67.60867
567.85        67.66337
568.29        67.73763
568.72        67.96361
569.16        68.40916
569.60        67.79411
570.03        68.20699
570.47        68.32012
570.90        68.02231
571.34        68.11021
571.77        68.11839
572.21        68.16771
572.64        68.10468
573.08        68.33189
573.51        68.11549
573.95        67.99477
574.38        68.57222
574.82        67.94504
