SpectraSmart Spectrum 2.9.0.0
--------- Device Information -----------
Spectrum Name :  反射率_0
Saving Time :  2024/04/29 23:59:46
Spectro-Module Model Name : SE2030-DUVN
Spectro-Module Serial Number : OS361AC55029948
Wavelength Start : 200
Wavelength End : 1025
Wavelength Unit : Wavelength(nm)
Spectrum Unit : Reflectance(%)
-----------Spectrum Setting ------------
Integration Time : 20ms
Average : 10
Boxcar : 0
Background removal :  enabled
linearity correction :  enabled
SC :  disabled
Intensity correction :  disabled
DWT denoise :  enabled
savitzky-golay :  disabled
FFT :  disabled
Running average :  disabled
Kalman :  disabled
High pass :  disabled
---------------BEGIN--------------------
Wavelength(nm)             Reflectance(%)
200.29               0
200.75        96.78323
201.21        81.53693
201.67        65.84072
202.13        55.32844
202.58        52.65896
203.04        56.48319
203.50        66.24916
203.96         79.9257
204.42        94.46651
204.88        108.7844
205.34        116.3095
205.80        109.8109
206.26        93.84576
206.72        75.74126
207.18        60.94937
207.64        52.10251
208.10         47.8608
208.55        46.22603
209.01        46.85729
209.47        49.71977
209.93        53.64315
210.39        58.03312
210.85        61.20406
211.31        61.83848
211.77        59.82225
212.23        54.44748
212.69        46.30068
213.14        41.50001
213.60        43.31829
214.06        49.36625
214.52        54.94938
214.98        56.65492
215.44        54.97513
215.90         51.1406
216.36        47.37977
216.81         47.9776
217.27        55.26669
217.73        69.70519
218.19         89.6153
218.65        103.4143
219.11        103.0059
219.57        92.62463
220.02        81.14482
220.48        75.07687
220.94        73.49068
221.40        74.32027
221.86        75.23062
222.32        71.21613
222.77        62.70531
223.23        55.00653
223.69        49.44385
224.15        45.53479
224.61        42.40153
225.06        39.20529
225.52         36.8638
225.98        37.30574
226.44        40.26046
226.90        44.16695
227.36        47.11713
227.81        47.82053
228.27        46.57552
228.73        43.77266
229.19        40.57778
229.65        39.54407
230.10        41.04904
230.56        43.69018
231.02        45.94241
231.48        46.52334
231.93        45.39588
232.39        43.16429
232.85        40.39124
233.31        38.20161
233.77        37.07654
234.22        36.82868
234.68        37.03342
235.14        36.93537
235.60         36.3973
236.05        35.77274
236.51        35.67072
236.97        36.86452
237.43        39.63545
237.88        44.16902
238.34        50.03734
238.80        55.42376
239.26        58.49009
239.71        59.24369
240.17        58.36851
240.63         57.6258
241.08        57.74351
241.54        58.30761
242.00        60.09516
242.46        64.50948
242.91        71.76331
243.37        80.25076
243.83        87.28237
244.28        91.80373
244.74        94.41656
245.20        94.71819
245.66        94.09693
246.11        96.03828
246.57        101.8209
247.03        111.7339
247.48        120.9618
247.94        118.8212
248.40        107.0468
248.85        92.70589
249.31        82.68058
249.77         79.1034
250.22         81.0894
250.68        88.47477
251.14        100.3683
251.59        105.2678
252.05        96.79062
252.51        84.57272
252.96        75.54967
253.42         71.7096
253.88        71.06331
254.33        71.99679
254.79        73.61865
255.25        73.76939
255.70          72.066
256.16        70.14585
256.62        68.60076
257.07        67.64315
257.53         67.4474
257.99        67.52166
258.44        67.15307
258.90        66.22471
259.35        64.52601
259.81        62.77275
260.27        61.27255
260.72        60.29309
261.18        59.86338
261.63        59.49147
262.09        58.92426
262.55        57.52749
263.00        55.38416
263.46        53.09553
263.91        50.89531
264.37        49.31652
264.83        48.27227
265.28        47.48173
265.74        46.96743
266.19        46.55437
266.65        46.22989
267.11        45.99226
267.56        45.64882
268.02        44.91317
268.47        43.72881
268.93        42.17661
269.38        40.51734
269.84        39.34663
270.30        38.79717
270.75        38.69173
271.21        38.70813
271.66        38.33221
272.12        37.45491
272.57        36.22282
273.03        34.87226
273.48        33.69618
273.94        32.85596
274.39        32.21191
274.85         31.7151
275.31         31.2306
275.76        30.69403
276.22        30.17034
276.67        29.65437
277.13        29.21564
277.58        28.81539
278.04        28.46889
278.49        28.06873
278.95        27.55815
279.40        26.90325
279.86        26.20605
280.31        25.54382
280.77        25.14079
281.22        24.98664
281.68        25.02923
282.13         25.1397
282.59        25.18182
283.04        25.09823
283.50        24.92761
283.95        24.69136
284.41        24.43343
284.86        24.16945
285.32        23.92978
285.77        23.68226
286.22        23.44973
286.68        23.25367
287.13        23.06249
287.59        22.95467
288.04         22.9893
288.50        23.17255
288.95        23.44136
289.41         23.6964
289.86        23.75503
290.32        23.62053
290.77        23.36491
291.22        23.10331
291.68        23.01328
292.13        23.14249
292.59        23.45829
293.04        23.96982
293.50        24.71634
293.95        25.67944
294.40        26.85952
294.86        28.12012
295.31        29.25383
295.77        30.21197
296.22        31.03387
296.68        31.88372
297.13        33.00328
297.58        34.44913
298.04         36.1113
298.49        37.82522
298.95        39.34075
299.40        40.59274
299.85        41.67056
300.31         42.7098
300.76        43.84568
301.21         45.1557
301.67        46.61267
302.12        48.13265
302.58          49.735
303.03        51.38237
303.48        53.00145
303.94        54.62603
304.39        56.72931
304.84        58.53698
305.30        60.63457
305.75        62.67391
306.20        64.54995
306.66        66.23782
307.11        67.72624
307.57        69.13233
308.02        70.52438
308.47        71.96983
308.93        73.45071
309.38        74.90574
309.83        76.31024
310.29        77.64656
310.74        78.91061
311.19        80.08219
311.65        81.11596
312.10        81.99905
312.55        82.76457
313.00        83.50385
313.46        84.36411
313.91        85.35813
314.36        86.44616
314.82        87.53373
315.27        88.49213
315.72        89.25637
316.18        89.86584
316.63        90.33636
317.08        90.70905
317.53        91.02692
317.99        91.31613
318.44        91.59617
318.89         91.9139
319.35        92.28568
319.80         92.6972
320.25        93.21236
320.70        93.92627
321.16        94.80259
321.61        95.84334
322.06        96.81383
322.51        97.34579
322.97        97.35777
323.42        96.96946
323.87        96.45766
324.32        96.29198
324.78        96.58014
325.23        97.25671
325.68        98.09428
326.13        98.69701
326.59        98.92432
327.04        98.92696
327.49        98.88034
327.94        99.11526
328.39        99.70757
328.85        100.4942
329.30        101.3379
329.75        101.8205
330.20        101.8359
330.66        101.5181
331.11         101.116
331.56        100.9502
332.01        101.1507
332.46         101.639
332.92        102.3029
333.37        103.0908
333.82        103.8823
334.27        104.6854
334.72         105.485
335.17        106.2569
335.63        106.9527
336.08        107.6149
336.53         108.119
336.98        108.3429
337.43        108.2934
337.88        108.0289
338.34        107.7764
338.79        107.9125
339.24        108.5097
339.69        109.4793
340.14        110.5656
340.59        111.3192
341.05        111.6259
341.50        111.6286
341.95        111.5281
342.40        111.6698
342.85        112.1386
343.30        112.7817
343.75        113.5038
344.20        114.1576
344.66        114.6985
345.11        115.2163
345.56         115.619
346.01         115.741
346.46        115.6008
346.91        115.2355
347.36        114.9814
347.81        115.3625
348.26        116.4328
348.72        117.9978
349.17        119.6111
349.62        120.4399
350.07        120.2827
350.52        119.4399
350.97         118.346
351.42        117.6654
351.87        117.5972
352.32          117.93
352.77        118.5453
353.22        119.2562
353.67          119.93
354.13        120.5885
354.58        121.0918
355.03        121.1974
355.48        120.8538
355.93        120.1116
356.38        119.0946
356.83        118.0194
357.28         116.982
357.73        115.9706
358.18        115.0281
358.63         114.199
359.08        113.4919
359.53        112.9169
359.98        112.4249
360.43        111.9194
360.88        111.3672
361.33        110.7741
361.78        110.1592
362.23         109.564
362.68        108.9948
363.13         108.433
363.58        107.8496
364.03        107.2032
364.48        106.4898
364.93        105.7291
365.38        104.9701
365.83        104.2929
366.28        103.7179
366.73        103.2213
367.18        102.7561
367.63        102.2426
368.08        101.6551
368.53        101.0189
368.98        100.3609
369.43        99.72234
369.88        99.13052
370.33        98.58855
370.78        98.09222
371.23        97.63956
371.68        97.22141
372.13        96.81147
372.58        96.44043
373.03        96.15697
373.48        95.93887
373.93        95.75433
374.38        95.45517
374.83        94.81425
375.28        93.82681
375.72        92.58307
376.17         91.3741
376.62         90.4599
377.07        89.89878
377.52        89.59673
377.97        89.46001
378.42        89.33591
378.87        89.15459
379.32        88.94723
379.77        88.69238
380.22        88.35441
380.67        87.92471
381.11         87.3997
381.56        86.80297
382.01        86.20704
382.46        85.65826
382.91        85.17093
383.36        84.74551
383.81         84.3683
384.26        84.02724
384.71        83.71087
385.15        83.42517
385.60        83.23725
386.05        83.11337
386.50        83.02699
386.95        82.87583
387.40        82.51094
387.85        81.93867
388.29        81.19477
388.74        80.51838
389.19        80.02057
389.64        79.72386
390.09        79.55362
390.54        79.47533
390.98        79.41662
391.43        79.36756
391.88        79.32368
392.33        79.18588
392.78        78.86752
393.23        78.38609
393.67        77.68071
394.12        76.93275
394.57        76.77422
395.02         76.1939
395.47        76.34381
395.91        76.76593
396.36        76.92722
396.81        76.74597
397.26          76.487
397.71        76.23022
398.15        75.89622
398.60        75.58949
399.05        75.41241
399.50        75.32027
399.95         74.9972
400.39        74.33027
400.84        74.65935
401.29        75.63914
401.74        75.83568
402.18        75.11007
402.63        74.20056
403.08        73.46783
403.53        73.13461
403.97        73.27709
404.42        73.78965
404.87        74.37983
405.32        74.54317
405.76        74.15835
406.21        73.53955
406.66        72.84073
407.11        72.12018
407.55        71.62712
408.00        71.62285
408.45        72.05018
408.90        72.74171
409.34        73.36237
409.79        73.17021
410.24        72.40659
410.68        72.22365
411.13        72.70095
411.58        73.15956
412.03        73.41279
412.47        73.48264
412.92        73.28802
413.37        72.87057
413.81        72.36363
414.26        72.04106
414.71        71.92875
415.15        71.97935
415.60        72.09351
416.05        72.14627
416.49         72.1029
416.94        72.00761
417.39        71.89882
417.83        71.81532
418.28        71.78165
418.73         71.7749
419.17        71.79815
419.62        71.89464
420.07        72.04275
420.51        72.15929
420.96        72.23964
421.41        72.29567
421.85        72.23306
422.30        72.05403
422.74        71.75149
423.19        71.30697
423.64        70.87279
424.08        71.04552
424.53        71.72649
424.98        72.12996
425.42        72.14989
425.87        72.42864
426.31        72.86324
426.76        72.52708
427.21        71.51041
427.65         71.5414
428.10        72.38319
428.54        72.39277
428.99        71.62023
429.44        71.09188
429.88        70.96529
430.33        71.03066
430.77        71.22076
431.22        71.81541
431.66        72.57269
432.11        72.57363
432.56        71.89174
433.00        71.58907
433.45         71.9972
433.89        72.50813
434.34        72.91158
434.78        74.74616
435.23        72.29249
435.67        71.50453
436.12        71.08076
436.57        71.18365
437.01        71.59751
437.46        72.44169
437.90        72.07765
438.35        72.47351
438.79        73.06934
439.24        73.27331
439.68        73.09116
440.13        72.97584
440.57        73.03759
441.02        73.11705
441.46        73.19227
441.91        73.50397
442.35        73.83426
442.80        73.75957
443.24        73.64275
443.69        73.33842
444.13        73.05222
444.58        72.84701
445.02        72.71928
445.47        72.71297
445.91        72.78609
446.36        72.87923
446.80        72.95119
447.24        73.03928
447.69         73.1347
448.13        73.19341
448.58        73.23078
449.02        73.23029
449.47        73.23447
449.91        73.28123
450.36        73.38821
450.80         73.5118
451.25        73.64656
451.69         73.7485
452.13        73.81483
452.58        73.89582
453.02        73.95444
453.47         73.9278
453.91        73.78928
454.36        73.69235
454.80          73.437
455.24        73.48729
455.69        73.96416
456.13        74.26533
456.58        73.99597
457.02        73.46572
457.46         73.5704
457.91        73.31509
458.35        73.03047
458.79        72.87943
459.24         72.9229
459.68        73.17381
460.13        73.52732
460.57        73.49136
461.01        73.62267
461.46         73.2692
461.90        73.01094
462.34        73.47796
462.79        73.66638
463.23         73.5045
463.68         72.7819
464.12         72.3633
464.56        72.28541
465.01        72.08978
465.45         71.8214
465.89         71.8569
466.34         72.0586
466.78        72.73041
467.22        72.32333
467.67        72.32766
468.11        72.31456
468.55         72.0733
468.99        71.67947
469.44        71.38808
469.88        71.25838
470.32        71.22864
470.77        71.25004
471.21        71.26221
471.65        71.22499
472.10        71.17574
472.54        71.14437
472.98        71.18304
473.42        71.28297
473.87        71.50866
474.31        71.74108
474.75        71.59801
475.20        71.15623
475.64        71.05934
476.08        71.32811
476.52        71.14754
476.97        70.45761
477.41        70.92983
477.85        70.53576
478.29        70.24084
478.74        71.00488
479.18        70.80251
479.62        70.26844
480.06        70.11532
480.50        70.41161
480.95        70.45316
481.39        71.30788
481.83        70.39367
482.27        71.36729
482.72        70.81694
483.16        70.82856
483.60        70.69064
484.04        70.75188
484.48        71.00657
484.93        71.21479
485.37        70.90087
485.81         70.4297
486.25        69.44994
486.69        70.34652
487.14        70.57629
487.58        70.25516
488.02        69.75907
488.46        71.07027
488.90        70.64551
489.34        70.02527
489.79        70.63963
490.23        69.85388
490.67        70.12767
491.11        70.41076
491.55        70.16721
491.99        69.49034
492.43        69.23418
492.88        69.47289
493.32        69.72982
493.76        69.91512
494.20         70.1261
494.64        70.31686
495.08        70.44221
495.52        70.52368
495.96        70.49125
496.41        70.33877
496.85        70.32819
497.29        70.46223
497.73         69.7542
498.17         69.7187
498.61        69.42422
499.05        69.35767
499.49         69.5162
499.93        69.77159
500.37        69.66446
500.82        69.25508
501.26        69.14636
501.70        69.36264
502.14         69.5396
502.58        69.63335
503.02        69.74285
503.46        69.85384
503.90        69.93916
504.34        69.99377
504.78        70.01102
505.22        69.97861
505.66        69.92016
506.10        69.86967
506.54         69.8258
506.98        69.78376
507.42         70.1283
507.86        69.82085
508.30         70.1633
508.74        69.57298
509.18        69.25406
509.62          69.005
510.06        68.64068
510.50        69.03105
510.94        69.43713
511.38        69.92162
511.82        70.12302
512.26         69.9676
512.70        69.55374
513.14        69.05408
513.58        68.77251
514.02        68.78649
514.46        68.97677
514.90        69.21983
515.34        69.46935
515.78        69.42318
516.22          69.332
516.66        69.19688
517.10        69.12948
517.54        69.15589
517.98         69.2414
518.42        69.31895
518.86        69.28321
519.30        69.11958
519.74        68.87222
520.18        68.63914
520.62        68.56352
521.06        68.67692
521.50        68.93935
521.93        69.25651
522.37        69.44393
522.81        69.45399
523.25         69.3558
523.69        69.25225
524.13        69.22191
524.57         69.2766
525.01        69.70091
525.45        69.80772
525.89        69.91018
526.32        69.78773
526.76        69.53629
527.20        69.24158
527.64        69.04782
528.08        68.99883
528.52        69.04565
528.96        69.13853
529.40        69.19876
529.83        69.19497
530.27        69.15987
530.71        69.11083
531.15        69.08041
531.59        69.07452
532.03        69.07449
532.46        69.05292
532.90        68.99902
533.34        68.90742
533.78        68.80072
534.22        68.69643
534.66        68.61728
535.09        68.56683
535.53         68.5482
535.97        68.56186
536.41        68.63959
536.85        68.77514
537.28        68.91902
537.72        69.01524
538.16        69.12255
538.60        68.98331
539.04        68.82079
539.47        68.59792
539.91        68.43181
540.35        68.33186
540.79        68.29031
541.22        68.28887
541.66        68.30167
542.10         68.3145
542.54        68.34048
542.97         68.3818
543.41         68.4594
543.85        68.56185
544.29        68.68895
544.72        68.78059
545.16        68.78516
545.60        68.69212
546.04        68.49275
546.47        68.27553
546.91        68.28857
547.35         68.5145
547.79        68.68468
548.22         68.7166
548.66        68.85128
549.10        69.07732
549.53        69.03913
549.97        68.65758
550.41        69.22678
550.84        68.68546
551.28        68.59726
551.72        68.34078
552.15        68.49809
552.59        68.22402
553.03        68.21408
553.46        68.22765
553.90        68.26667
554.34        68.30868
554.77        68.41892
555.21        68.56907
555.65        68.55032
556.08        68.40331
556.52        68.44621
556.96        68.65002
557.39        68.77309
557.83        68.80748
558.27        68.83844
558.70        68.86744
559.14        68.87724
559.57        68.84763
560.01        68.79742
560.45        68.74741
560.88        68.59786
561.32        68.67017
561.75         68.5876
562.19        68.46388
562.63        68.28581
563.06        68.11123
563.50        68.15092
563.93         68.3308
564.37        68.40996
564.80         68.3501
565.24        68.31622
565.68        68.31178
566.11        68.33051
566.55        68.37721
566.98        68.32391
567.42        68.27412
567.85        68.31263
568.29         68.4223
568.72        68.65863
569.16        69.10725
569.60        68.47372
570.03        68.86214
570.47        68.81767
570.90        68.99141
571.34        68.36955
571.77        68.81335
572.21        68.83823
572.64        68.93282
573.08        69.06028
573.51         68.4651
573.95        69.19229
574.38        69.11269
574.82        68.91645
