SpectraSmart Spectrum 2.9.0.0
--------- Device Information -----------
Spectrum Name :  反射率_0
Saving Time :  2024/04/30 00:27:09
Spectro-Module Model Name : SE2030-DUVN
Spectro-Module Serial Number : OS361AC55029948
Wavelength Start : 200
Wavelength End : 1025
Wavelength Unit : Wavelength(nm)
Spectrum Unit : Reflectance(%)
-----------Spectrum Setting ------------
Integration Time : 20ms
Average : 10
Boxcar : 0
Background removal :  enabled
linearity correction :  enabled
SC :  disabled
Intensity correction :  disabled
DWT denoise :  enabled
savitzky-golay :  disabled
FFT :  disabled
Running average :  disabled
Kalman :  disabled
High pass :  disabled
---------------BEGIN--------------------
Wavelength(nm)             Reflectance(%)
200.29               0
200.75        83.22633
201.21        72.91653
201.67        62.24768
202.13          52.655
202.58        45.13964
203.04        39.45532
203.50        36.90539
203.96        40.22284
204.42        49.65846
204.88        63.68492
205.34        77.12031
205.80        82.41811
206.26        79.71734
206.72        73.40421
207.18        66.65749
207.64        61.17954
208.10        56.71471
208.55        52.32635
209.01        48.45983
209.47        47.39225
209.93        49.38469
210.39        53.31684
210.85        56.97802
211.31        58.53095
211.77        57.91499
212.23        55.10992
212.69        51.07394
213.14        50.64876
213.60        55.00992
214.06         61.5117
214.52        66.73339
214.98        68.73002
215.44        68.15865
215.90        65.89934
216.36        63.71186
216.81        64.93508
217.27        71.41352
217.73        83.81481
218.19        100.7458
218.65        112.3766
219.11        111.9042
219.57         102.753
220.02        92.88135
220.48        88.42987
220.94        88.59114
221.40         91.8737
221.86        95.38134
222.32        91.82325
222.77        81.17812
223.23        70.44265
223.69        62.76959
224.15        58.70556
224.61        57.12141
225.06        56.94942
225.52        58.02203
225.98        59.62834
226.44        61.03123
226.90        62.14758
227.36        62.81298
227.81        62.95933
228.27        62.75577
228.73        62.09795
229.19        61.14815
229.65        60.39434
230.10        60.03365
230.56         60.0957
231.02        60.18191
231.48        59.94189
231.93        59.25814
232.39        58.25609
232.85        57.23261
233.31        56.84692
233.77        57.26511
234.22          58.461
234.68        59.59582
235.14        59.22469
235.60        57.19056
236.05        54.12476
236.51        51.47971
236.97        51.08857
237.43        53.43249
237.88        58.58367
238.34        65.87685
238.80        72.59064
239.26        76.16689
239.71        76.76981
240.17        75.28284
240.63        73.79475
241.08        73.09488
241.54        72.26287
242.00        71.68635
242.46        72.94817
242.91         77.4519
243.37        84.56029
243.83        91.69589
244.28        96.88168
244.74        100.2686
245.20         101.629
245.66         101.894
246.11        103.4312
246.57          107.08
247.03        113.4365
247.48         118.358
247.94        113.4929
248.40        101.4832
248.85        88.27385
249.31        80.11548
249.77        79.26031
250.22        85.40057
250.68        99.80438
251.14        121.9795
251.59        133.6002
252.05        122.6005
252.51        103.5927
252.96        89.22624
253.42        83.74574
253.88        84.15428
254.33         87.7979
254.79        92.38343
255.25        93.00636
255.70        89.21665
256.16        84.62904
256.62        81.02922
257.07        79.26779
257.53        79.31381
257.99        80.14661
258.44        80.57298
258.90        79.91454
259.35        77.90199
259.81        75.70677
260.27        73.83448
260.72        72.69975
261.18        72.38263
261.63        72.22276
262.09        71.94379
262.55        70.82146
263.00         68.8619
263.46        66.69782
263.91        64.54498
264.37        63.00655
264.83        61.97733
265.28        61.18878
265.74        60.58351
266.19        59.82337
266.65        58.94092
267.11        58.00202
267.56        57.04568
268.02        56.13052
268.47        55.21674
268.93        54.26522
269.38        53.26022
269.84        52.31548
270.30        51.44397
270.75        50.64056
271.21        49.82608
271.66        48.80613
272.12        47.56926
272.57        46.15197
273.03        44.74511
273.48        43.56271
273.94        42.73281
274.39        42.13177
274.85         41.6884
275.31        41.19741
275.76        40.58184
276.22        39.93377
276.67        39.26439
277.13        38.70899
277.58        38.22924
278.04        37.83194
278.49        37.39828
278.95        36.88395
279.40        36.23424
279.86        35.55765
280.31        34.88665
280.77         34.4041
281.22         34.0835
281.68        33.89948
282.13        33.75777
282.59        33.59507
283.04        33.35786
283.50          33.084
283.95        32.74549
284.41        32.32888
284.86        31.83987
285.32        31.34058
285.77        30.86239
286.22        30.53084
286.68        30.37654
287.13        30.32565
287.59         30.3665
288.04         30.4108
288.50        30.44536
288.95        30.44889
289.41        30.42928
289.86        30.34883
290.32        30.24238
290.77        30.13134
291.22        30.04335
291.68        30.01337
292.13        30.06244
292.59        30.22829
293.04         30.5982
293.50        31.33444
293.95        32.44143
294.40        33.87064
294.86        35.45211
295.31        36.92634
295.77        38.21419
296.22        39.36509
296.68        40.50614
297.13        41.81861
297.58        43.35545
298.04        45.02238
298.49        46.72148
298.95        48.31886
299.40        49.77268
299.85        51.14764
300.31        52.52094
300.76        53.92258
301.21        55.41211
301.67         57.0014
302.12        58.65555
302.58        60.47204
303.03        62.41456
303.48        64.39922
303.94        66.42048
304.39        68.75346
304.84        70.81902
305.30        73.06001
305.75        75.20175
306.20        77.16361
306.66        78.93542
307.11        80.47768
307.57        81.92522
308.02        83.35506
308.47        84.84083
308.93        86.36919
309.38        87.84326
309.83        89.18941
310.29        90.39322
310.74        91.47298
311.19        92.46807
311.65        93.42045
312.10        94.33246
312.55        95.21338
313.00        96.11093
313.46        97.10352
313.91        98.17655
314.36        99.30067
314.82        100.3975
315.27        101.3693
315.72        102.1558
316.18        102.7843
316.63        103.2403
317.08        103.5219
317.53        103.6705
317.99        103.7335
318.44        103.7826
318.89        103.9469
319.35        104.2571
319.80        104.6708
320.25        105.1992
320.70        105.8499
321.16        106.5607
321.61        107.3706
322.06        108.0726
322.51        108.3508
322.97        108.1519
323.42        107.5856
323.87        106.9448
324.32        106.7235
324.78        107.0234
325.23        107.7785
325.68         108.715
326.13        109.3556
326.59        109.5342
327.04        109.4181
327.49        109.2243
327.94        109.3634
328.39        109.9296
328.85        110.7293
329.30        111.5926
329.75        112.0238
330.20        111.9007
330.66        111.3928
331.11         110.787
331.56        110.4531
332.01        110.5391
332.46         110.945
332.92        111.5645
333.37        112.3696
333.82         113.231
334.27        114.1571
334.72        115.0696
335.17         115.838
335.63        116.3863
336.08        116.7785
336.53         116.985
336.98         117.056
337.43        117.0383
337.88        116.9425
338.34        116.8714
338.79        116.9994
339.24        117.3568
339.69        117.9242
340.14        118.5702
340.59        119.0529
341.05        119.3161
341.50         119.431
341.95        119.5077
342.40        119.7498
342.85        120.1966
343.30        120.7426
343.75        121.3145
344.20        121.8018
344.66        122.1746
345.11        122.4942
345.56        122.6971
346.01        122.6695
346.46        122.4405
346.91        122.0565
347.36         121.778
347.81        122.0045
348.26        122.7736
348.72        123.9153
349.17        125.1265
349.62        125.8171
350.07        125.8233
350.52        125.3523
350.97        124.6303
351.42        124.0053
351.87        123.6143
352.32        123.3562
352.77        123.2878
353.22        123.5067
353.67        123.9725
354.13        124.6277
354.58        125.2504
355.03        125.4626
355.48        125.1615
355.93        124.4411
356.38        123.4417
356.83           122.4
357.28        121.4108
357.73        120.4298
358.18        119.4839
358.63        118.6061
359.08        117.8049
359.53        117.1087
359.98        116.4721
360.43        115.7994
360.88        115.0715
361.33        114.3029
361.78        113.5524
362.23        112.9215
362.68        112.4189
363.13        111.9974
363.58        111.5709
364.03         111.006
364.48        110.2727
364.93        109.4183
365.38        108.5143
365.83        107.6825
366.28        106.9655
366.73        106.3277
367.18        105.7456
367.63        105.1776
368.08        104.5969
368.53        104.0163
368.98        103.4173
369.43         102.761
369.88        102.0593
370.33        101.3476
370.78        100.6537
371.23        100.0314
371.68        99.49519
372.13        98.99734
372.58        98.59055
373.03        98.35854
373.48        98.26926
373.93        98.27531
374.38        98.14544
374.83        97.51443
375.28        96.35475
375.72        94.80734
376.17        93.25802
376.62        92.10324
377.07        91.43237
377.52        91.10645
377.97        90.99849
378.42        90.89649
378.87        90.71019
379.32        90.50295
379.77        90.23472
380.22        89.83751
380.67        89.30366
381.11        88.62426
381.56        87.89095
382.01        87.29682
382.46        86.89764
382.91        86.65982
383.36        86.46635
383.81        86.12208
384.26        85.58891
384.71        84.93227
385.15        84.26352
385.60         83.8158
386.05        83.60469
386.50         83.5434
386.95        83.50936
387.40        83.31838
387.85        82.94002
388.29          82.413
388.74        81.90452
389.19        81.42331
389.64        80.98263
390.09        80.52834
390.54        80.13087
390.98        79.90243
391.43        79.88297
391.88        80.01852
392.33        80.09007
392.78        79.86038
393.23        79.32548
393.67        78.41449
394.12        77.43124
394.57        77.32689
395.02        77.03977
395.47        77.35032
395.91        77.74606
396.36        77.90097
396.81        77.72288
397.26        77.33071
397.71        76.85694
398.15        76.40992
398.60        76.12373
399.05        75.95695
399.50        75.84146
399.95        75.66299
400.39        75.19867
400.84         75.2492
401.29        75.60394
401.74        75.69488
402.18        75.38156
402.63         74.6493
403.08         73.8065
403.53        73.47517
403.97        73.72401
404.42        74.24395
404.87        74.74169
405.32        74.83482
405.76         74.4157
406.21        73.69165
406.66        72.88992
407.11        72.30521
407.55        72.11403
408.00        72.30637
408.45        72.74622
408.90        73.21551
409.34        73.48078
409.79        73.16954
410.24        72.51189
410.68        72.28972
411.13        72.57787
411.58        72.94934
412.03        73.23299
412.47        73.32647
412.92        73.14056
413.37        72.76143
413.81        72.28438
414.26        71.92377
414.71         71.6978
415.15        71.55921
415.60        71.48019
416.05        71.46343
416.49        71.50071
416.94        71.60537
417.39        71.69499
417.83        71.61622
418.28        71.35262
418.73        70.93543
419.17        70.53178
419.62         70.4285
420.07         70.6603
420.51         71.1163
420.96        71.60339
421.41        71.76461
421.85        71.51679
422.30        71.08831
422.74        70.59339
423.19        70.26139
423.64        70.15506
424.08        70.28448
424.53        70.57189
424.98        70.92769
425.42        71.22777
425.87        71.40003
426.31        71.40958
426.76        71.07093
427.21        70.40164
427.65        70.41252
428.10        70.90182
428.54         70.7738
428.99        70.13876
429.44        69.78023
429.88        69.79768
430.33        70.06976
430.77        70.39683
431.22        70.72304
431.66        70.95821
432.11        70.64484
432.56        69.90033
433.00        69.76888
433.45        70.55964
433.89        70.04778
434.34        70.92063
434.78        72.18246
435.23         70.3587
435.67        69.68042
436.12        69.23595
436.57        69.27322
437.01        69.59039
437.46        70.34823
437.90        70.05152
438.35        70.28773
438.79         70.8876
439.24        71.08734
439.68        71.00063
440.13        71.04341
440.57        71.22987
441.02        71.32381
441.46         71.2966
441.91        71.24799
442.35        71.13822
442.80        71.27296
443.24        71.52054
443.69        71.37811
444.13        70.88238
444.58        70.59501
445.02         70.4923
445.47        70.30961
445.91        70.11438
446.36        70.11456
446.80        70.28683
447.24        70.73707
447.69        71.20872
448.13        71.20887
448.58         70.8091
449.02        70.67092
449.47        70.84909
449.91        70.88355
450.36        70.80503
450.80        70.89222
451.25        71.12034
451.69         71.2632
452.13        71.29839
452.58        71.31293
453.02        71.32032
453.47        71.32638
453.91        71.31432
454.36        71.44775
454.80        71.40115
455.24        71.41185
455.69        71.33041
456.13        71.30286
456.58        71.42886
457.02        70.56393
457.46        70.82835
457.91        70.66579
458.35        70.63158
458.79         70.5698
459.24        70.50729
459.68        70.52201
460.13         70.6251
460.57         70.5005
461.01        70.64887
461.46        70.57092
461.90        70.45052
462.34        70.57999
462.79        70.83878
463.23        70.74332
463.68         70.3189
464.12         70.0522
464.56        69.99045
465.01        69.82452
465.45        69.56582
465.89        69.61642
466.34        69.88474
466.78        70.06549
467.22         69.8371
467.67        69.72314
468.11        69.67019
468.55        69.45258
468.99        69.13197
469.44        68.90356
469.88        68.80073
470.32        68.78613
470.77        68.81577
471.21        68.83982
471.65        68.82301
472.10        68.79541
472.54        68.78156
472.98        68.83195
473.42        68.93618
473.87        69.14904
474.31        69.37453
474.75        69.24953
475.20        68.85744
475.64        68.79153
476.08        69.07056
476.52        68.65362
476.97        68.55894
477.41        68.23907
477.85        68.16004
478.29         67.8417
478.74        68.65372
479.18        68.56653
479.62        68.07529
480.06        67.96323
480.50        68.28723
480.95        68.15089
481.39        68.60324
481.83        68.25259
482.27        68.96249
482.72        68.74247
483.16        69.01377
483.60        69.10905
484.04        69.32784
484.48        69.50145
484.93        69.44461
485.37         69.6236
485.81        68.34319
486.25        67.81082
486.69        68.99442
487.14         68.4647
487.58        68.03428
488.02        68.63072
488.46        69.09191
488.90        69.17535
489.34        68.71452
489.79        69.53666
490.23        68.43695
490.67        68.46059
491.11        68.59927
491.55        68.51361
491.99        68.22272
492.43         68.1613
492.88        68.35663
493.32        68.56696
493.76         68.7645
494.20        68.97951
494.64        69.17904
495.08        69.46558
495.52        69.72974
495.96        69.51102
496.41        68.94431
496.85        68.76863
497.29        68.96966
497.73        69.04843
498.17        68.68165
498.61        68.76845
499.05        68.39912
499.49        68.43732
499.93        68.56554
500.37        68.70439
500.82        68.84494
501.26        68.54288
501.70          68.791
502.14        68.72755
502.58        68.63519
503.02        68.65997
503.46        68.80594
503.90        69.02175
504.34        69.24925
504.78        69.41823
505.22        69.48383
505.66        69.49347
506.10        69.46439
506.54        69.36664
506.98         69.1897
507.42        69.37304
507.86        68.78693
508.30        69.09509
508.74        68.71835
509.18        68.67053
509.62        68.61261
510.06         68.6628
510.50        68.82302
510.94        69.06841
511.38        69.30166
511.82        69.32703
512.26        69.11542
512.70        68.73281
513.14        68.32619
513.58         68.1226
514.02        68.17562
514.46        68.41555
514.90        68.73215
515.34        68.94318
515.78        68.98591
516.22        68.90752
516.66         68.7682
517.10        68.66017
517.54        68.61328
517.98        68.60189
518.42        68.57946
518.86        68.47894
519.30        68.29493
519.74        68.05998
520.18        67.86126
520.62        67.82224
521.06        67.96663
521.50        68.26215
521.93        68.60098
522.37        68.78245
522.81        68.76611
523.25        68.59713
523.69        68.40424
524.13         68.3919
524.57        68.59547
525.01        68.94157
525.45        69.28448
525.89        69.38927
526.32        69.19538
526.76        68.81377
527.20          68.377
527.64        68.09052
528.08        68.00992
528.52         68.0648
528.96        68.18992
529.40        68.29102
529.83        68.32068
530.27        68.30358
530.71        68.24748
531.15        68.18139
531.59        68.11637
532.03        68.03628
532.46        67.94112
532.90        67.86997
533.34        67.82571
533.78        67.80711
534.22        67.82032
534.66        67.87044
535.09        67.94576
535.53        68.05305
535.97        68.15965
536.41        68.22917
536.85        68.24831
537.28        68.21944
537.72        68.15873
538.16        68.08444
538.60        68.00521
539.04        67.93616
539.47        67.85833
539.91        67.76454
540.35        67.65831
540.79        67.62679
541.22        67.65799
541.66        67.67741
542.10        67.67622
542.54        67.70105
542.97        67.75087
543.41        67.82583
543.85        67.91537
544.29        68.02811
544.72        68.11707
545.16         68.1479
545.60        68.11191
546.04        67.99356
546.47        67.85902
546.91        67.92165
547.35        68.15584
547.79        68.30088
548.22         68.2986
548.66        68.42823
549.10        68.68612
549.53        68.70477
549.97        68.38192
550.41        68.97498
550.84        68.42386
551.28        68.29133
551.72        67.98925
552.15        68.15814
552.59        67.95715
553.03        68.02988
553.46        68.11269
553.90        68.19343
554.34        68.24171
554.77        68.32792
555.21        68.43316
555.65        68.36772
556.08        68.18681
556.52        68.20242
556.96        68.39571
557.39        68.55585
557.83        68.64452
558.27        68.69707
558.70        68.72567
559.14        68.66973
559.57        68.55378
560.01        68.67934
560.45        68.96013
560.88        68.72978
561.32        68.41149
561.75        68.31614
562.19        68.53455
562.63        68.48387
563.06        68.22292
563.50         68.3402
563.93        68.72812
564.37          68.886
564.80        68.76194
565.24         68.6287
565.68        68.53315
566.11        68.46342
566.55        68.53302
566.98        68.51492
567.42        68.51618
567.85        68.60271
568.29        68.72808
568.72        68.93996
569.16        69.34227
569.60        68.68355
570.03        69.01926
570.47        69.23637
570.90        69.10593
571.34        68.83797
571.77        69.00057
572.21        69.05766
572.64        69.21717
573.08         69.0912
573.51         68.6908
573.95        69.17864
574.38        69.53649
574.82        69.06747
