SpectraSmart Spectrum 2.9.0.0
--------- Device Information -----------
Spectrum Name :  反射率_0
Saving Time :  2024/04/30 00:18:26
Spectro-Module Model Name : SE2030-DUVN
Spectro-Module Serial Number : OS361AC55029948
Wavelength Start : 200
Wavelength End : 1025
Wavelength Unit : Wavelength(nm)
Spectrum Unit : Reflectance(%)
-----------Spectrum Setting ------------
Integration Time : 20ms
Average : 10
Boxcar : 0
Background removal :  enabled
linearity correction :  enabled
SC :  disabled
Intensity correction :  disabled
DWT denoise :  enabled
savitzky-golay :  disabled
FFT :  disabled
Running average :  disabled
Kalman :  disabled
High pass :  disabled
---------------BEGIN--------------------
Wavelength(nm)             Reflectance(%)
200.29               0
200.75        64.77094
201.21        52.87052
201.67         40.3991
202.13        32.89191
202.58        32.83443
203.04        38.79137
203.50         50.4476
203.96        66.44659
204.42         83.8198
204.88        101.2392
205.34        110.7094
205.80        103.2541
206.26        84.49419
206.72        63.40081
207.18        46.85743
207.64        38.61096
208.10        36.93454
208.55        39.03686
209.01        43.93737
209.47        49.47221
209.93        53.64487
210.39        57.20415
210.85        58.66521
211.31        56.44174
211.77        50.20401
212.23        38.26255
212.69        23.00599
213.14         18.5194
213.60        30.41042
214.06        50.07191
214.52        66.40765
214.98        72.63512
215.44        70.36195
215.90        62.27617
216.36        52.25567
216.81        47.80265
217.27        52.64202
217.73        66.45438
218.19        87.14393
218.65        101.4239
219.11        100.1853
219.57        88.91472
220.02          76.603
220.48         69.2785
220.94        65.82304
221.40        63.78355
221.86        61.08012
222.32        54.99473
222.77        47.19134
223.23        41.58791
223.69        38.18456
224.15        35.90731
224.61        34.11246
225.06        32.28583
225.52        31.57334
225.98        33.79882
226.44        38.22418
226.90        43.08382
227.36         46.5442
227.81        47.51226
228.27        46.40066
228.73        43.61886
229.19        40.34289
229.65        39.15312
230.10        40.49393
230.56        43.01764
231.02        45.22889
231.48        45.85241
231.93        44.85707
232.39        42.85915
232.85         40.4101
233.31        38.60249
233.77        37.88276
234.22        38.03051
234.68        38.64202
235.14        38.99206
235.60        38.91105
236.05        38.72268
236.51        38.90815
236.97        40.08223
237.43        42.51135
237.88        46.37327
238.34        51.43806
238.80        56.60314
239.26        60.40021
239.71        62.61407
240.17        63.39004
240.63        63.89724
241.08        64.88355
241.54        66.21545
242.00         68.7601
242.46        73.85854
242.91        81.48988
243.37         89.4236
243.83        96.15289
244.28        102.3925
244.74        109.0471
245.20        115.7478
245.66        121.9425
246.11        126.0087
246.57        126.7157
247.03        125.7734
247.48         121.803
247.94        113.0981
248.40        103.3845
248.85         94.7464
249.31         90.5787
249.77        91.71535
250.22        98.16531
250.68        111.8337
251.14         131.815
251.59        140.2957
252.05        127.1268
252.51        106.8052
252.96        91.99017
253.42        86.76714
253.88        87.75452
254.33        92.29716
254.79        97.11482
255.25        95.75436
255.70        88.56827
256.16        80.62604
256.62        74.57127
257.07        71.62788
257.53        71.37729
257.99        72.38847
258.44        73.26291
258.90        73.00031
259.35        71.22768
259.81        69.17072
260.27        67.26934
260.72        65.86075
261.18        65.06775
261.63        64.34551
262.09         63.6004
262.55        62.39181
263.00        60.73018
263.46        59.07864
263.91         57.4794
264.37        56.29874
264.83        55.42175
265.28        54.63436
265.74        54.00718
266.19        53.41024
266.65        52.87583
267.11         52.3944
267.56        51.79972
268.02         50.8539
268.47        49.49911
268.93        47.80893
269.38        46.03976
269.84        44.76952
270.30        44.12966
270.75        43.95894
271.21        43.90365
271.66        43.39417
272.12        42.31805
272.57        40.81667
273.03        39.21735
273.48         37.9541
273.94        37.20448
274.39        36.77595
274.85        36.47049
275.31        35.92952
275.76        35.07708
276.22        34.08157
276.67        33.11099
277.13        32.49842
277.58        32.22685
278.04        32.19323
278.49        32.14465
278.95        31.83027
279.40        31.16815
279.86        30.35225
280.31        29.48657
280.77         28.8441
281.22        28.44862
281.68        28.23595
282.13        28.15644
282.59        28.19976
283.04        28.30209
283.50        28.46168
283.95        28.55416
284.41        28.40261
284.86        27.98312
285.32        27.40797
285.77         26.7857
286.22        26.34981
286.68        26.16399
287.13        26.12675
287.59         26.2155
288.04        26.33141
288.50        26.44679
288.95        26.54991
289.41        26.62767
289.86        26.61356
290.32        26.53467
290.77         26.4198
291.22        26.30687
291.68        26.25297
292.13        26.28659
292.59        26.43268
293.04        26.78107
293.50          27.492
293.95        28.56737
294.40        29.95674
294.86        31.47343
295.31        32.83146
295.77         33.9489
296.22        34.88636
296.68        35.79514
297.13        36.89692
297.58        38.25592
298.04        39.76763
298.49        41.32055
298.95        42.75368
299.40        44.01884
299.85        45.18627
300.31         46.3399
300.76        47.52525
301.21        48.80505
301.67        50.18765
302.12        51.63147
302.58        53.22077
303.03        54.92855
303.48         56.6605
303.94        58.42801
304.39         60.6286
304.84        62.54053
305.30         64.7014
305.75         66.7765
306.20        68.65221
306.66        70.30935
307.11        71.73997
307.57        73.07561
308.02        74.39968
308.47        75.79189
308.93         77.2384
309.38        78.68891
309.83        80.13363
310.29        81.55936
310.74        82.96022
311.19        84.29903
311.65        85.50371
312.10        86.54861
312.55        87.46175
313.00        88.35271
313.46        89.40209
313.91        90.62103
314.36        91.95528
314.82         93.2562
315.27        94.31161
315.72        95.04291
316.18        95.51856
316.63        95.82763
317.08        96.12877
317.53        96.49265
317.99        96.91003
318.44        97.34005
318.89        97.73088
319.35        98.07343
319.80        98.39039
320.25        98.77918
320.70        99.38855
321.16        100.1986
321.61        101.1881
322.06        102.1238
322.51        102.6446
322.97        102.6633
323.42        102.3059
323.87        101.8087
324.32        101.5727
324.78        101.6975
325.23        102.1412
325.68        102.7434
326.13        103.2283
326.59        103.4844
327.04        103.6229
327.49         103.753
327.94        104.0982
328.39        104.6945
328.85        105.4021
329.30        106.1018
329.75        106.4025
330.20        106.2231
330.66         105.698
331.11        105.0969
331.56         104.772
332.01        104.8595
332.46        105.2721
332.92        105.9047
333.37        106.7114
333.82        107.5659
334.27        108.4864
334.72        109.3915
335.17        110.1483
335.63        110.6894
336.08         111.075
336.53        111.3194
336.98        111.5417
337.43        111.7911
337.88        112.0481
338.34        112.3309
338.79        112.6838
339.24        113.1063
339.69        113.6133
340.14        114.1433
340.59        114.5759
341.05        114.8916
341.50        115.1259
341.95         115.345
342.40         115.682
342.85        116.1561
343.30        116.6883
343.75        117.2295
344.20        117.7027
344.66        118.0891
345.11        118.4367
345.56        118.6675
346.01        118.6486
346.46         118.404
346.91        117.9866
347.36        117.6746
347.81        117.8913
348.26        118.6817
348.72        119.8781
349.17        121.1532
349.62         121.876
350.07        121.8803
350.52        121.3895
350.97        120.6788
351.42        120.1727
351.87        120.0142
352.32        120.0639
352.77        120.3165
353.22        120.7718
353.67        121.3558
354.13        122.0356
354.58        122.6094
355.03        122.7351
355.48        122.3345
355.93        121.5023
356.38        120.4006
356.83        119.2975
357.28        118.2966
357.73        117.3509
358.18        116.4762
358.63        115.6829
359.08        114.9645
359.53        114.3431
359.98        113.7639
360.43        113.1209
360.88        112.3911
361.33        111.5944
361.78        110.7849
362.23        110.0574
362.68        109.4335
363.13        108.8829
363.58        108.3579
364.03         107.783
364.48        107.1367
364.93        106.4393
365.38        105.7315
365.83        105.0839
366.28        104.5105
366.73        103.9807
367.18        103.4475
367.63        102.8365
368.08         102.126
368.53        101.3453
368.98        100.5261
369.43        99.71442
369.88        98.94604
370.33        98.23351
370.78        97.58414
371.23        97.00997
371.68         96.5077
372.13        96.04958
372.58        95.66302
373.03        95.38961
373.48        95.19925
373.93        95.05481
374.38        94.79906
374.83        94.19087
375.28        93.22194
375.72        91.98766
376.17         90.7747
376.62        89.84258
377.07        89.24796
377.52        88.88525
377.97        88.68906
378.42        88.55191
378.87        88.41013
379.32        88.29285
379.77        88.10284
380.22        87.68857
380.67        87.03162
381.11        86.16254
381.56        85.23926
382.01        84.55629
382.46        84.19912
382.91        84.10356
383.36        84.09807
383.81        83.90716
384.26        83.46565
384.71        82.85045
385.15        82.20759
385.60        81.82434
386.05        81.72398
386.50        81.80069
386.95        81.86833
387.40        81.64988
387.85        81.10953
388.29        80.32964
388.74        79.57641
389.19        78.99406
389.64        78.61884
390.09        78.36367
390.54        78.19781
390.98        78.06547
391.43        77.96667
391.88        77.89659
392.33        77.75909
392.78         77.4875
393.23        77.09347
393.67        76.44556
394.12        75.71103
394.57        75.63313
395.02        75.14622
395.47        75.08379
395.91        75.07996
396.36        75.04649
396.81        74.95423
397.26        74.83321
397.71        74.70161
398.15        74.50522
398.60        74.33061
399.05        74.18542
399.50        74.03354
399.95        73.82288
400.39        73.34434
400.84        73.31318
401.29        73.55595
401.74        73.62323
402.18        73.39051
402.63        72.80267
403.08        72.09448
403.53        71.78976
403.97        71.93264
404.42        72.23656
404.87        72.51878
405.32        72.53116
405.76        72.18571
406.21        71.77908
406.66        71.38915
407.11        70.72978
407.55        70.08749
408.00        70.33432
408.45        71.29034
408.90         71.8391
409.34        71.75391
409.79        71.34613
410.24        70.86462
410.68        70.71944
411.13        70.98093
411.58        71.39413
412.03        71.76052
412.47        71.86424
412.92        71.60552
413.37        71.09756
413.81        70.48846
414.26         70.0714
414.71        69.88305
415.15        69.85777
415.60        69.91862
416.05        69.98576
416.49        70.02818
416.94        70.07632
417.39        70.11754
417.83        70.11092
418.28        70.05696
418.73        69.94701
419.17        69.84251
419.62        69.86597
420.07        70.02448
420.51        70.26818
420.96         70.5162
421.41        70.59162
421.85        70.44543
422.30        70.22237
422.74        69.96027
423.19        69.78881
423.64        69.72556
424.08        69.81545
424.53         70.0001
424.98        70.15828
425.42        70.24493
425.87        70.41235
426.31        70.60777
426.76        70.36865
427.21        69.70465
427.65        69.85408
428.10        70.56213
428.54        70.48524
428.99        69.75329
429.44        69.30477
429.88        69.29426
430.33        69.66046
430.77        70.15874
431.22        70.57075
431.66        70.76824
432.11        70.43589
432.56        69.72346
433.00        69.51051
433.45        70.06674
433.89        70.14188
434.34        70.41541
434.78        72.21486
435.23        70.56133
435.67        69.97934
436.12         69.3315
436.57        69.38525
437.01        69.94833
437.46        70.70423
437.90         70.2994
438.35         70.5782
438.79         71.1177
439.24        71.36992
439.68        71.35307
440.13        71.50288
440.57        71.82202
441.02        71.98194
441.46        71.93324
441.91        71.93329
442.35        71.96801
442.80        71.75259
443.24        72.18388
443.69        71.95603
444.13        71.44127
444.58        71.17715
445.02        71.13153
445.47        71.10688
445.91        71.09047
446.36        71.02016
446.80        70.82715
447.24        71.36636
447.69        71.12627
448.13        71.23019
448.58        71.24758
449.02        71.21229
449.47        71.18653
449.91        71.25915
450.36        71.46705
450.80        71.74153
451.25        72.02283
451.69        72.18226
452.13        72.19272
452.58        72.11735
453.02        71.99397
453.47        71.87357
453.91        71.76276
454.36        71.81891
454.80        71.69781
455.24        71.73347
455.69         71.7986
456.13        71.79189
456.58        71.72454
457.02        71.57813
457.46        71.36081
457.91        71.29955
458.35        70.98354
458.79        70.88976
459.24        70.92686
459.68        71.08687
460.13        71.32255
460.57        71.26742
461.01        71.42319
461.46        71.19449
461.90        70.79919
462.34        71.06548
462.79        71.20597
463.23        71.03805
463.68        70.43381
464.12        70.10596
464.56          70.102
465.01        70.04965
465.45        69.89977
465.89        69.90526
466.34        70.05602
466.78        70.12769
467.22        70.29919
467.67        70.19737
468.11        69.93063
468.55        69.62393
468.99        69.35822
469.44         69.1263
469.88        68.95365
470.32        68.90269
470.77        68.91551
471.21        68.88188
471.65        68.76956
472.10        68.63326
472.54         68.5099
472.98        68.49611
473.42        68.59857
473.87        68.77432
474.31        68.93606
474.75        68.98564
475.20        68.91689
475.64        68.77453
476.08        68.63029
476.52        68.42244
476.97        68.15057
477.41        68.04424
477.85        68.25449
478.29        67.51749
478.74        68.47818
479.18         68.3838
479.62        68.10107
480.06        68.01688
480.50        68.15192
480.95        68.00233
481.39        68.67056
481.83        67.65342
482.27        68.46092
482.72        68.29793
483.16        68.23582
483.60        68.27766
484.04          68.474
484.48        68.76063
484.93         68.9724
485.37        68.81122
485.81        68.51826
486.25        67.57983
486.69        68.87695
487.14        68.47655
487.58        67.61235
488.02        67.72105
488.46        68.48875
488.90        68.22043
489.34           67.73
489.79        68.10141
490.23        67.72495
490.67        67.87344
491.11        67.91318
491.55        67.68015
491.99        67.26037
492.43        67.12384
492.88        67.31544
493.32        67.59432
493.76        67.85059
494.20        68.03228
494.64        68.09128
495.08        68.06879
495.52        68.04486
495.96        67.95348
496.41        67.77396
496.85        68.03443
497.29        68.17157
497.73        67.54701
498.17        67.97398
498.61        67.68092
499.05        67.26246
499.49        66.90873
499.93        66.69537
500.37        66.79378
500.82        67.12043
501.26        67.26479
501.70        67.15282
502.14        67.43992
502.58        67.33412
503.02        67.41029
503.46        67.43521
503.90        67.44186
504.34        67.43798
504.78         67.4623
505.22        67.52575
505.66        67.59104
506.10        67.62575
506.54        67.65526
506.98        67.68442
507.42        67.57856
507.86        67.28706
508.30        67.49122
508.74        66.97189
509.18        66.74001
509.62        66.51596
510.06        66.46429
510.50        66.59768
510.94        66.88509
511.38        67.22548
511.82        67.41859
512.26        67.41795
512.70        67.25294
513.14        67.00432
513.58        66.87693
514.02        66.92641
514.46        66.81873
514.90        66.97691
515.34        66.99744
515.78        66.88477
516.22        66.75999
516.66        66.64424
517.10        66.61108
517.54        66.66676
517.98        66.78439
518.42        66.91255
518.86        66.95772
519.30        66.89627
519.74        66.79543
520.18        66.68745
520.62        66.53287
521.06        66.39618
521.50         66.4659
521.93        66.69509
522.37        66.81078
522.81        66.78962
523.25        66.75385
523.69        66.75972
524.13        66.84301
524.57        67.00878
525.01        67.23553
525.45        67.42371
525.89        67.41598
526.32        67.17959
526.76        66.79605
527.20        66.38693
527.64        66.14336
528.08        66.11098
528.52         66.2304
528.96        66.42204
529.40          66.557
529.83        66.58762
530.27        66.56046
530.71        66.49742
531.15        66.43882
531.59        66.39983
532.03        66.36131
532.46        66.31194
532.90        66.26806
533.34        66.22541
533.78         66.1912
534.22        66.16865
534.66        66.15703
535.09        66.14988
535.53        66.16037
535.97        66.17535
536.41        66.18951
536.85        66.19868
537.28        66.19674
537.72        66.18764
538.16        66.17353
538.60        66.15279
539.04         66.1264
539.47        66.07236
539.91         66.0117
540.35        65.93269
540.79        65.85105
541.22        65.77656
541.66        65.73603
542.10        65.73184
542.54        65.75911
542.97        65.81163
543.41        65.89857
543.85         66.0036
544.29        66.13286
544.72        66.22723
545.16        66.23133
545.60         66.1357
546.04        65.93506
546.47        65.71587
546.91        65.72083
547.35        65.93487
547.79        66.09572
548.22        66.13313
548.66        66.29296
549.10        66.56362
549.53        66.59798
549.97         66.2934
550.41        66.85761
550.84        66.29292
551.28        66.12347
551.72        65.78537
552.15        65.89416
552.59        65.65061
553.03        65.70937
553.46        65.80705
553.90        65.89937
554.34        65.95122
554.77        66.02458
555.21        66.12225
555.65        66.11185
556.08        66.02205
556.52        66.10677
556.96         66.3204
557.39        66.37823
557.83        66.30315
558.27        66.35819
558.70         66.5314
559.14        66.54955
559.57        66.42531
560.01        66.50356
560.45        66.72387
560.88        66.59121
561.32        66.44379
561.75        66.21117
562.19        66.05359
562.63        65.89803
563.06        65.78886
563.50        65.89191
563.93        66.10574
564.37        66.20589
564.80        66.14286
565.24        66.04314
565.68        65.94755
566.11        65.92636
566.55        66.00292
566.98        66.05446
567.42        66.13045
567.85        66.21381
568.29        66.28671
568.72         66.4546
569.16        66.83648
569.60        66.31519
570.03        66.79335
570.47        66.90745
570.90         67.1841
571.34         66.7832
571.77        67.04573
572.21        66.98993
572.64        67.02207
573.08         66.8238
573.51         66.4321
573.95         66.8755
574.38        67.26595
574.82         66.8745
