SpectraSmart Spectrum 2.9.0.0
--------- Device Information -----------
Spectrum Name :  反射率_0
Saving Time :  2024/04/30 00:38:22
Spectro-Module Model Name : SE2030-DUVN
Spectro-Module Serial Number : OS361AC55029948
Wavelength Start : 200
Wavelength End : 1025
Wavelength Unit : Wavelength(nm)
Spectrum Unit : Reflectance(%)
-----------Spectrum Setting ------------
Integration Time : 20ms
Average : 10
Boxcar : 0
Background removal :  enabled
linearity correction :  enabled
SC :  disabled
Intensity correction :  disabled
DWT denoise :  enabled
savitzky-golay :  disabled
FFT :  disabled
Running average :  disabled
Kalman :  disabled
High pass :  disabled
---------------BEGIN--------------------
Wavelength(nm)             Reflectance(%)
200.29               0
200.75        111.3851
201.21         92.5384
201.67        71.91106
202.13         54.2711
202.58        42.31398
203.04         35.6007
203.50        35.29144
203.96        42.56676
204.42        56.47667
204.88        75.45327
205.34        92.94231
205.80        99.65083
206.26        95.80465
206.72        86.78485
207.18        76.72023
207.64         67.6395
208.10        59.17258
208.55         50.2048
209.01        41.66547
209.47        37.70335
209.93        39.40813
210.39        44.87635
210.85        50.71976
211.31        54.22693
211.77        55.41057
212.23        54.62321
212.69        53.06315
213.14        55.06613
213.60        60.57174
214.06        66.78718
214.52        70.62325
214.98        70.29324
215.44        66.53243
215.90        60.30256
216.36        53.60245
216.81        50.44101
217.27        52.95159
217.73        61.01991
218.19        74.18967
218.65        85.75858
219.11        89.54647
219.57        87.04519
220.02        81.92427
220.48        77.51991
220.94        73.38804
221.40        67.94592
221.86        60.90747
222.32        54.96714
222.77        52.58332
223.23        53.54028
223.69        55.12953
224.15        55.41993
224.61        54.40736
225.06        52.34089
225.52        50.55264
225.98        51.45951
226.44         54.8188
226.90        58.73139
227.36         61.4598
227.81        61.86469
228.27        60.27285
228.73         57.1023
229.19         53.3129
229.65        51.16709
230.10        51.34552
230.56        52.88741
231.02         54.5322
231.48        55.22856
231.93        54.85769
232.39        53.84386
232.85        52.66714
233.31        52.24644
233.77         52.8638
234.22         54.3914
234.68        55.94049
235.14         55.9989
235.60        54.33266
236.05        51.53249
236.51        49.13296
236.97        49.10548
237.43        51.99767
237.88        57.99583
238.34        66.14529
238.80        72.80759
239.26        75.04444
239.71        73.30175
240.17        69.65018
240.63        67.65804
241.08         68.6131
241.54        72.34568
242.00        79.63448
242.46        88.21591
242.91        93.69864
243.37        94.59322
243.83        93.39587
244.28        94.47163
244.74        98.80683
245.20        105.0145
245.66        112.1479
246.11        117.7224
246.57        119.8965
247.03        120.7778
247.48        118.5005
247.94        110.0259
248.40        99.43602
248.85        89.75237
249.31        85.03524
249.77        86.83176
250.22        95.28592
250.68        112.3197
251.14        138.2916
251.59        154.1441
252.05        145.0098
252.51        125.5331
252.96         109.135
253.42        100.4115
253.88        96.24632
254.33        93.93798
254.79        92.52915
255.25        90.55612
255.70        87.97732
256.16        86.18643
256.62        85.14235
257.07        84.59064
257.53        84.71181
257.99        84.98568
258.44        84.63714
258.90        83.56007
259.35        81.53848
259.81        79.50977
260.27        77.72128
260.72        76.38415
261.18        75.63461
261.63        74.90491
262.09        74.14626
262.55         72.8868
263.00        71.11192
263.46        69.33762
263.91        67.52212
264.37        65.99245
264.83        64.64894
265.28        63.33719
265.74        62.25753
266.19        61.45293
266.65        60.99013
267.11        60.75541
267.56        60.50667
268.02        59.92398
268.47        58.89528
268.93        57.51505
269.38         55.9398
269.84        54.58447
270.30        53.57189
270.75        52.80216
271.21        52.12364
271.66        51.23424
272.12        50.08569
272.57        48.75669
273.03        47.42901
273.48        46.28638
273.94        45.45397
274.39        44.79504
274.85         44.2669
275.31        43.71053
275.76        43.04806
276.22        42.35376
276.67        41.60659
277.13        40.90261
277.58         40.1989
278.04        39.53397
278.49        38.80869
278.95        38.00591
279.40        37.08803
279.86        36.17043
280.31        35.30476
280.77          34.702
281.22        34.33804
281.68        34.17494
282.13        34.09842
282.59        34.01762
283.04        33.86348
283.50         33.6713
283.95         33.4023
284.41        33.03046
284.86        32.55859
285.32        32.05261
285.77        31.54843
286.22        31.18319
286.68        30.99086
287.13        30.89135
287.59        30.88374
288.04        30.89412
288.50        30.91004
288.95        30.90931
289.41        30.87074
289.86        30.71046
290.32        30.45916
290.77        30.15144
291.22        29.86267
291.68        29.70698
292.13        29.71795
292.59        29.90167
293.04        30.28786
293.50        30.95185
293.95        31.87828
294.40        33.04718
294.86        34.32533
295.31        35.51319
295.77        36.55369
296.22        37.48005
296.68        38.40696
297.13        39.49901
297.58        40.79939
298.04        42.21615
298.49        43.65931
298.95        44.99947
299.40         46.1982
299.85        47.32536
300.31         48.4299
300.76        49.50556
301.21        50.61276
301.67        51.77187
302.12         53.0192
302.58        54.55787
303.03        56.36403
303.48        58.29858
303.94        60.25103
304.39        62.40984
304.84        64.06335
305.30        65.80915
305.75        67.44895
306.20        69.06594
306.66        70.69323
307.11        72.25227
307.57        73.81821
308.02        75.39148
308.47        77.01363
308.93        78.69144
309.38        80.34256
309.83        81.90512
310.29        83.36082
310.74        84.71097
311.19        85.96923
311.65        87.15131
312.10        88.25201
312.55          89.277
313.00        90.29839
313.46        91.43462
313.91        92.67774
314.36        93.99125
314.82        95.24979
315.27        96.27644
315.72        97.00525
316.18        97.49927
316.63        97.82346
317.08        98.10064
317.53        98.39747
317.99        98.71507
318.44        99.06226
318.89        99.46458
319.35        99.92151
319.80        100.4288
320.25        101.0064
320.70        101.6773
321.16        102.3958
321.61        103.1851
322.06        103.8896
322.51        104.2839
322.97        104.3192
323.42        104.0696
323.87        103.7302
324.32        103.6382
324.78        103.8631
325.23        104.3895
325.68        105.0224
326.13        105.4239
326.59        105.4868
327.04        105.3483
327.49        105.2118
327.94        105.4589
328.39        106.1648
328.85        107.1466
329.30          108.21
329.75        108.8173
330.20        108.8209
330.66        108.3799
331.11        107.7787
331.56        107.3987
332.01        107.3993
332.46        107.6914
332.92        108.1797
333.37        108.8496
333.82        109.5898
334.27        110.4138
334.72        111.2855
335.17        112.1338
335.63        112.8893
336.08        113.5969
336.53         114.139
336.98        114.4159
337.43        114.4332
337.88        114.2333
338.34        114.0168
338.79        114.1229
339.24         114.623
339.69        115.4531
340.14         116.392
340.59        117.0444
341.05        117.3181
341.50        117.3418
341.95        117.3133
342.40         117.571
342.85        118.1848
343.30        118.9934
343.75        119.8648
344.20         120.596
344.66        121.1263
345.11         121.555
345.56        121.8197
346.01        121.8066
346.46        121.5589
346.91        121.1169
347.36        120.8057
347.81        121.1264
348.26        122.1314
348.72        123.6331
349.17        125.2254
349.62        126.1355
350.07        126.1589
350.52        125.5583
350.97        124.6893
351.42        124.1032
351.87         123.976
352.32        124.1333
352.77        124.5155
353.22        125.0337
353.67        125.5929
354.13        126.1952
354.58        126.6875
355.03         126.803
355.48        126.4765
355.93        125.7646
356.38        124.7907
356.83        123.7657
357.28        122.7811
357.73        121.8224
358.18        120.9084
358.63        120.0537
359.08        119.2633
359.53         118.552
359.98        117.9243
360.43        117.3663
360.88         116.864
361.33        116.4136
361.78         115.952
362.23        115.3885
362.68         114.707
363.13        113.9215
363.58        113.1301
364.03        112.4949
364.48        112.0408
364.93         111.714
365.38        111.3868
365.83        110.8565
366.28        110.0836
366.73        109.1418
367.18        108.1543
367.63        107.3098
368.08        106.6542
368.53         106.127
368.98        105.6558
369.43        105.1184
369.88        104.4906
370.33        103.8411
370.78        103.1964
371.23         102.598
371.68        102.0608
372.13        101.5321
372.58        101.0742
373.03        100.7956
373.48        100.6748
373.93        100.6629
374.38        100.5372
374.83         99.9419
375.28        98.84596
375.72        97.38289
376.17        95.92189
376.62        94.83062
377.07        94.19492
377.52        93.88699
377.97        93.78339
378.42        93.68325
378.87        93.49612
379.32        93.26766
379.77        92.98005
380.22        92.59856
380.67         92.1174
381.11        91.53352
381.56        90.86623
382.01        90.18765
382.46        89.55025
382.91         88.9707
383.36        88.47624
383.81        88.09211
384.26        87.80539
384.71         87.5875
385.15        87.39822
385.60        87.23208
386.05        87.04472
386.50        86.84299
386.95        86.56153
387.40        86.11365
387.85        85.52155
388.29        84.78484
388.74        84.15407
389.19         83.7523
389.64        83.59308
390.09        83.59977
390.54        83.66144
390.98        83.59497
391.43        83.38678
391.88         83.0323
392.33        82.55967
392.78        82.18317
393.23        81.89368
393.67        81.28232
394.12        80.49446
394.57         80.4488
395.02        79.98935
395.47        79.89396
395.91        79.80811
396.36        79.75116
396.81        79.70921
397.26        79.68846
397.71        79.61633
398.15        79.32812
398.60        78.91492
399.05         78.3668
399.50        77.81351
399.95        77.56516
400.39        77.35853
400.84        77.60664
401.29         78.0172
401.74        78.07441
402.18        77.68873
402.63        77.05521
403.08        76.44505
403.53        76.18671
403.97        76.34156
404.42        76.79053
404.87        77.27383
405.32        77.36533
405.76         76.9675
406.21          76.312
406.66        75.60218
407.11        75.08463
407.55        74.93503
408.00        75.15659
408.45         75.6226
408.90        76.16169
409.34        76.51454
409.79        76.18704
410.24        75.43449
410.68        75.18373
411.13        75.52052
411.58        75.94173
412.03         76.2589
412.47        76.37644
412.92        76.19484
413.37        75.79496
413.81        75.28722
414.26        74.91022
414.71        74.68783
415.15        74.57697
415.60        74.52348
416.05        74.48621
416.49        74.45488
416.94        74.45719
417.39        74.47672
417.83        74.46243
418.28        74.41227
418.73        74.32089
419.17        74.25912
419.62        74.36404
420.07        74.63541
420.51        75.00339
420.96        75.35545
421.41        75.47259
421.85        75.29535
422.30        74.97618
422.74         74.5755
423.19        74.29192
423.64        74.14407
424.08        74.10714
424.53        74.14117
424.98        74.24622
425.42        74.39783
425.87        74.63013
426.31         74.8513
426.76        74.78732
427.21        74.31217
427.65        74.26107
428.10         74.4997
428.54        74.15553
428.99        73.43082
429.44        73.27132
429.88        73.64549
430.33        73.85554
430.77        73.81137
431.22        74.16626
431.66        74.76159
432.11        74.60783
432.56        73.86591
433.00        73.66022
433.45        74.14993
433.89        74.62148
434.34        75.05525
434.78        75.78413
435.23        74.65295
435.67        74.08952
436.12        73.76651
436.57        73.80138
437.01         73.9922
437.46        75.02572
437.90        74.44906
438.35        74.66807
438.79        74.97427
439.24        75.27716
439.68        75.49503
440.13        75.48395
440.57        75.33203
441.02        75.37245
441.46        75.59585
441.91        75.79154
442.35        75.82011
442.80        75.97649
443.24        76.11693
443.69        75.78377
444.13        75.12093
444.58        74.77109
445.02        74.71564
445.47        74.76696
445.91        74.87331
446.36         74.8649
446.80        74.65092
447.24        75.15068
447.69        74.84243
448.13         74.9362
448.58         75.0061
449.02        75.10178
449.47        75.21819
449.91          75.307
450.36        75.38961
450.80        75.45452
451.25        75.52358
451.69        75.58324
452.13        75.63575
452.58        75.70684
453.02        75.76402
453.47        75.75228
453.91        75.64403
454.36        75.62653
454.80        75.42714
455.24        75.42076
455.69        75.43079
456.13        75.51184
456.58        75.77423
457.02        74.71354
457.46        75.31337
457.91        75.06236
458.35        74.84083
458.79        74.71744
459.24        74.75056
459.68        74.90115
460.13        75.06723
460.57        74.92488
461.01         75.0187
461.46        74.51875
461.90        73.80369
462.34        74.40456
462.79        74.98415
463.23        74.90638
463.68        73.94614
464.12        73.51602
464.56        73.64857
465.01        73.68704
465.45        73.57197
465.89        73.40051
466.34        73.21454
466.78        73.71926
467.22         74.0448
467.67        74.02911
468.11        73.70799
468.55        73.25919
468.99        72.89041
469.44         72.5728
469.88        72.36882
470.32        72.33873
470.77        72.40933
471.21        72.45141
471.65        72.40919
472.10        72.32785
472.54        72.26112
472.98        72.28184
473.42        72.38289
473.87        72.68272
474.31        73.01072
474.75        72.77046
475.20        72.13957
475.64        72.03684
476.08        72.42974
476.52        72.41117
476.97        71.94759
477.41        71.68476
477.85        71.80779
478.29         71.2203
478.74        72.08163
479.18         72.0058
479.62        71.67776
480.06        71.61228
480.50         71.8346
480.95        71.58998
481.39        72.03687
481.83        71.62218
482.27        71.99961
482.72        72.44147
483.16        72.37498
483.60        72.42297
484.04        72.59627
484.48        72.66297
484.93        72.65492
485.37         72.4671
485.81         71.5034
486.25        71.32064
486.69        72.84235
487.14        72.21363
487.58        71.05626
488.02        71.90974
488.46        72.17966
488.90        71.76618
489.34        71.18924
489.79        72.07969
490.23        71.09792
490.67        71.38272
491.11        71.69254
491.55        71.43221
491.99        70.71777
492.43        70.47436
492.88        70.78671
493.32        71.15539
493.76        71.44172
494.20        71.65887
494.64        71.75201
495.08        71.71276
495.52        71.59287
495.96        71.44833
496.41        71.32406
496.85        71.28671
497.29        71.29531
497.73        71.09692
498.17        71.01815
498.61        70.68996
499.05        70.34254
499.49        70.35356
499.93        70.64775
500.37        70.77586
500.82        70.71922
501.26        70.71303
501.70        70.71577
502.14        71.05894
502.58        70.80514
503.02        70.90443
503.46        71.08165
503.90        71.31229
504.34        71.52099
504.78        71.59735
505.22        71.50282
505.66        71.31603
506.10        71.13734
506.54        70.97486
506.98        70.82836
507.42        71.43178
507.86        71.03091
508.30        71.45631
508.74        70.89674
509.18        70.51347
509.62        70.08279
510.06        69.92385
510.50        70.09754
510.94        70.50768
511.38         70.9847
511.82        71.21064
512.26        71.10699
512.70        70.77084
513.14        70.33933
513.58        70.08362
514.02        70.08159
514.46        70.14102
514.90        70.15564
515.34        70.56977
515.78        70.37189
516.22        70.38083
516.66        70.34515
517.10        70.33817
517.54        70.36544
517.98        70.41245
518.42        70.45104
518.86        70.41826
519.30        70.30914
519.74        70.14994
520.18        69.99384
520.62         69.9166
521.06        69.93925
521.50        70.04839
521.93        70.20526
522.37        70.30444
522.81        70.32451
523.25        70.31022
523.69         70.3221
524.13        70.29364
524.57        70.49524
525.01        70.68711
525.45        70.85823
525.89        70.86253
526.32        70.66943
526.76        70.35127
527.20        70.01356
527.64        69.83044
528.08        69.83953
528.52        69.98131
528.96         70.1739
529.40        70.29491
529.83        70.29547
530.27        70.20565
530.71         70.0657
531.15        69.96349
531.59        69.92239
532.03        69.90524
532.46        69.88911
532.90        69.87696
533.34        69.85661
533.78        69.83741
534.22        69.82392
534.66        69.81788
535.09        69.81377
535.53        69.82444
535.97        69.83511
536.41        69.83968
536.85        69.83551
537.28        69.81817
537.72        69.79876
538.16        69.78919
538.60          69.788
539.04        69.79073
539.47        69.76535
539.91        69.72052
540.35        69.64035
540.79        69.54638
541.22        69.45097
541.66        69.38578
542.10        69.35789
542.54        69.36388
542.97        69.40464
543.41        69.50149
543.85        69.63805
544.29        69.81506
544.72        69.96277
545.16        70.01099
545.60        69.94359
546.04        69.75517
546.47        69.53204
546.91        69.52479
547.35        69.71819
547.79        69.83854
548.22        69.82336
548.66        69.94911
549.10        70.21135
549.53        70.24546
549.97        69.93758
550.41        70.55962
550.84        70.00209
551.28        69.84459
551.72        69.50451
552.15        69.71568
552.59        69.59788
553.03        69.69089
553.46        69.72344
553.90        69.78001
554.34        69.82727
554.77        69.86512
555.21        69.89515
555.65         69.7917
556.08        69.61078
556.52        69.66321
556.96        69.89141
557.39        69.98228
557.83        69.94569
558.27        69.95282
558.70        70.03419
559.14        70.16921
559.57        70.29755
560.01        70.38239
560.45        70.40467
560.88        70.19502
561.32        70.13676
561.75        70.02717
562.19        69.98363
562.63        69.85017
563.06        69.66855
563.50        69.70383
563.93        69.87717
564.37        69.93691
564.80         69.8425
565.24        69.74585
565.68         69.6707
566.11        69.65341
566.55        69.70598
566.98        69.70084
567.42        69.72263
567.85        69.78263
568.29        69.85695
568.72         70.1379
569.16        70.74427
569.60        70.12014
570.03        70.37639
570.47        70.76077
570.90         70.9516
571.34        70.09518
571.77        70.76632
572.21        70.76321
572.64        70.83966
573.08         70.7765
573.51        70.40677
573.95        70.66687
574.38        71.26534
574.82        71.27719
