SpectraSmart Spectrum 2.9.0.0
--------- Device Information -----------
Spectrum Name :  反射率_0
Saving Time :  2024/04/30 00:29:03
Spectro-Module Model Name : SE2030-DUVN
Spectro-Module Serial Number : OS361AC55029948
Wavelength Start : 200
Wavelength End : 1025
Wavelength Unit : Wavelength(nm)
Spectrum Unit : Reflectance(%)
-----------Spectrum Setting ------------
Integration Time : 20ms
Average : 10
Boxcar : 0
Background removal :  enabled
linearity correction :  enabled
SC :  disabled
Intensity correction :  disabled
DWT denoise :  enabled
savitzky-golay :  disabled
FFT :  disabled
Running average :  disabled
Kalman :  disabled
High pass :  disabled
---------------BEGIN--------------------
Wavelength(nm)             Reflectance(%)
200.29               0
200.75        90.09626
201.21        77.91008
201.67        65.56493
202.13        56.39599
202.58        52.12183
203.04        51.86948
203.50        55.91911
203.96        64.59161
204.42        76.21458
204.88        89.14957
205.34        97.55082
205.80        94.31221
206.26        82.64257
206.72        69.15993
207.18        57.48424
207.64        49.04564
208.10        42.92682
208.55        37.28499
209.01        33.87144
209.47        37.06117
209.93        45.97552
210.39         57.6041
210.85        66.70013
211.31        69.04652
211.77        64.47321
212.23        52.16946
212.69        34.47723
213.14        26.67983
213.60        36.14563
214.06        54.15596
214.52        69.49791
214.98        74.99496
215.44        72.01826
215.90         63.5797
216.36        53.32673
216.81        48.17951
217.27        51.74924
217.73        63.60923
218.19        82.72956
218.65        98.90092
219.11        103.3182
219.57        98.69478
220.02        91.69534
220.48        88.15427
220.94        87.69624
221.40        88.52939
221.86        88.27841
222.32        82.53382
222.77        72.69912
223.23        64.39537
223.69        58.76469
224.15        55.12753
224.61        52.54544
225.06        50.16954
225.52        49.09861
225.98        51.22788
226.44        55.69527
226.90        60.62748
227.36         63.8664
227.81        63.92809
228.27        61.23413
228.73        56.20131
229.19        50.39401
229.65        47.50745
230.10        48.47748
230.56         51.5977
231.02        54.70839
231.48        55.96725
231.93        55.30426
232.39        53.45528
232.85        51.35234
233.31        50.72182
233.77        52.08868
234.22        55.06145
234.68        58.31527
235.14         59.4985
235.60        58.09238
236.05        54.98033
236.51        52.05127
236.97          51.764
237.43        54.83506
237.88          61.335
238.34        70.39759
238.80        78.41331
239.26        82.19352
239.71        82.03835
240.17        79.68267
240.63        78.48672
241.08        79.85049
241.54        83.49099
242.00        90.16615
242.46        98.07837
242.91        103.4567
243.37        104.7169
243.83        104.3155
244.28        106.4544
244.74        112.1381
245.20        120.2878
245.66        129.2516
246.11        134.7761
246.57        134.2042
247.03        129.8081
247.48        121.6859
247.94        111.5804
248.40        103.6694
248.85         97.9231
249.31        96.09405
249.77        98.35587
250.22        104.8317
250.68        117.3086
251.14        135.2489
251.59        143.1859
252.05         132.144
252.51        115.0735
252.96        102.1834
253.42        96.74854
253.88        96.09712
254.33        98.13147
254.79        101.8563
255.25        104.3348
255.70         104.298
256.16        103.6236
256.62         102.945
257.07        102.6209
257.53        103.1169
257.99        103.7752
258.44        103.6582
258.90        102.5735
259.35        100.2262
259.81        97.74931
260.27        95.57191
260.72        94.03973
261.18        93.32101
261.63        92.71462
262.09         91.9194
262.55        90.05002
263.00        87.17226
263.46        84.10556
263.91        81.18986
264.37        79.28802
264.83        78.24024
265.28        77.65022
265.74        77.33312
266.19        76.70583
266.65        75.75802
267.11        74.60651
267.56        73.34938
268.02        72.15502
268.47        70.99886
268.93        69.82302
269.38        68.57603
269.84         67.3281
270.30        66.10253
270.75        64.91458
271.21        63.78363
271.66        62.61607
272.12        61.40283
272.57        60.11579
273.03        58.80027
273.48        57.43493
273.94        56.12484
274.39         54.8205
274.85        53.63056
275.31        52.55864
275.76         51.5682
276.22         50.7104
276.67        49.87544
277.13        49.06129
277.58        48.19117
278.04        47.33291
278.49        46.46973
278.95        45.72556
279.40        45.04592
279.86        44.48843
280.31        43.92313
280.77        43.31926
281.22        42.62469
281.68        41.92408
282.13        41.29013
282.59        40.91566
283.04        40.76742
283.50        40.78326
283.95        40.79046
284.41        40.57322
284.86        40.07505
285.32        39.44234
285.77        38.75252
286.22        38.21188
286.68        37.88419
287.13        37.66166
287.59        37.56376
288.04        37.54376
288.50        37.59623
288.95        37.68976
289.41        37.78157
289.86         37.7372
290.32        37.58199
290.77        37.35976
291.22        37.16138
291.68        37.12582
292.13        37.28765
292.59         37.6447
293.04         38.2166
293.50        39.08035
293.95        40.21626
294.40        41.61216
294.86         43.1282
295.31        44.55176
295.77        45.82104
296.22        46.96296
296.68        48.10801
297.13        49.44231
297.58        51.01212
298.04        52.72376
298.49         54.4425
298.95        55.98208
299.40        57.29086
299.85        58.45308
300.31        59.59683
300.76        60.82277
301.21         62.2108
301.67        63.75821
302.12        65.38669
302.58        67.13021
303.03        68.93427
303.48        70.75187
303.94        72.62402
304.39        74.82255
304.84         76.8884
305.30        79.15898
305.75        81.33938
306.20         83.2732
306.66         84.9469
307.11        86.35196
307.57        87.68323
308.02        89.09428
308.47        90.67693
308.93        92.38699
309.38        94.09296
309.83        95.67059
310.29        97.08669
310.74        98.37331
311.19        99.56349
311.65        100.6907
312.10        101.7555
312.55        102.7594
313.00        103.7826
313.46        104.9596
313.91        106.2804
314.36        107.7004
314.82        109.0768
315.27        110.2081
315.72        111.0123
316.18        111.5485
316.63         111.881
317.08        112.1336
317.53        112.3808
317.99        112.6386
318.44        112.9098
318.89        113.2125
319.35         113.554
319.80        113.9337
320.25        114.4307
320.70        115.1592
321.16        116.0799
321.61        117.1937
322.06        118.2324
322.51        118.7817
322.97        118.7477
323.42         118.262
323.87         117.641
324.32        117.4213
324.78         117.722
325.23        118.4758
325.68        119.3992
326.13        120.0032
326.59        120.1232
327.04        119.9422
327.49        119.7141
327.94        119.9072
328.39        120.6226
328.85         121.643
329.30        122.7403
329.75        123.2942
330.20        123.1483
330.66        122.5053
331.11        121.7267
331.56        121.2975
332.01        121.4064
332.46        121.9297
332.92        122.7207
333.37        123.6953
333.82        124.6927
334.27        125.7354
334.72        126.7738
335.17        127.7227
335.63        128.5089
336.08        129.1846
336.53        129.6489
336.98        129.8503
337.43        129.8109
337.88        129.5634
338.34        129.3113
338.79        129.3908
339.24        129.8677
339.69        130.6876
340.14        131.5936
340.59        132.1283
341.05        132.1995
341.50        131.9633
341.95        131.6909
342.40        131.8391
342.85        132.4971
343.30        133.4572
343.75        134.5214
344.20        135.3769
344.66        135.9286
345.11        136.3138
345.56        136.4741
346.01        136.3082
346.46        135.8763
346.91        135.2055
347.36        134.6862
347.81        134.9195
348.26        135.9647
348.72        137.6096
349.17        139.3391
349.62        140.1819
350.07        139.9044
350.52        138.8503
350.97        137.5233
351.42        136.6967
351.87        136.5929
352.32        136.9548
352.77        137.6311
353.22        138.3852
353.67         139.061
354.13        139.6982
354.58        140.1389
355.03         140.108
355.48        139.5602
355.93        138.5618
356.38        137.2896
356.83        136.0438
357.28        134.9324
357.73        133.9091
358.18        132.9734
358.63        132.1006
359.08        131.2739
359.53        130.5237
359.98        129.7996
360.43        129.0036
360.88        128.1201
361.33        127.1694
361.78        126.2122
362.23        125.3537
362.68        124.6178
363.13        123.9702
363.58        123.3647
364.03        122.7269
364.48        122.0301
364.93        121.2915
365.38        120.5328
365.83        119.7946
366.28        119.0893
366.73        118.3997
367.18        117.7043
367.63        116.9701
368.08        116.1841
368.53        115.3592
368.98        114.5198
369.43        113.6959
369.88         112.919
370.33        112.2194
370.78        111.5765
371.23        110.9593
371.68        110.3564
372.13        109.7307
372.58        109.1913
373.03         108.916
373.48        108.8865
373.93        109.0247
374.38        109.0054
374.83        108.3123
375.28        106.9018
375.72        104.9841
376.17        103.0781
376.62        101.7529
377.07        101.1328
377.52        101.0153
377.97        101.1986
378.42        101.3441
378.87        101.3059
379.32        101.1744
379.77        100.9155
380.22        100.4723
380.67        99.84939
381.11         99.0338
381.56        98.13432
382.01         97.3839
382.46        96.85734
382.91        96.52221
383.36         96.2671
383.81        95.89674
384.26        95.36539
384.71        94.73446
385.15         94.0923
385.60        93.63898
386.05         93.3836
386.50        93.25305
386.95        93.13522
387.40        92.87106
387.85        92.43472
388.29        91.83774
388.74        91.28327
389.19        90.80775
389.64        90.42944
390.09         90.0984
390.54        89.79987
390.98        89.54179
391.43        89.36311
391.88        89.13892
392.33        88.82464
392.78        88.66916
393.23        88.55806
393.67        87.80947
394.12        86.68819
394.57        86.54414
395.02        86.16254
395.47        86.26731
395.91        86.27873
396.36          86.259
396.81        86.13319
397.26        85.93647
397.71        85.69784
398.15        85.38057
398.60        85.09389
399.05        84.80731
399.50        84.53304
399.95        84.33195
400.39        83.92787
400.84        84.03989
401.29        84.40067
401.74        84.33171
402.18        83.76751
402.63        83.03574
403.08        82.39825
403.53        82.09747
403.97        82.17564
404.42        82.52505
404.87        82.92564
405.32         82.9773
405.76        82.58334
406.21        82.07145
406.66        81.52223
407.11        80.78844
407.55        80.14956
408.00        80.10143
408.45        80.59756
408.90         81.3543
409.34        81.98973
409.79        81.67754
410.24        80.71803
410.68         80.4743
411.13        81.03511
411.58        81.59084
412.03        81.89617
412.47        81.92997
412.92        81.59364
413.37        80.96649
413.81        80.21024
414.26        79.64438
414.71        79.31047
415.15        79.14233
415.60        79.09969
416.05        79.15942
416.49        79.29372
416.94        79.51722
417.39        79.72048
417.83        79.69991
418.28        79.43204
418.73        78.96734
419.17        78.48402
419.62        78.29392
420.07        78.43333
420.51        78.77374
420.96        79.17095
421.41        79.27532
421.85        78.98501
422.30        78.71616
422.74        78.47036
423.19         77.7994
423.64        76.92577
424.08        77.06444
424.53        78.13269
424.98        78.06991
425.42        78.44753
425.87        78.26668
426.31        78.12906
426.76        77.77718
427.21        77.21815
427.65        77.41904
428.10        78.06174
428.54         77.8802
428.99        77.01445
429.44        76.52502
429.88        76.51333
430.33        76.62141
430.77        76.72186
431.22        77.02419
431.66        77.38305
432.11        77.21062
432.56         76.5315
433.00        76.22388
433.45        76.59878
433.89        76.48702
434.34        77.02373
434.78        78.70348
435.23        76.27439
435.67        75.63698
436.12        75.41191
436.57        75.45826
437.01        75.60538
437.46         76.2261
437.90        75.97969
438.35         76.3699
438.79        76.91862
439.24        77.13616
439.68        77.01413
440.13        77.00707
440.57         77.1949
441.02        77.20962
441.46        76.99206
441.91        77.31178
442.35        77.46307
442.80        76.94839
443.24        76.69743
443.69        76.44856
444.13        76.49935
444.58         76.4181
445.02        76.17541
445.47        76.06104
445.91        76.07433
446.36        76.08949
446.80        76.06963
447.24        76.23228
447.69        76.25164
448.13        76.32412
448.58        76.36531
449.02        76.36349
449.47        76.34961
449.91        76.34291
450.36        76.36856
450.80        76.40096
451.25        76.43878
451.69        76.43613
452.13        76.38599
452.58           76.34
453.02        76.32719
453.47        76.24884
453.91        76.19333
454.36         76.3705
454.80        76.43707
455.24        76.18292
455.69         76.2916
456.13         76.1417
456.58         76.0035
457.02        75.84986
457.46        75.71661
457.91          75.605
458.35        75.48562
458.79        75.45451
459.24        75.54053
459.68        75.63528
460.13        75.68951
460.57        75.83588
461.01        75.67248
461.46        75.42147
461.90        75.06031
462.34        75.02622
462.79        75.20255
463.23        75.03376
463.68        74.54386
464.12        74.24329
464.56        74.18015
465.01        73.99852
465.45        73.71066
465.89        73.80879
466.34        74.21812
466.78        74.32119
467.22        74.31271
467.67        74.17289
468.11        74.00108
468.55        73.59705
468.99        73.07475
469.44         72.6918
469.88        72.49565
470.32        72.43584
470.77         72.4479
471.21        72.44638
471.65        72.38923
472.10        72.32988
472.54        72.28541
472.98        72.30931
473.42        72.39986
473.87        72.55486
474.31        72.70943
474.75        72.72373
475.20         72.6232
475.64        72.63816
476.08        72.76768
476.52        72.60746
476.97        72.10717
477.41        72.08749
477.85        71.81948
478.29        71.20976
478.74        71.87181
479.18        72.00842
479.62        71.71997
480.06        71.73087
480.50        71.91652
480.95        71.62474
481.39        72.05046
481.83        71.47955
482.27        72.03255
482.72        72.31274
483.16        72.00348
483.60        72.06415
484.04         72.2476
484.48        72.31265
484.93        72.21942
485.37        72.27795
485.81        71.68714
486.25        71.30523
486.69        72.45496
487.14        71.54734
487.58         71.0077
488.02        71.27153
488.46        72.02652
488.90        71.47642
489.34        71.16058
489.79        71.83556
490.23        71.30162
490.67        71.27822
491.11          71.007
491.55        70.81001
491.99        70.69162
492.43        70.60701
492.88         70.5743
493.32        70.64086
493.76        70.79299
494.20        70.96783
494.64        71.13152
495.08        71.37476
495.52        71.61264
495.96        71.51078
496.41        71.13666
496.85         71.1368
497.29        70.94969
497.73        71.12804
498.17        70.75758
498.61        70.58135
499.05        70.44862
499.49        70.44421
499.93        70.50312
500.37        70.56565
500.82        70.68203
501.26        70.35296
501.70        70.44614
502.14        70.73017
502.58         70.6254
503.02        70.41019
503.46        70.78846
503.90        70.75961
504.34        70.94804
504.78        70.97367
505.22        70.93461
505.66        70.84291
506.10        70.73567
506.54        70.61609
506.98        70.45758
507.42        70.77395
507.86        70.20385
508.30        70.50121
508.74        69.99743
509.18         69.7551
509.62        69.49273
510.06        69.44165
510.50         69.6325
510.94        70.00039
511.38        70.41428
511.82        70.61897
512.26        70.55299
512.70        70.29311
513.14        69.96708
513.58        69.77424
514.02        69.76987
514.46        69.89149
514.90        70.06697
515.34         70.1817
515.78        70.19593
516.22        70.14664
516.66        70.07162
517.10        70.02259
517.54        70.01404
517.98        70.02628
518.42        70.02326
518.86        69.95481
519.30        69.81502
519.74        69.62583
520.18        69.44735
520.62        69.36467
521.06        69.39918
521.50        69.53642
521.93        69.71158
522.37        69.79347
522.81        69.76136
523.25         69.6411
523.69        69.52726
524.13        69.56951
524.57        69.78637
525.01        70.11938
525.45        70.43752
525.89        70.52958
526.32        70.34304
526.76        69.98067
527.20        69.56647
527.64        69.29485
528.08        69.21916
528.52        69.27642
528.96        69.41383
529.40        69.54646
529.83        69.63288
530.27        69.70997
530.71        69.75686
531.15         69.7442
531.59        69.67218
532.03         69.5407
532.46        69.38477
532.90        69.29621
533.34        69.28699
533.78        69.34069
534.22        69.41405
534.66        69.43606
535.09        69.38541
535.53        69.29906
535.97        69.20803
536.41        69.17705
536.85        69.21815
537.28        69.30129
537.72        69.38702
538.16        69.40926
538.60        69.35091
539.04        69.23715
539.47        69.08387
539.91        68.97075
540.35        68.89862
540.79         68.8634
541.22        68.84685
541.66        68.83263
542.10        68.81185
542.54        68.79675
542.97        68.79979
543.41        68.85861
543.85        68.96434
544.29        69.11236
544.72        69.23256
545.16          69.256
545.60        69.16678
546.04        68.96092
546.47        68.72917
546.91        68.72466
547.35        68.93317
547.79        69.08421
548.22        69.10145
548.66        69.23752
549.10        69.48384
549.53        69.48058
549.97        69.14004
550.41        69.75896
550.84        69.25604
551.28        69.18499
551.72        68.92531
552.15        69.12209
552.59        68.90032
553.03        68.85345
553.46        68.75497
553.90        68.72675
554.34        68.75518
554.77        68.83175
555.21        68.92462
555.65        68.87912
556.08        68.72572
556.52         68.7068
556.96         68.8211
557.39        68.92987
557.83         69.0052
558.27        69.04971
558.70        69.11363
559.14         68.9882
559.57        69.29465
560.01        69.31422
560.45        69.25747
560.88        69.06708
561.32        69.10187
561.75        69.07584
562.19        69.06373
562.63        68.85338
563.06        68.52597
563.50        68.51875
563.93        68.76133
564.37        68.85237
564.80        68.75225
565.24         68.7336
565.68        68.78156
566.11        68.78992
566.55         68.7835
566.98        68.71736
567.42        68.70197
567.85        68.81771
568.29        69.00141
568.72        69.21872
569.16        69.57904
569.60        68.91571
570.03        69.34456
570.47        69.57771
570.90        69.41646
571.34        69.30395
571.77         69.4358
572.21        69.53706
572.64        69.67414
573.08         69.6386
573.51        69.11738
573.95        69.62501
574.38        69.95867
574.82        69.68999
