SpectraSmart Spectrum 2.9.0.0
--------- Device Information -----------
Spectrum Name :  反射率_0
Saving Time :  2024/04/29 23:59:00
Spectro-Module Model Name : SE2030-DUVN
Spectro-Module Serial Number : OS361AC55029948
Wavelength Start : 200
Wavelength End : 1025
Wavelength Unit : Wavelength(nm)
Spectrum Unit : Reflectance(%)
-----------Spectrum Setting ------------
Integration Time : 20ms
Average : 10
Boxcar : 0
Background removal :  enabled
linearity correction :  enabled
SC :  disabled
Intensity correction :  disabled
DWT denoise :  enabled
savitzky-golay :  disabled
FFT :  disabled
Running average :  disabled
Kalman :  disabled
High pass :  disabled
---------------BEGIN--------------------
Wavelength(nm)             Reflectance(%)
200.29               0
200.75        56.67142
201.21        51.51439
201.67        47.40895
202.13        45.67527
202.58        46.87436
203.04        50.68884
203.50        57.18732
203.96        66.54596
204.42         77.0779
204.88         86.8308
205.34        90.59493
205.80        83.03964
206.26        68.35564
206.72        53.04086
207.18         40.5325
207.64        31.91323
208.10        25.98227
208.55         20.8867
209.01        17.87954
209.47        20.36637
209.93        27.58442
210.39        37.21584
210.85        44.68679
211.31        46.22481
211.77        41.62981
212.23        30.02993
212.69        13.96578
213.14         8.33855
213.60        19.59904
214.06        38.72506
214.52        54.61103
214.98        60.41128
215.44        57.70019
215.90        49.43043
216.36        39.38451
216.81        34.76768
217.27        39.33271
217.73        52.66288
218.19        73.55963
218.65        90.72091
219.11         94.6446
219.57        88.65659
220.02        79.99384
220.48        74.44218
220.94        71.44871
221.40        68.83361
221.86         64.7768
222.32        57.71294
222.77        49.86796
223.23        44.60854
223.69        41.49044
224.15        39.09533
224.61        36.78713
225.06        34.27797
225.52        32.62548
225.98         33.7398
226.44        37.22572
226.90        41.33647
227.36         44.4646
227.81        45.70787
228.27        45.36229
228.73        43.77432
229.19        41.64872
229.65        40.54512
230.10        40.87185
230.56        41.96095
231.02        42.89994
231.48        42.88297
231.93         41.8259
232.39        40.06602
232.85        38.08627
233.31        36.85997
233.77        36.70506
234.22        37.45907
234.68        38.36367
235.14        38.06805
235.60        36.37537
236.05        33.90395
236.51        31.80384
236.97         31.4924
237.43        33.36299
237.88        37.43713
238.34         43.3341
238.80        49.17299
239.26        52.98802
239.71        54.75958
240.17         54.9094
240.63        54.97881
241.08        55.73003
241.54        56.74813
242.00         58.6811
242.46        62.73092
242.91        68.91018
243.37        75.68474
243.83        81.04597
244.28        84.28635
244.74        85.78861
245.20        85.22733
245.66        83.33495
246.11        82.17694
246.57        82.83555
247.03        85.77021
247.48        88.61454
247.94         86.0425
248.40        79.39538
248.85        72.09258
249.31        67.83281
249.77        67.87843
250.22        72.17229
250.68        81.53708
251.14        95.85866
251.59        103.9296
252.05        97.78587
252.51        86.23389
252.96        76.99553
253.42         72.7989
253.88        71.68475
254.33        71.86602
254.79        72.41991
255.25        71.39422
255.70        68.73196
256.16        66.16251
256.62        64.03426
257.07        62.26548
257.53        60.99094
257.99        59.83775
258.44         58.4892
258.90        57.33481
259.35        56.15113
259.81        55.26448
260.27         54.5626
260.72         53.9825
261.18        53.57807
261.63        53.01511
262.09        52.32418
262.55        51.25581
263.00        49.82675
263.46        48.39075
263.91        46.84657
264.37        45.30882
264.83        43.72816
265.28        42.03985
265.74        40.57452
266.19        39.64206
266.65        39.32079
267.11        39.43166
267.56        39.57368
268.02        39.16097
268.47        38.06315
268.93        36.45644
269.38        34.66677
269.84        33.39089
270.30        32.80852
270.75        32.71096
271.21        32.75467
271.66        32.42044
272.12        31.59143
272.57        30.42128
273.03        29.18398
273.48        28.22449
273.94          27.688
274.39        27.41261
274.85        27.23721
275.31        26.88901
275.76        26.30357
276.22        25.59753
276.67         24.9037
277.13        24.47741
277.58        24.30646
278.04        24.31919
278.49         24.2949
278.95        24.00326
279.40        23.38335
279.86        22.60001
280.31        21.79997
280.77        21.29913
281.22        21.12152
281.68        21.17666
282.13        21.32952
282.59         21.4275
283.04         21.4086
283.50        21.31583
283.95        21.15936
284.41        20.95205
284.86        20.71009
285.32        20.47087
285.77        20.22239
286.22        20.01213
286.68         19.8667
287.13        19.74567
287.59         19.7225
288.04        19.85407
288.50        20.13556
288.95        20.50264
289.41        20.83903
289.86        20.94301
290.32        20.81627
290.77        20.54451
291.22        20.25785
291.68        20.15742
292.13        20.30549
292.59        20.66719
293.04         21.2615
293.50        22.13698
293.95        23.27608
294.40        24.67351
294.86        26.18124
295.31        27.56939
295.77        28.78226
296.22        29.86878
296.68        30.99066
297.13        32.38748
297.58        34.12046
298.04        36.07827
298.49         38.1214
298.95         40.0407
299.40         41.7709
299.85        43.38183
300.31        44.96612
300.76        46.59087
301.21        48.32099
301.67        50.15548
302.12        52.03952
302.58        54.03939
303.03        56.12672
303.48        58.22064
303.94        60.35902
304.39        62.94903
304.84        65.31619
305.30        67.96114
305.75        70.53039
306.20        72.85967
306.66        74.91734
307.11        76.69539
307.57        78.36305
308.02        80.06123
308.47        81.87183
308.93        83.74471
309.38        85.56678
309.83          87.238
310.29        88.72382
310.74        90.05113
311.19        91.21953
311.65        92.21181
312.10        93.03138
312.55        93.70792
313.00        94.37494
313.46        95.24425
313.91        96.33539
314.36        97.59632
314.82        98.86064
315.27        99.88083
315.72        100.5642
316.18        100.9815
316.63        101.2292
317.08        101.4809
317.53        101.8103
317.99        102.2041
318.44        102.6042
318.89        102.9362
319.35        103.1887
319.80        103.3917
320.25          103.68
320.70        104.2594
321.16        105.1222
321.61          106.24
322.06        107.3235
322.51        107.9174
322.97          107.91
323.42         107.446
323.87        106.8372
324.32        106.6095
324.78        106.8825
325.23        107.5787
325.68        108.4338
326.13        108.9943
326.59         109.109
327.04        108.9576
327.49        108.7674
327.94        108.9545
328.39        109.6122
328.85        110.5418
329.30         111.562
329.75        112.1571
330.20        112.1857
330.66        111.8076
331.11        111.2951
331.56        111.0007
332.01        111.0773
332.46        111.4431
332.92        112.0051
333.37        112.7619
333.82        113.5993
334.27        114.5156
334.72        115.4783
335.17        116.4262
335.63        117.2857
336.08        118.1065
336.53        118.7311
336.98        118.9955
337.43        118.9012
337.88        118.5155
338.34         118.116
338.79        118.1641
339.24        118.7541
339.69        119.7796
340.14        120.9426
340.59        121.7173
341.05        121.9706
341.50        121.8734
341.95        121.6627
342.40        121.7385
342.85         122.202
343.30        122.8823
343.75        123.6579
344.20        124.3463
344.66        124.8842
345.11        125.3572
345.56         125.696
346.01        125.7693
346.46        125.6042
346.91        125.2448
347.36        124.9668
347.81        125.1988
348.26        125.9949
348.72        127.1942
349.17        128.4947
349.62        129.2989
350.07        129.4384
350.52        129.1109
350.97        128.5634
351.42        128.1802
351.87        128.0898
352.32        128.1659
352.77        128.3859
353.22        128.7248
353.67        129.1175
354.13        129.5449
354.58        129.8753
355.03        129.8784
355.48         129.498
355.93        128.7979
356.38        127.8637
356.83        126.8391
357.28         125.802
357.73        124.7493
358.18        123.7491
358.63        122.8966
359.08        122.2043
359.53        121.6502
359.98        121.1612
360.43        120.6068
360.88        119.9442
361.33        119.2018
361.78        118.3911
362.23        117.5389
362.68        116.6651
363.13         115.765
363.58        114.8751
364.03        114.0535
364.48        113.3143
364.93        112.6501
365.38        112.0297
365.83        111.4008
366.28        110.7452
366.73        110.0654
367.18        109.3801
367.63        108.7188
368.08        108.0773
368.53        107.4422
368.98        106.7684
369.43        105.9833
369.88        105.0955
370.33        104.1602
370.78        103.2539
371.23        102.5013
371.68        101.9328
372.13        101.4835
372.58        101.1415
373.03        100.8858
373.48        100.6601
373.93        100.4455
374.38        100.0876
374.83        99.34914
375.28        98.23325
375.72        96.84014
376.17        95.47297
376.62        94.40526
377.07        93.70293
377.52         93.2644
377.97        93.03592
378.42        92.92727
378.87        92.86668
379.32        92.85741
379.77        92.78049
380.22        92.45743
380.67        91.85321
381.11        91.00085
381.56        90.02508
382.01        89.17358
382.46         88.5404
382.91        88.09226
383.36        87.73459
383.81         87.3039
384.26        86.76011
384.71        86.15199
385.15         85.5734
385.60        85.22417
386.05        85.10133
386.50        85.12616
386.95         85.1332
387.40        84.87913
387.85        84.33728
388.29        83.56764
388.74        82.83652
389.19        82.28642
389.64        81.94924
390.09        81.73905
390.54        81.61232
390.98        81.48524
391.43         81.3543
391.88        81.23933
392.33        81.08228
392.78        80.76653
393.23        80.29722
393.67        79.73865
394.12        79.28951
394.57        78.84756
395.02        78.70309
395.47         78.7513
395.91        78.97129
396.36         79.0121
396.81        78.83167
397.26        78.58117
397.71        78.25892
398.15        77.79636
398.60        77.31048
399.05        76.76368
399.50        76.25026
399.95        76.02016
400.39        75.80262
400.84        76.03425
401.29        76.42467
401.74        76.44482
402.18        76.00705
402.63        75.30964
403.08        74.63607
403.53        74.33288
403.97        74.46753
404.42        74.92072
404.87        75.41671
405.32        75.50851
405.76        75.09061
406.21        74.37518
406.66         73.5933
407.11        73.06477
407.55        72.93979
408.00        73.16853
408.45        73.61594
408.90        74.01508
409.34        74.20826
409.79        74.08823
410.24        73.81299
410.68        73.79507
411.13        74.07937
411.58        74.44484
412.03        74.73012
412.47        74.75689
412.92        74.44902
413.37        73.92017
413.81        73.30949
414.26        72.89269
414.71        72.69845
415.15        72.66832
415.60        72.72409
416.05        72.78035
416.49        72.80515
416.94         72.8326
417.39        72.84204
417.83        72.77844
418.28         72.6496
418.73        72.46172
419.17        72.30595
419.62        72.35071
420.07        72.60085
420.51        72.97629
420.96        73.37775
421.41        73.56725
421.85         73.4752
422.30        73.35203
422.74        73.18333
423.19         72.8492
423.64         72.4495
424.08         72.4442
424.53        72.80573
424.98        73.06856
425.42        73.17574
425.87        73.57378
426.31        74.08624
426.76        73.83121
427.21        72.84258
427.65          72.653
428.10        73.13971
428.54        73.11671
428.99         72.6118
429.44        72.21893
429.88        72.08332
430.33        72.25288
430.77        72.60107
431.22         73.2499
431.66        73.98918
432.11        73.83411
432.56        72.93298
433.00        72.84948
433.45        73.80766
433.89        73.89426
434.34        73.97795
434.78        75.38084
435.23         73.7044
435.67        73.11176
436.12        72.55698
436.57        72.51844
437.01        72.84841
437.46        73.60643
437.90        73.35349
438.35        73.82632
438.79        74.48257
439.24        74.72125
439.68        74.54148
440.13        74.39659
440.57        74.40296
441.02        74.44968
441.46        74.53008
441.91        74.82111
442.35        75.10371
442.80        75.20747
443.24        75.08765
443.69        74.90548
444.13        74.70992
444.58         74.5487
445.02        74.40984
445.47        74.34566
445.91        74.34747
446.36        74.39439
446.80        74.45854
447.24        74.60286
447.69        74.74236
448.13        74.86317
448.58         74.9507
449.02        74.98814
449.47         75.0258
449.91        75.10925
450.36        75.26062
450.80        75.44353
451.25        75.61554
451.69        75.67609
452.13        75.61304
452.58        75.48357
453.02        75.34741
453.47        75.27525
453.91        75.26656
454.36        75.50301
454.80        75.59209
455.24        75.65531
455.69        75.68842
456.13        75.60359
456.58        75.57437
457.02        74.95778
457.46        75.22559
457.91        75.14839
458.35        75.06291
458.79        75.01623
459.24        75.08544
459.68        75.02766
460.13         74.7686
460.57        75.17882
461.01        75.40063
461.46        74.66357
461.90        74.62236
462.34        75.35954
462.79        75.79066
463.23        75.59406
463.68        74.53613
464.12        74.00838
464.56        74.05298
465.01         74.0097
465.45        73.86234
465.89        73.80735
466.34        73.76342
466.78        74.38346
467.22        74.46091
467.67        74.04998
468.11        74.29234
468.55        73.96442
468.99        73.59473
469.44        73.30421
469.88        73.15664
470.32        73.10778
470.77        73.09559
471.21        73.07909
471.65        73.01784
472.10        72.94446
472.54        72.89655
472.98        72.92868
473.42        73.02972
473.87        73.29436
474.31        73.58137
474.75        73.40839
475.20        72.92043
475.64        72.86237
476.08        73.19527
476.52        73.13574
476.97        72.65209
477.41        72.31342
477.85        72.34046
478.29        71.68056
478.74        72.63218
479.18        72.58749
479.62        72.27272
480.06        72.21886
480.50        72.44562
480.95        72.22106
481.39        72.73444
481.83        72.05608
482.27        72.73083
482.72        72.82209
483.16        72.72749
483.60        72.60247
484.04        72.92864
484.48        73.09782
484.93        73.08318
485.37        72.99258
485.81        72.17365
486.25        71.34173
486.69        72.45879
487.14        72.08016
487.58        71.81936
488.02        71.61198
488.46         72.4679
488.90         72.3214
489.34        71.79802
489.79        72.79871
490.23        71.58894
490.67        71.71448
491.11        71.93553
491.55        71.80393
491.99        71.36951
492.43        71.24741
492.88        71.49397
493.32        71.79409
493.76        72.03935
494.20         72.2019
494.64        72.24268
495.08        72.16563
495.52         72.0142
495.96        71.89388
496.41        71.87133
496.85        71.88641
497.29        71.83447
497.73        72.09115
498.17        71.78732
498.61        71.47657
499.05        71.05869
499.49        71.06062
499.93        71.40031
500.37        71.45671
500.82        71.22502
501.26        71.19179
501.70        71.37219
502.14        71.41005
502.58        71.30795
503.02         71.3975
503.46        71.72773
503.90        71.50066
504.34        71.95883
504.78        71.97262
505.22        71.90179
505.66         71.7534
506.10        71.61137
506.54        71.45305
506.98        71.66961
507.42        71.70757
507.86        71.33636
508.30        71.63194
508.74        71.20431
509.18        71.02394
509.62        70.77842
510.06        70.69026
510.50        70.77811
510.94        70.99427
511.38        71.24918
511.82        71.35889
512.26        71.28269
512.70        71.07958
513.14        70.84435
513.58        70.72058
514.02        70.74651
514.46         70.8758
514.90        71.04691
515.34        71.16312
515.78        71.19039
516.22        71.15451
516.66        71.09354
517.10        71.06255
517.54        71.07636
517.98        71.11941
518.42        71.14596
518.86        71.08848
519.30        70.93866
519.74        70.72104
520.18        70.51785
520.62        70.44926
521.06        70.54155
521.50         70.7706
521.93        71.03651
522.37        71.14931
522.81        71.07729
523.25        70.86654
523.69        70.65573
524.13        70.66214
524.57        70.91928
525.01        71.34693
525.45        71.77728
525.89        71.93886
526.32        71.76022
526.76        71.36205
527.20        70.89317
527.64        70.58546
528.08        70.50292
528.52         70.5714
528.96        70.71994
529.40        70.83713
529.83        70.87606
530.27        70.88318
530.71        70.86279
531.15        70.82252
531.59        70.77012
532.03        70.69633
532.46        70.60248
532.90        70.52757
533.34        70.47542
533.78        70.44804
534.22         70.4456
534.66        70.46366
535.09        70.49161
535.53        70.54092
535.97        70.59806
536.41        70.65726
536.85        70.71061
537.28        70.74971
537.72        70.76377
538.16        70.73265
538.60        70.65482
539.04        70.54185
539.47        70.39892
539.91        70.29094
540.35        70.21427
540.79         70.1735
541.22        70.15569
541.66        70.14993
542.10        70.14866
542.54         70.1599
542.97        70.19029
543.41        70.27233
543.85        70.39255
544.29        70.54259
544.72        70.65799
545.16        70.68005
545.60        70.59735
546.04        70.40708
546.47        70.18033
546.91        70.15792
547.35        70.32624
547.79        70.36921
548.22        70.26122
548.66        70.44641
549.10        70.87427
549.53        70.91019
549.97        70.45852
550.41        71.05771
550.84        70.59302
551.28        70.49183
551.72         70.1442
552.15        70.36153
552.59        70.23223
553.03        70.20741
553.46        70.06572
553.90        70.04505
554.34        70.13071
554.77        70.26596
555.21        70.40081
555.65        70.33956
556.08         70.1325
556.52        70.11211
556.96        70.26517
557.39        70.40376
557.83        70.50359
558.27        70.52293
558.70        70.49493
559.14        70.58861
559.57        70.75024
560.01        70.81301
560.45        70.76665
560.88        70.55905
561.32        70.56193
561.75        70.42735
562.19        70.29125
562.63        70.19072
563.06        70.12827
563.50        70.11717
563.93         70.1276
564.37        70.16164
564.80        70.18489
565.24        70.23902
565.68        70.30838
566.11         70.2607
566.55        70.34233
566.98        70.24691
567.42        70.15491
567.85        70.08859
568.29        70.06912
568.72        70.28899
569.16        70.82173
569.60        70.23801
570.03        70.68715
570.47        70.76782
570.90        70.84464
571.34         70.5351
571.77        70.80076
572.21        70.79693
572.64        70.75031
573.08        70.75343
573.51        70.55386
573.95        70.32821
574.38        70.84048
574.82        70.51567
