SpectraSmart Spectrum 2.9.0.0
--------- Device Information -----------
Spectrum Name :  反射率_0
Saving Time :  2024/04/30 00:02:56
Spectro-Module Model Name : SE2030-DUVN
Spectro-Module Serial Number : OS361AC55029948
Wavelength Start : 200
Wavelength End : 1025
Wavelength Unit : Wavelength(nm)
Spectrum Unit : Reflectance(%)
-----------Spectrum Setting ------------
Integration Time : 20ms
Average : 10
Boxcar : 0
Background removal :  enabled
linearity correction :  enabled
SC :  disabled
Intensity correction :  disabled
DWT denoise :  enabled
savitzky-golay :  disabled
FFT :  disabled
Running average :  disabled
Kalman :  disabled
High pass :  disabled
---------------BEGIN--------------------
Wavelength(nm)             Reflectance(%)
200.29               0
200.75        76.18336
201.21        67.76626
201.67        57.86606
202.13        48.25465
202.58        40.13033
203.04        32.26024
203.50         27.4075
203.96        31.92483
204.42        47.05404
204.88        70.48898
205.34        91.78251
205.80        96.06231
206.26        85.21973
206.72        68.71938
207.18        54.09298
207.64        45.69993
208.10        42.48438
208.55        42.08896
209.01        43.26668
209.47        44.42492
209.93        44.80943
210.39         45.3084
210.85         45.6151
211.31        45.29102
211.77        44.26399
212.23        42.01704
212.69        39.34294
213.14        40.03355
213.60        44.52138
214.06        50.81899
214.52        55.81526
214.98        57.75347
215.44        57.33411
215.90        55.17746
216.36        53.35803
216.81        55.91995
217.27        64.91998
217.73        81.16018
218.19        102.0541
218.65        113.5462
219.11         107.708
219.57        91.26233
220.02        75.12659
220.48        66.06585
220.94        62.52707
221.40        61.97994
221.86        62.64591
222.32        60.69764
222.77        55.76577
223.23        51.52613
223.69        48.42512
224.15        45.92247
224.61        43.57568
225.06        40.84217
225.52        38.68523
225.98        39.12223
226.44        41.94779
226.90         45.5275
227.36        48.30324
227.81        49.30715
228.27        48.75642
228.73        46.96023
229.19        44.47344
229.65        42.68011
230.10        42.13954
230.56        42.41219
231.02        42.71666
231.48        42.30196
231.93        41.04895
232.39        39.26225
232.85        37.42199
233.31         36.4989
233.77        36.79144
234.22        38.11131
234.68        39.67709
235.14        40.07362
235.60        39.02154
236.05        37.08662
236.51        35.36349
236.97        35.24665
237.43        37.16204
237.88        41.16354
238.34        46.91738
238.80        52.74294
239.26        56.77224
239.71        58.89038
240.17        59.48254
240.63        60.11994
241.08        61.64334
241.54        63.80636
242.00         67.0981
242.46         71.2713
242.91        75.02524
243.37        77.43303
243.83        78.59494
244.28        79.34138
244.74        79.97708
245.20        79.99337
245.66        80.12059
246.11        82.00967
246.57        86.22809
247.03        93.26797
247.48        99.53828
247.94        97.24696
248.40         88.0013
248.85        76.88437
249.31        69.41853
249.77        67.51591
250.22        70.73476
250.68        79.66967
251.14        93.76032
251.59        100.7211
252.05        92.90709
252.51        80.11179
252.96        70.82291
253.42        67.98966
253.88         69.5817
254.33        73.88638
254.79        78.77887
255.25        79.47475
255.70        75.73669
256.16        71.02522
256.62        67.51905
257.07        66.45502
257.53        67.59762
257.99        69.74281
258.44        71.28249
258.90        70.85722
259.35        68.33975
259.81        65.34476
260.27        62.69392
260.72        61.03398
261.18        60.38224
261.63        60.00438
262.09        59.66264
262.55        58.76679
263.00        57.27548
263.46        55.70079
263.91         54.0621
264.37        52.65379
264.83        51.40815
265.28        50.17465
265.74        49.13076
266.19        48.33724
266.65        47.85374
267.11        47.58823
267.56        47.32911
268.02        46.77065
268.47        45.81712
268.93         44.5547
269.38        43.13087
269.84        41.93726
270.30        41.08348
270.75        40.47973
271.21        39.95601
271.66        39.21565
272.12        38.19857
272.57        36.97506
273.03        35.75207
273.48         34.7645
273.94        34.13261
274.39        33.73672
274.85        33.43748
275.31        32.96836
275.76        32.26699
276.22        31.44062
276.67        30.63918
277.13        30.16779
277.58        30.00568
278.04        30.07653
278.49        30.09769
278.95        29.76553
279.40        29.00764
279.86        28.02654
280.31        27.03296
280.77         26.4533
281.22        26.31829
281.68        26.49746
282.13        26.78454
282.59        26.94297
283.04         26.8877
283.50        26.70344
283.95        26.42452
284.41        26.11258
284.86        25.79487
285.32        25.49313
285.77        25.19928
286.22        24.97809
286.68        24.85374
287.13        24.78344
287.59        24.80255
288.04        24.89919
288.50        25.06633
288.95        25.25633
289.41        25.42242
289.86        25.45758
290.32        25.38013
290.77        25.24176
291.22        25.10126
291.68        25.04362
292.13        25.10718
292.59        25.30609
293.04        25.72395
293.50        26.51085
293.95        27.66727
294.40         29.1492
294.86        30.76771
295.31        32.23132
295.77        33.45612
296.22        34.49834
296.68        35.51686
297.13        36.74899
297.58        38.25393
298.04        39.91272
298.49        41.58885
298.95        43.08453
299.40        44.34555
299.85        45.45999
300.31        46.52616
300.76        47.61151
301.21        48.79045
301.67        50.06428
302.12        51.40596
302.58        52.92302
303.03        54.58053
303.48         56.2646
303.94        57.94745
304.39        59.97339
304.84        61.59937
305.30        63.39719
305.75        65.05124
306.20         66.4864
306.66        67.70686
307.11        68.70531
307.57        69.63383
308.02        70.60381
308.47        71.68729
308.93        72.85574
309.38        74.01991
309.83        75.10892
310.29        76.09186
310.74        76.97485
311.19        77.75197
311.65        78.40014
312.10        78.91473
312.55        79.32507
313.00         79.7084
313.46        80.19077
313.91        80.78326
314.36        81.45229
314.82         82.1384
315.27        82.76733
315.72        83.28541
316.18        83.71854
316.63        84.03093
317.08        84.17981
317.53        84.19141
317.99        84.11655
318.44        84.03433
318.89        84.08614
319.35        84.30749
319.80        84.64999
320.25         85.1179
320.70         85.7107
321.16        86.36781
321.61        87.11791
322.06        87.77257
322.51        88.04211
322.97        87.87297
323.42        87.35925
323.87        86.75302
324.32        86.48229
324.78        86.63805
325.23        87.16019
325.68        87.82747
326.13        88.25231
326.59        88.30471
327.04        88.13538
327.49        87.91327
327.94        87.95496
328.39        88.33509
328.85        88.89486
329.30         89.5345
329.75         89.9215
330.20        89.96462
330.66        89.77847
331.11        89.50806
331.56        89.31554
332.01         89.2907
332.46        89.38625
332.92        89.61874
333.37        90.14584
333.82         90.9179
334.27         91.8951
334.72        92.91418
335.17        93.69546
335.63        94.13108
336.08        94.33064
336.53        94.35056
336.98        94.36715
337.43        94.45645
337.88        94.56833
338.34        94.74509
338.79        95.07379
339.24        95.55276
339.69          96.195
340.14        96.86115
340.59        97.29514
341.05        97.45455
341.50        97.41459
341.95        97.36194
342.40        97.62084
342.85        98.24865
343.30        99.10555
343.75        100.0215
344.20        100.7229
344.66        101.1389
345.11        101.3801
345.56        101.4559
346.01        101.3773
346.46         101.203
346.91        100.9247
347.36        100.7739
347.81        101.1072
348.26        101.9565
348.72         103.205
349.17        104.5071
349.62        105.2073
350.07        105.1444
350.52        104.5266
350.97        103.7348
351.42        103.3592
351.87        103.5552
352.32        104.1422
352.77        104.9063
353.22        105.5029
353.67        105.8058
354.13        105.9051
354.58         105.883
355.03        105.8603
355.48        105.8563
355.93        105.7937
356.38        105.5903
356.83         105.142
357.28        104.4512
357.73        103.6034
358.18        102.6996
358.63        101.8802
359.08        101.2002
359.53        100.6277
359.98        100.1639
360.43        99.80387
360.88        99.52139
361.33         99.3071
361.78        99.08409
362.23        98.72854
362.68        98.21432
363.13        97.57463
363.58        96.87585
364.03        96.23125
364.48        95.68024
364.93        95.19553
365.38        94.76273
365.83        94.36102
366.28        93.97166
366.73        93.58956
367.18        93.20164
367.63        92.78148
368.08        92.31347
368.53        91.80427
368.98        91.22669
369.43        90.53832
369.88        89.76349
370.33        88.95102
370.78        88.19175
371.23        87.63349
371.68        87.30412
372.13        87.12691
372.58        87.06178
373.03        87.04057
373.48         86.9963
373.93        86.92892
374.38        86.68718
374.83        86.04084
375.28        85.00374
375.72        83.67632
376.17        82.39449
376.62        81.50323
377.07         81.0732
377.52        80.98148
377.97        81.09955
378.42        81.20606
378.87        81.19832
379.32        81.12406
379.77        80.94071
380.22        80.58581
380.67        80.05862
381.11        79.36208
381.56         78.5892
382.01        77.92896
382.46         77.4528
382.91        77.14494
383.36        76.92652
383.81        76.65704
384.26        76.29906
384.71        75.88401
385.15        75.48589
385.60         75.2733
386.05        75.23984
386.50        75.32113
386.95         75.3656
387.40        75.15104
387.85        74.65633
388.29        73.93542
388.74        73.25018
389.19         72.7618
389.64        72.50147
390.09        72.38483
390.54        72.33506
390.98        72.21568
391.43        72.02051
391.88        71.78768
392.33        71.49864
392.78        71.18833
393.23        70.88322
393.67        70.42274
394.12        69.92058
394.57        70.01121
395.02        69.68351
395.47        69.71146
395.91        69.75423
396.36         69.7253
396.81        69.60756
397.26        69.44474
397.71        69.23804
398.15        68.94377
398.60        68.66016
399.05        68.32202
399.50        67.99211
399.95        67.92802
400.39         67.8534
400.84        68.01369
401.29        68.21636
401.74        68.24287
402.18        68.04527
402.63        67.68152
403.08        67.29684
403.53        67.07798
403.97          67.059
404.42        67.17788
404.87        67.30907
405.32        67.23864
405.76        66.91621
406.21        66.49816
406.66        66.08055
407.11        65.71687
407.55        65.52937
408.00        65.66311
408.45        66.03434
408.90        66.35452
409.34        66.48959
409.79        66.34701
410.24        66.07077
410.68        66.04949
411.13        66.32232
411.58        66.67484
412.03        66.95934
412.47        67.01934
412.92        66.78429
413.37         66.3542
413.81        65.85152
414.26          65.527
414.71        65.40659
415.15        65.43178
415.60         65.5455
416.05        65.69245
416.49        65.84345
416.94        66.02505
417.39        66.17585
417.83        66.17917
418.28        66.03194
418.73        65.75645
419.17        65.50214
419.62         65.5275
420.07        65.85546
420.51        66.38134
420.96        66.93597
421.41        67.16835
421.85         66.9903
422.30        66.71027
422.74        66.40013
423.19        65.97337
423.64        65.57255
424.08        65.80038
424.53         66.5636
424.98        66.81669
425.42        67.02198
425.87        67.26471
426.31        67.64973
426.76        67.43732
427.21        66.70569
427.65        66.87608
428.10        67.70061
428.54        67.83432
428.99         67.2674
429.44        66.66313
429.88        66.26935
430.33        66.30896
430.77        66.70747
431.22         67.4502
431.66        68.30234
432.11        68.40295
432.56        67.74323
433.00        67.49464
433.45        68.01278
433.89         67.6543
434.34        67.96786
434.78          69.701
435.23        68.02976
435.67        67.61436
436.12        67.18109
436.57        67.32782
437.01        67.93751
437.46         68.2935
437.90        68.38947
438.35         68.7542
438.79        69.33397
439.24        69.61627
439.68        69.62031
440.13        69.76257
440.57        70.06478
441.02        70.14545
441.46        69.94864
441.91        69.94498
442.35        70.22051
442.80        69.46851
443.24        70.68949
443.69        70.40985
444.13        69.69694
444.58        69.44867
445.02         69.6348
445.47        69.86469
445.91        70.07393
446.36        70.07349
446.80        69.73214
447.24        70.79002
447.69        70.20323
448.13        70.39687
448.58        70.48741
449.02        70.53893
449.47        70.56692
449.91        70.61349
450.36        70.72606
450.80        70.84937
451.25        70.98241
451.69        71.08392
452.13        71.14678
452.58        71.20457
453.02        71.25098
453.47        71.27534
453.91        71.26607
454.36        71.37073
454.80         71.2615
455.24        71.37441
455.69         71.5574
456.13         71.5024
456.58        71.27934
457.02        71.16197
457.46        71.18877
457.91        71.24138
458.35         71.2312
458.79        71.16222
459.24        71.06123
459.68        70.90449
460.13        70.75964
460.57        70.78304
461.01        70.93494
461.46        71.03278
461.90        71.00868
462.34         71.5033
462.79        71.73383
463.23        71.47717
463.68        70.71634
464.12        70.30405
464.56         70.3098
465.01        70.36246
465.45        70.35569
465.89        70.31826
466.34        70.24467
466.78        70.47534
467.22        70.51295
467.67        70.49606
468.11        70.30316
468.55        70.02989
468.99        69.76164
469.44        69.58009
469.88        69.51896
470.32        69.56898
470.77        69.66564
471.21        69.72013
471.65        69.68851
472.10          69.612
472.54        69.51986
472.98        69.47641
473.42        69.48561
473.87        69.59614
474.31        69.73111
474.75         69.6078
475.20         69.2856
475.64        69.29674
476.08        69.64607
476.52        69.48407
476.97        68.91443
477.41        69.32465
477.85        68.91434
478.29        68.47379
478.74        69.27337
479.18        69.22762
479.62        68.74965
480.06        68.63824
480.50        68.87587
480.95        69.04592
481.39        69.45323
481.83        69.07282
482.27         69.6938
482.72        69.35368
483.16        69.58768
483.60        69.53905
484.04        69.50057
484.48        69.93511
484.93        70.04292
485.37        69.63818
485.81        68.97151
486.25        68.17637
486.69        69.16808
487.14        69.46474
487.58        68.88721
488.02        68.47454
488.46        69.36158
488.90        69.44636
489.34        68.50325
489.79        69.10373
490.23        68.75864
490.67        69.01394
491.11         69.0669
491.55        68.78306
491.99         68.2756
492.43         68.0699
492.88        68.22842
493.32         68.4548
493.76        68.67307
494.20        68.90596
494.64        69.11349
495.08        69.31453
495.52        69.46802
495.96         69.4445
496.41        69.31056
496.85        69.26352
497.29        69.24043
497.73        69.40574
498.17        68.96457
498.61        68.78311
499.05        68.67722
499.49        68.64386
499.93        68.65374
500.37        68.63766
500.82        68.59557
501.26        68.60097
501.70        68.64528
502.14        68.65897
502.58        68.65144
503.02        68.67798
503.46        68.74711
503.90        68.84196
504.34        68.93748
504.78        69.01565
505.22        69.05674
505.66        69.01798
506.10        68.94177
506.54        69.00768
506.98        69.13202
507.42        69.32795
507.86        68.59599
508.30        68.79813
508.74        68.41332
509.18        68.26189
509.62        68.04287
510.06        68.02267
510.50        68.21938
510.94        68.57175
511.38         68.9427
511.82        69.06759
512.26        68.89323
512.70        68.49979
513.14        68.05925
513.58        67.85876
514.02        67.96631
514.46        68.25726
514.90        68.57413
515.34        68.87421
515.78        68.74792
516.22        68.54491
516.66        68.27973
517.10        68.13844
517.54        68.16422
517.98        68.29947
518.42        68.45531
518.86        68.48608
519.30        68.36011
519.74        68.13435
520.18        67.89781
520.62          67.778
521.06        67.81113
521.50        67.96387
521.93        68.17126
522.37        68.30547
522.81        68.33994
523.25        68.30107
523.69        68.26154
524.13        68.33544
524.57        68.53609
525.01        68.81389
525.45        69.06495
525.89        69.12518
526.32        68.95321
526.76        68.63618
527.20        68.27444
527.64        68.02493
528.08        67.93272
528.52        67.95033
528.96        68.03793
529.40        68.13061
529.83        68.19411
530.27        68.25606
530.71        68.29837
531.15        68.29675
531.59        68.24923
532.03        68.15623
532.46        68.03526
532.90        67.94876
533.34        67.90571
533.78        67.89929
534.22         67.9135
534.66        67.91941
535.09        67.90428
535.53        67.89177
535.97        67.88647
536.41        67.91058
536.85        67.96309
537.28        68.02373
537.72        68.07414
538.16        68.08229
538.60        68.03931
539.04        67.96075
539.47        67.83874
539.91        67.71691
540.35        67.59161
540.79        67.47198
541.22        67.37401
541.66        67.33373
542.10        67.35312
542.54        67.42778
542.97        67.53052
543.41        67.63734
543.85        67.72559
544.29        67.80776
544.72        67.85297
545.16        67.85337
545.60        67.80611
546.04        67.68806
546.47        67.54887
546.91        67.57513
547.35        67.74021
547.79        67.80183
548.22        67.72598
548.66        67.81934
549.10        68.08613
549.53        68.15577
549.97        67.91131
550.41         68.5703
550.84        68.07272
551.28        67.98346
551.72        67.71436
552.15        67.88605
552.59        67.66853
553.03        67.73081
553.46        67.80795
553.90        67.86411
554.34        67.86877
554.77        67.90497
555.21        67.96594
555.65         67.8735
556.08        67.68957
556.52        67.72917
556.96        67.94508
557.39        68.10101
557.83        68.16312
558.27        68.11239
558.70        68.01009
559.14        68.06029
559.57         68.2197
560.01        68.32422
560.45        68.34987
560.88        68.17499
561.32         68.1654
561.75        68.11868
562.19        68.12729
562.63        67.99274
563.06        67.75831
563.50        67.72116
563.93        67.83769
564.37        67.88802
564.80        67.84374
565.24        67.85597
565.68        67.89783
566.11        67.93357
566.55        67.96389
566.98        67.84106
567.42        67.70936
567.85         67.7934
568.29        68.04862
568.72        68.33775
569.16        68.75266
569.60          68.157
570.03        68.63176
570.47        68.63393
570.90         68.8205
571.34        68.14544
571.77         68.5985
572.21        68.60136
572.64        68.69982
573.08         68.5985
573.51        68.32771
573.95        68.37776
574.38        69.24174
574.82        68.31245
