SpectraSmart Spectrum 2.9.0.0
--------- Device Information -----------
Spectrum Name :  反射率_0
Saving Time :  2024/04/30 00:32:11
Spectro-Module Model Name : SE2030-DUVN
Spectro-Module Serial Number : OS361AC55029948
Wavelength Start : 200
Wavelength End : 1025
Wavelength Unit : Wavelength(nm)
Spectrum Unit : Reflectance(%)
-----------Spectrum Setting ------------
Integration Time : 20ms
Average : 10
Boxcar : 0
Background removal :  enabled
linearity correction :  enabled
SC :  disabled
Intensity correction :  disabled
DWT denoise :  enabled
savitzky-golay :  disabled
FFT :  disabled
Running average :  disabled
Kalman :  disabled
High pass :  disabled
---------------BEGIN--------------------
Wavelength(nm)             Reflectance(%)
200.29               0
200.75        106.8855
201.21        87.34226
201.67        67.58739
202.13        53.56704
202.58        48.46404
203.04        50.88677
203.50        62.09358
203.96        83.17285
204.42        111.0909
204.88        142.3756
205.34        163.3906
205.80        158.0089
206.26        132.7597
206.72        101.5518
207.18        74.94041
207.64        58.10416
208.10        48.83754
208.55        43.55042
209.01        41.58282
209.47         43.0902
209.93        47.00278
210.39        52.72503
210.85        57.64479
211.31        59.66644
211.77        58.78917
212.23        54.43848
212.69        47.88336
213.14        46.35562
213.60        52.16633
214.06        61.45258
214.52         68.6578
214.98        70.19431
215.44        66.93233
215.90        60.26967
216.36        53.15817
216.81         51.3571
217.27        57.87735
217.73        73.25543
218.19         95.4508
218.65         110.707
219.11        109.8043
219.57        98.03492
220.02        85.66498
220.48        80.33918
220.94        81.20308
221.40        86.06531
221.86        92.07477
222.32        91.03596
222.77        81.70462
223.23        71.55293
223.69        63.62151
224.15        58.22812
224.61        54.37635
225.06        50.89585
225.52        48.72138
225.98        49.87444
226.44        53.75622
226.90        58.44495
227.36        62.00432
227.81        63.21302
228.27        62.41048
228.73        59.94207
229.19        56.48835
229.65        53.87336
230.10        52.87513
230.56        52.97239
231.02        53.25487
231.48        52.84577
231.93         51.5821
232.39        49.83659
232.85        48.04812
233.31        47.10749
233.77        47.31337
234.22        48.50664
234.68        49.98092
235.14        50.50195
235.60        49.80495
236.05        48.32458
236.51        47.08991
236.97        47.44665
237.43        49.80452
237.88        54.30293
238.34        60.35665
238.80        65.76852
239.26         68.5166
239.71        68.79269
240.17        67.56993
240.63        66.96844
241.08        67.94811
241.54        70.35657
242.00        75.26641
242.46        83.07263
242.91        92.13342
243.37         100.045
243.83          105.84
244.28        111.3116
244.74        117.6353
245.20        123.6688
245.66        129.6901
246.11        136.0762
246.57          141.97
247.03        149.1787
247.48        152.2868
247.94        141.2596
248.40         121.556
248.85        101.5868
249.31        89.14897
249.77        86.62473
250.22        93.07452
250.68        109.5081
251.14        135.8454
251.59        151.5903
252.05        141.3758
252.51        120.9741
252.96        104.2396
253.42        95.76902
253.88        92.32253
254.33         90.9736
254.79        90.39965
255.25        88.50912
255.70          85.205
256.16        82.26995
256.62         80.0613
257.07        78.47224
257.53        77.55821
257.99        76.77929
258.44        75.26441
258.90        72.87857
259.35         69.6755
259.81        66.63644
260.27        64.19511
260.72          62.685
261.18        62.06094
261.63        61.70279
262.09        61.29809
262.55        60.13621
263.00        58.22787
263.46        56.15478
263.91        54.10201
264.37        52.56801
264.83         51.4719
265.28        50.57147
265.74         49.8933
266.19        49.26657
266.65         48.7084
267.11        48.21208
267.56        47.68027
268.02        46.96689
268.47        46.01003
268.93        44.84197
269.38        43.55204
269.84        42.43296
270.30        41.57136
270.75        40.93056
271.21        40.37878
271.66        39.66626
272.12        38.74775
272.57        37.66359
273.03        36.62457
273.48        35.87539
273.94        35.50837
274.39        35.37295
274.85        35.27306
275.31        34.86198
275.76        34.07504
276.22        33.06723
276.67        32.02803
277.13        31.32572
277.58        30.96631
278.04        30.86207
278.49        30.76002
278.95        30.39802
279.40        29.69534
279.86        28.83917
280.31        27.96824
280.77        27.40096
281.22        27.15369
281.68        27.13613
282.13        27.21426
282.59        27.25766
283.04        27.19743
283.50        27.07916
283.95        26.88824
284.41        26.61199
284.86        26.26186
285.32        25.89371
285.77        25.52183
286.22        25.24242
286.68        25.08702
287.13         24.9915
287.59        25.00116
288.04        25.12114
288.50        25.34073
288.95        25.61254
289.41         25.8425
289.86        25.84994
290.32         25.6497
290.77        25.31786
291.22        24.99054
291.68         24.8799
292.13        25.04076
292.59        25.42972
293.04        26.04383
293.50        26.90705
293.95        27.98818
294.40        29.28684
294.86        30.64984
295.31        31.84363
295.77        32.81721
296.22        33.62049
296.68        34.43706
297.13        35.54015
297.58        36.99965
298.04        38.70053
298.49         40.4817
298.95        42.09755
299.40        43.47711
299.85        44.70691
300.31        45.90289
300.76        47.16655
301.21        48.56873
301.67        50.09043
302.12        51.66309
302.58        53.33329
303.03         55.0667
303.48        56.79008
303.94        58.52714
304.39         60.6902
304.84        62.56883
305.30        64.69633
305.75        66.75333
306.20        68.64806
306.66        70.36189
307.11        71.88068
307.57        73.30614
308.02        74.67721
308.47        76.06458
308.93        77.46159
309.38        78.84657
309.83        80.25948
310.29        81.69049
310.74        83.10931
311.19        84.44238
311.65        85.56036
312.10        86.43311
312.55        87.12708
313.00        87.77593
313.46        88.59441
313.91        89.61427
314.36          90.769
314.82        91.95291
315.27        93.02148
315.72        93.89296
316.18        94.60793
316.63        95.15278
317.08        95.52122
317.53        95.75258
317.99        95.89256
318.44        96.00137
318.89        96.19177
319.35         96.5051
319.80        96.91864
320.25         97.4831
320.70        98.26923
321.16         99.2245
321.61        100.3473
322.06        101.4063
322.51        102.0388
322.97        102.1542
323.42        101.8652
323.87        101.3983
324.32        101.1516
324.78        101.2274
325.23         101.588
325.68        102.0984
326.13        102.5233
326.59        102.7647
327.04        102.9333
327.49        103.1088
327.94        103.4602
328.39        104.0157
328.85        104.6558
329.30        105.3063
329.75        105.6556
330.20        105.6367
330.66        105.3435
331.11        104.9998
331.56        104.8886
332.01        105.1228
332.46        105.6418
332.92        106.3234
333.37        107.0979
333.82        107.8433
334.27        108.5713
334.72        109.2939
335.17        110.0364
335.63        110.7632
336.08        111.5068
336.53         112.119
336.98        112.4379
337.43        112.4508
337.88        112.2195
338.34        111.9774
338.79        112.1109
339.24        112.7012
339.69        113.6677
340.14        114.7418
340.59        115.4551
341.05        115.6966
341.50        115.6115
341.95        115.4619
342.40        115.6869
342.85        116.3757
343.30        117.3397
343.75        118.3626
344.20        119.1075
344.66        119.4866
345.11        119.6414
345.56        119.6127
346.01        119.4519
346.46        119.2376
346.91         118.957
347.36        118.8301
347.81        119.1979
348.26        120.0828
348.72        121.3578
349.17        122.7061
349.62        123.5045
350.07        123.5896
350.52        123.1625
350.97        122.5205
351.42         122.133
351.87        122.1404
352.32        122.3875
352.77        122.8026
353.22        123.2766
353.67        123.7204
354.13        124.1465
354.58        124.4376
355.03        124.3879
355.48        123.9596
355.93        123.2072
356.38        122.2519
356.83        121.2935
357.28        120.4112
357.73        119.5831
358.18        118.8153
358.63        118.1018
359.08        117.4367
359.53        116.8355
359.98        116.2825
360.43        115.7381
360.88        115.1903
361.33        114.6443
361.78        114.0872
362.23        113.5088
362.68         112.907
363.13        112.2724
363.58        111.6431
364.03        111.0826
364.48         110.593
364.93        110.1517
365.38        109.6836
365.83        109.0701
366.28        108.2984
366.73          107.42
367.18        106.5227
367.63        105.7409
368.08        105.1037
368.53        104.5619
368.98        104.0761
369.43        103.5752
369.88        103.0427
370.33        102.5303
370.78        102.0053
371.23        101.4158
371.68        100.7612
372.13        100.0203
372.58        99.34248
373.03        98.97385
373.48        98.92712
373.93        99.11794
374.38        99.23754
374.83        98.78378
375.28        97.68793
375.72        96.12923
376.17        94.55533
376.62        93.45319
377.07        92.92873
377.52        92.80542
377.97        92.89614
378.42        92.89481
378.87        92.68824
379.32        92.37611
379.77        91.97706
380.22        91.50705
380.67         90.9801
381.11        90.36449
381.56        89.71772
382.01        89.17421
382.46        88.77802
382.91        88.52398
383.36        88.32043
383.81        88.01032
384.26        87.55953
384.71        87.00256
385.15        86.44762
385.60        86.12611
386.05        86.04453
386.50        86.12681
386.95        86.19098
387.40        85.96207
387.85        85.41096
388.29         84.6091
388.74        83.85603
389.19        83.33847
389.64         83.0926
390.09        83.01569
390.54        83.02261
390.98        82.96185
391.43        82.82011
391.88        82.63283
392.33        82.36063
392.78        82.02162
393.23        81.64426
393.67        81.05282
394.12        80.40011
394.57        80.44225
395.02        80.03059
395.47        80.06412
395.91        80.12836
396.36        80.08315
396.81        79.89491
397.26        79.61731
397.71        79.32231
398.15        79.01556
398.60        78.80032
399.05        78.70634
399.50        78.66049
399.95        78.44595
400.39        77.86628
400.84        77.96391
401.29         78.5128
401.74        78.61643
402.18        78.18097
402.63        77.61567
403.08        77.12571
403.53        76.86322
403.97        76.85961
404.42        77.00915
404.87        77.18925
405.32        77.16617
405.76        76.87039
406.21        76.61319
406.66        76.37073
407.11        75.70583
407.55        74.90348
408.00        74.82668
408.45          75.437
408.90         76.0696
409.34        76.42667
409.79        76.18643
410.24        75.57436
410.68        75.45893
411.13        75.90165
411.58        76.34688
412.03          76.612
412.47        76.67393
412.92        76.45464
413.37        76.01589
413.81        75.47411
414.26        75.08767
414.71        74.88221
415.15         74.8017
415.60        74.81937
416.05        74.93285
416.49        75.12305
416.94        75.40323
417.39        75.65555
417.83        75.66629
418.28         75.4155
418.73        74.95955
419.17        74.51031
419.62        74.42912
420.07        74.75325
420.51        75.32996
420.96        75.95339
421.41        76.18416
421.85        75.90721
422.30        75.55258
422.74        75.15311
423.19        74.42361
423.64        73.60813
424.08        73.66653
424.53        74.47649
424.98        74.95234
425.42        74.96791
425.87         75.2354
426.31        75.66865
426.76        75.54319
427.21        74.82553
427.65        74.67789
428.10        74.96764
428.54        74.81159
428.99        74.28276
429.44        73.84283
429.88        73.65026
430.33        73.88079
430.77        74.35989
431.22        74.99043
431.66        75.58274
432.11        75.42735
432.56        74.59464
433.00        74.32284
433.45        74.98983
433.89        74.68726
434.34        75.07924
434.78        77.13929
435.23         74.8708
435.67         74.3441
436.12         73.9349
436.57        74.06223
437.01        74.58385
437.46        74.85201
437.90        74.87817
438.35        75.19614
438.79         75.7365
439.24        75.93814
439.68        75.81944
440.13        75.80614
440.57        75.94001
441.02        76.01548
441.46        76.00375
441.91        76.11286
442.35        76.19688
442.80        76.14481
443.24         76.0734
443.69         75.7691
444.13        75.38148
444.58        75.16946
445.02        75.11265
445.47        75.17409
445.91        75.30265
446.36        75.37825
446.80        75.33707
447.24        75.60561
447.69        75.50047
448.13        75.56159
448.58        75.60935
449.02        75.60949
449.47        75.59058
449.91        75.70869
450.36        75.77387
450.80        75.92564
451.25        76.08189
451.69        76.17638
452.13        76.19958
452.58        76.20444
453.02        76.20512
453.47        76.19796
453.91        76.16068
454.36        76.28763
454.80        76.22463
455.24        76.24426
455.69        76.23544
456.13        76.34433
456.58         76.4933
457.02        76.13659
457.46        75.46503
457.91        75.34074
458.35        75.66992
458.79        75.71304
459.24         75.4846
459.68        75.43463
460.13        75.55939
460.57        75.43803
461.01        75.63739
461.46        75.36992
461.90        74.79212
462.34        75.63763
462.79        75.45358
463.23        75.47136
463.68         75.0225
464.12        74.77619
464.56        74.74012
465.01        74.55077
465.45        74.25205
465.89        74.19042
466.34        74.31423
466.78        74.66977
467.22        74.58952
467.67        74.49364
468.11        74.33496
468.55        74.06735
468.99        73.78538
469.44        73.53445
469.88        73.35075
470.32        73.26234
470.77        73.24274
471.21        73.24213
471.65        73.23306
472.10        73.25373
472.54        73.28299
472.98        73.32961
473.42        73.38193
473.87        73.42419
474.31        73.43314
474.75        73.40817
475.20        73.37702
475.64          73.369
476.08        73.37112
476.52        73.24238
476.97        72.97096
477.41        72.66382
477.85        72.55519
478.29        72.08042
478.74        73.23933
479.18        73.21863
479.62        72.69337
480.06        72.54595
480.50        72.80086
480.95        72.62884
481.39        73.22546
481.83        72.21617
482.27        73.28912
482.72        72.99893
483.16        73.05873
483.60        73.09618
484.04        73.36095
484.48        73.54399
484.93        73.44934
485.37        73.65755
485.81        72.88253
486.25        71.96591
486.69          73.064
487.14        72.59044
487.58        71.98711
488.02        72.48786
488.46        73.19009
488.90        73.06557
489.34        72.44247
489.79        73.47305
490.23         72.2288
490.67        72.12926
491.11        71.98931
491.55        71.91837
491.99        71.88154
492.43         71.8869
492.88        71.94717
493.32        72.11428
493.76        72.27782
494.20        72.45998
494.64          72.603
495.08        72.75993
495.52        72.90996
495.96        72.81998
496.41        72.51685
496.85        72.59519
497.29        72.60624
497.73        72.25161
498.17        72.24606
498.61        71.89986
499.05        71.56746
499.49        71.53214
499.93        71.73146
500.37        71.88827
500.82         72.0107
501.26        71.75504
501.70        72.20882
502.14        72.29663
502.58        72.32961
503.02        72.34435
503.46        72.35133
503.90        72.32219
504.34        72.26694
504.78        72.23934
505.22         72.2432
505.66        72.26767
506.10        72.29314
506.54        72.32021
506.98        72.34583
507.42        72.40197
507.86        72.10336
508.30         72.3981
508.74        71.87369
509.18        71.62378
509.62        71.35751
510.06        71.27467
510.50        71.39807
510.94        71.68986
511.38        72.02944
511.82        72.17609
512.26        72.07683
512.70        71.80477
513.14        71.49004
513.58         71.3348
514.02        71.38954
514.46        71.58714
514.90        71.83713
515.34        71.99574
515.78        72.01517
516.22        71.93863
516.66        71.82081
517.10        71.74174
517.54        71.72603
517.98        71.75027
518.42        71.76973
518.86        71.71866
519.30        71.58793
519.74        71.40464
520.18         71.2414
520.62        71.20253
521.06         71.3091
521.50        71.53458
521.93        71.79219
522.37        71.91493
522.81        71.87408
523.25        71.71011
523.69        71.53198
524.13         71.5117
524.57        71.67753
525.01        71.96409
525.45        72.25161
525.89        72.34675
526.32        72.19485
526.76        71.89291
527.20          71.535
527.64         71.2682
528.08        71.13912
528.52        71.10184
528.96        71.13316
529.40        71.19738
529.83         71.2663
530.27        71.35963
530.71        71.44527
531.15        71.47475
531.59        71.43991
532.03        71.35101
532.46        71.22931
532.90        71.14451
533.34        71.10877
533.78        71.11003
534.22        71.13963
534.66        71.18224
535.09        71.22238
535.53        71.27623
535.97        71.32845
536.41        71.36918
536.85        71.39163
537.28        71.38956
537.72         71.3589
538.16        71.29072
538.60        71.18742
539.04        71.05922
539.47        70.90909
539.91        70.79766
540.35        70.71923
540.79        70.67934
541.22        70.66405
541.66        70.66098
542.10        70.66154
542.54        70.67292
542.97        70.70244
543.41        70.78347
543.85        70.90421
544.29         71.0596
544.72        71.18161
545.16        71.20573
545.60        71.11739
546.04        70.91208
546.47        70.67527
546.91        70.65665
547.35        70.84004
547.79        70.94837
548.22        70.92201
548.66        71.05101
549.10          71.335
549.53        71.39252
549.97        71.10125
550.41        71.78294
550.84        71.28279
551.28        71.10564
551.72        70.68237
552.15        70.96427
552.59         70.9969
553.03        71.01149
553.46        70.78643
553.90         70.7418
554.34        70.86615
554.77        70.99795
555.21        71.09256
555.65        71.01188
556.08        70.81191
556.52        70.81527
556.96        71.00656
557.39        71.17952
557.83        71.29803
558.27        71.36243
558.70        71.37247
559.14        71.43687
559.57         71.5152
560.01        71.65125
560.45        71.77332
560.88        71.46468
561.32        71.17482
561.75        70.99864
562.19        71.05479
562.63        71.01439
563.06        70.87398
563.50        70.86474
563.93        70.94678
564.37        71.01855
564.80        71.04426
565.24        71.07095
565.68         71.0844
566.11        71.10899
566.55         71.1436
566.98        71.07199
567.42        71.00424
567.85        70.96174
568.29        70.94049
568.72        71.20881
569.16        71.84138
569.60        71.18185
570.03        71.37342
570.47        71.85466
570.90        71.47036
571.34        71.33147
571.77        71.52107
572.21        71.63187
572.64        71.73273
573.08        71.63963
573.51        71.46402
573.95        71.40307
574.38         71.7422
574.82        71.75687
