SpectraSmart Spectrum 2.9.0.0
--------- Device Information -----------
Spectrum Name :  反射率_0
Saving Time :  2024/04/30 00:11:22
Spectro-Module Model Name : SE2030-DUVN
Spectro-Module Serial Number : OS361AC55029948
Wavelength Start : 200
Wavelength End : 1025
Wavelength Unit : Wavelength(nm)
Spectrum Unit : Reflectance(%)
-----------Spectrum Setting ------------
Integration Time : 20ms
Average : 10
Boxcar : 0
Background removal :  enabled
linearity correction :  enabled
SC :  disabled
Intensity correction :  disabled
DWT denoise :  enabled
savitzky-golay :  disabled
FFT :  disabled
Running average :  disabled
Kalman :  disabled
High pass :  disabled
---------------BEGIN--------------------
Wavelength(nm)             Reflectance(%)
200.29               0
200.75         95.9561
201.21        88.91923
201.67        83.93594
202.13        83.52515
202.58        88.64639
203.04         99.1353
203.50        112.4033
203.96        122.6151
204.42        126.0972
204.88        122.6733
205.34        113.6182
205.80        103.2823
206.26         94.7033
206.72         88.0697
207.18        82.88183
207.64        77.86496
208.10        72.35081
208.55        66.31179
209.01        60.35984
209.47        57.41031
209.93        58.25964
210.39        61.42316
210.85        64.55398
211.31        65.71459
211.77        64.64731
212.23        61.20696
212.69        56.29614
213.14        54.94072
213.60        58.72791
214.06        65.23135
214.52        70.45792
214.98        71.84464
215.44        70.10684
215.90        66.28506
216.36        62.88555
216.81        64.80222
217.27        74.62489
217.73        93.24744
218.19         118.694
218.65        136.4825
219.11        136.3353
219.57        123.3276
220.02        108.6391
220.48        100.5646
220.94         97.8912
221.40        98.03806
221.86         98.1517
222.32         92.5155
222.77        82.02643
223.23        73.02595
223.69        66.92678
224.15        63.11149
224.61        60.60377
225.06        58.53063
225.52        57.76971
225.98        59.86951
226.44        63.98664
226.90         68.4137
227.36         71.4858
227.81        72.16687
228.27        70.85901
228.73        67.84512
229.19        64.01997
229.65        61.60103
230.10        61.34466
230.56        62.52304
231.02        63.88043
231.48         64.3157
231.93        63.73997
232.39        62.63898
232.85        61.68316
233.31        62.12592
233.77         64.3123
234.22        68.01048
234.68        72.05005
235.14        74.33784
235.60        74.32324
236.05        72.58514
236.51        70.84651
236.97        71.50861
237.43        75.30732
237.88        82.45319
238.34        91.84998
238.80        99.46993
239.26        102.0499
239.71        100.2501
240.17         96.2863
240.63        93.95189
241.08        94.69955
241.54        97.99248
242.00         105.215
242.46        116.0374
242.91        127.1036
243.37        135.3949
243.83        139.7482
244.28        141.8644
244.74        142.7266
245.20        140.5416
245.66        136.2081
246.11         132.946
246.57        132.1013
247.03        135.0034
247.48        137.1969
247.94        129.5601
248.40        115.3413
248.85        101.1143
249.31        92.88066
249.77        92.52866
250.22        99.93465
250.68        116.7734
251.14        143.8775
251.59        162.7658
252.05        157.2818
252.51        140.5316
252.96        126.8326
253.42        122.6942
253.88        125.2272
254.33        131.4485
254.79        138.1468
255.25        138.5087
255.70         132.342
256.16        125.2676
256.62         119.891
257.07        117.4174
257.53        117.8491
257.99        119.6884
258.44        121.4304
258.90        122.1071
259.35        120.9621
259.81        119.4267
260.27        117.9302
260.72        116.8669
261.18        116.5708
261.63        116.1738
262.09        115.4871
262.55          113.64
263.00         110.644
263.46        107.4001
263.91        104.1416
264.37        101.7401
264.83        100.0245
265.28        98.67237
265.74        97.57054
266.19        96.18175
266.65        94.58389
267.11        92.86642
267.56        91.22745
268.02        90.00268
268.47         89.1366
268.93        88.51795
269.38        87.84717
269.84        86.76539
270.30         85.1993
270.75        83.28673
271.21        81.34023
271.66        79.66245
272.12         78.3328
272.57        77.17597
273.03        76.05618
273.48        74.64497
273.94        73.00537
274.39        71.20952
274.85        69.51649
275.31        68.08115
275.76        66.89097
276.22        65.93661
276.67        65.06164
277.13        64.25633
277.58        63.39526
278.04        62.57463
278.49        61.69331
278.95        60.79679
279.40        59.81285
279.86        58.85186
280.31        57.87096
280.77        57.01204
281.22        56.23396
281.68        55.58122
282.13        55.02071
282.59        54.63361
283.04        54.34553
283.50         54.1551
283.95        53.92933
284.41        53.53912
284.86        52.94176
285.32        52.27024
285.77        51.56908
286.22        51.02667
286.68        50.70204
287.13        50.48726
287.59        50.41494
288.04        50.43566
288.50        50.54824
288.95        50.69813
289.41        50.84247
289.86        50.82599
290.32        50.67958
290.77        50.44876
291.22        50.22327
291.68        50.14029
292.13        50.23472
292.59        50.51673
293.04        51.02571
293.50        51.88651
293.95        53.07808
294.40        54.58534
294.86        56.22942
295.31        57.73167
295.77        59.01895
296.22        60.13289
296.68        61.25223
297.13         62.6369
297.58        64.34245
298.04        66.24059
298.49        68.13503
298.95        69.75805
299.40        71.03127
299.85         72.0713
300.31        73.03846
300.76        74.07137
301.21        75.26659
301.67        76.60436
302.12        78.00991
302.58        79.52953
303.03        81.09533
303.48        82.69843
303.94         84.3384
304.39        86.08495
304.84        87.67947
305.30         89.3274
305.75        90.88031
306.20        92.32823
306.66        93.68752
307.11        94.89362
307.57        96.03375
308.02        97.08239
308.47        98.10261
308.93        99.10968
309.38        100.0706
309.83        101.0274
310.29        101.9882
310.74         102.924
311.19        103.7986
311.65        104.5371
312.10         105.111
312.55        105.5731
313.00        106.0305
313.46        106.6532
313.91        107.4518
314.36         108.369
314.82        109.2949
315.27        110.0849
315.72        110.6636
316.18        111.0766
316.63        111.3272
317.08        111.4373
317.53        111.4539
317.99        111.4135
318.44        111.3708
318.89        111.4315
319.35        111.6235
319.80        111.9191
320.25         112.345
320.70        112.9332
321.16        113.6253
321.61        114.4475
322.06        115.1935
322.51        115.5499
322.97        115.4529
323.42         115.008
323.87        114.4618
324.32        114.2399
324.78        114.4307
325.23        114.9849
325.68        115.6931
326.13        116.1955
326.59        116.3563
327.04        116.3174
327.49        116.2192
327.94        116.3468
328.39          116.76
328.85        117.2977
329.30         117.869
329.75         118.104
330.20        117.9243
330.66        117.4667
331.11        116.9541
331.56        116.6476
332.01        116.6681
332.46        116.9507
332.92         117.448
333.37        118.2423
333.82        119.2281
334.27         120.371
334.72        121.5291
335.17        122.4714
335.63        123.0826
336.08        123.4571
336.53        123.5883
336.98        123.5723
337.43        123.4798
337.88        123.3138
338.34        123.1825
338.79        123.2695
339.24        123.6082
339.69         124.184
340.14        124.8666
340.59        125.4091
341.05        125.7467
341.50        125.9421
341.95        126.0884
342.40        126.3675
342.85        126.8127
343.30        127.3237
343.75        127.8338
344.20        128.2452
344.66        128.5389
345.11         128.779
345.56        128.9135
346.01        128.8462
346.46        128.6056
346.91        128.2262
347.36         127.963
347.81        128.2028
348.26          128.98
348.72        130.1397
349.17        131.3502
349.62         131.974
350.07        131.8459
350.52        131.1783
350.97        130.2904
351.42        129.6733
351.87        129.4738
352.32          129.54
352.77        129.7709
353.22        130.0107
353.67        130.1647
354.13        130.2525
354.58        130.2274
355.03        129.9963
355.48         129.536
355.93        128.8667
356.38        127.9922
356.83        126.9321
357.28        125.7386
357.73        124.4531
358.18        123.2125
358.63        122.2179
359.08        121.5048
359.53         121.009
359.98        120.6048
360.43        120.0819
360.88         119.374
361.33         118.539
361.78        117.6115
362.23        116.6517
362.68         115.695
363.13        114.7248
363.58        113.7808
364.03          112.93
364.48        112.1809
364.93        111.5174
365.38         110.897
365.83        110.2467
366.28         109.543
366.73        108.8028
367.18        108.0312
367.63        107.2359
368.08        106.4217
368.53        105.5861
368.98        104.7489
369.43        103.9419
369.88        103.1881
370.33        102.5041
370.78        101.8786
371.23        101.2905
371.68        100.7266
372.13        100.1598
372.58        99.63438
373.03        99.22369
373.48        98.90778
373.93        98.64554
374.38         98.2683
374.83        97.51649
375.28         96.3842
375.72        94.98101
376.17        93.62099
376.62        92.59077
377.07        91.95351
377.52         91.6003
377.97        91.44073
378.42        91.32693
378.87        91.18397
379.32        91.04309
379.77        90.84508
380.22        90.49919
380.67        89.98873
381.11        89.31844
381.56        88.57211
382.01        87.92552
382.46        87.44271
382.91        87.10534
383.36        86.82753
383.81        86.46214
384.26         85.9771
384.71        85.41355
385.15          84.867
385.60        84.54412
386.05        84.44456
386.50        84.48888
386.95        84.51428
387.40        84.28243
387.85        83.76028
388.29        82.99701
388.74         82.2538
389.19        81.66876
389.64        81.28215
390.09        81.02111
390.54        80.83191
390.98        80.65601
391.43        80.50607
391.88        80.27675
392.33        79.98341
392.78        79.86222
393.23        79.89085
393.67        79.26852
394.12        78.17091
394.57        77.74485
395.02        77.79026
395.47        77.99736
395.91        78.14983
396.36        78.13776
396.81        77.90607
397.26        77.49355
397.71         77.0284
398.15        76.61001
398.60        76.35402
399.05        76.30199
399.50         76.3366
399.95        76.08887
400.39        75.40342
400.84        75.51594
401.29        76.17814
401.74        76.32478
402.18        75.81678
402.63        75.04062
403.08        74.30511
403.53        73.99123
403.97        74.15753
404.42        74.59446
404.87        75.04066
405.32        75.09527
405.76        74.65482
406.21        74.02377
406.66        73.34708
407.11        72.60731
407.55         72.0674
408.00        72.14849
408.45        72.75154
408.90        73.43843
409.34        73.88685
409.79        73.62128
410.24        72.87598
410.68        72.61462
411.13        72.91785
411.58        73.20565
412.03        73.33683
412.47        73.36463
412.92        73.22018
413.37        72.93491
413.81        72.56991
414.26        72.29231
414.71        72.10808
415.15        71.99486
415.60        71.92381
416.05        71.89469
416.49        71.90257
416.94         71.9521
417.39         72.0064
417.83        71.97789
418.28        71.86629
418.73        71.70823
419.17        71.56354
419.62        71.54412
420.07         71.6396
420.51        71.77174
420.96         71.9438
421.41        72.00702
421.85        71.89581
422.30         72.0435
422.74         72.2414
423.19        71.57681
423.64        70.35374
424.08        70.25591
424.53        71.21415
424.98        71.62101
425.42        71.36029
425.87        71.57932
426.31        72.15273
426.76        71.91753
427.21        70.92361
427.65        70.82052
428.10        71.45143
428.54        71.50895
428.99        71.00854
429.44        70.61208
429.88        70.45888
430.33        70.56284
430.77        70.82889
431.22        71.38036
431.66        72.03103
432.11         71.9513
432.56        71.23335
433.00         71.1007
433.45        71.81454
433.89        71.84791
434.34        72.19357
434.78        73.61086
435.23        71.53242
435.67        70.97855
436.12        70.76002
436.57        70.81842
437.01        70.98649
437.46        71.60636
437.90        71.34605
438.35        71.67333
438.79        72.12517
439.24        72.26706
439.68        72.11716
440.13        72.07558
440.57         72.2133
441.02         72.3365
441.46        72.41134
441.91        72.63319
442.35        72.84763
442.80        72.79414
443.24        72.89791
443.69        72.50621
444.13        71.91478
444.58        71.58469
445.02        71.51978
445.47        71.54809
445.91        71.61108
446.36        71.70364
446.80        71.77438
447.24        71.89922
447.69        72.04929
448.13        72.02636
448.58        71.90395
449.02        71.95054
449.47        72.17242
449.91        72.30895
450.36        72.36285
450.80        72.46096
451.25        72.60625
451.69        72.69659
452.13        72.72752
452.58        72.75328
453.02        72.74982
453.47         72.6828
453.91        72.53928
454.36        72.46221
454.80        72.16736
455.24        72.19279
455.69        72.38082
456.13        72.37395
456.58        72.15821
457.02        71.95298
457.46        71.80211
457.91        71.68091
458.35        71.54088
458.79        71.41525
459.24        71.36379
459.68        71.26987
460.13        71.12666
460.57        71.33865
461.01        71.53513
461.46        71.05504
461.90        71.34054
462.34        71.42162
462.79        71.62311
463.23         71.4473
463.68        70.97151
464.12        70.68594
464.56        70.61498
465.01        70.51405
465.45        70.37302
465.89        70.38627
466.34        70.42873
466.78        70.89821
467.22         70.3948
467.67        70.22159
468.11        70.21324
468.55        70.00446
468.99        69.69545
469.44        69.45231
469.88        69.31497
470.32          69.248
470.77        69.21061
471.21        69.16107
471.65        69.06211
472.10        68.93656
472.54        68.83218
472.98        68.80097
473.42        68.83199
473.87        69.08196
474.31        69.38091
474.75        69.06654
475.20        68.32938
475.64        68.23779
476.08        68.75867
476.52        68.73392
476.97        68.09338
477.41        68.06837
477.85        68.15017
478.29        67.32375
478.74        68.35767
479.18         68.1636
479.62        67.72605
480.06        67.65588
480.50        68.01273
480.95        68.00063
481.39        68.61156
481.83        68.15428
482.27        68.69636
482.72        68.38288
483.16        68.34406
483.60        68.26124
484.04        68.37381
484.48        68.62322
484.93        68.80299
485.37        68.52988
485.81        67.86015
486.25        66.74762
486.69        68.40853
487.14          67.942
487.58        67.39002
488.02         66.8746
488.46        67.98486
488.90         67.5638
489.34        67.18228
489.79        68.12196
490.23        67.20305
490.67        67.24241
491.11        67.17219
491.55        66.99529
491.99        66.73962
492.43        66.64668
492.88        66.76187
493.32        66.99341
493.76        67.25856
494.20        67.46081
494.64        67.55752
495.08         67.5699
495.52        67.52835
495.96         67.4509
496.41          67.354
496.85        67.35535
497.29        67.26597
497.73        67.08508
498.17        67.02463
498.61        66.79166
499.05        66.53744
499.49        66.56144
499.93         66.7656
500.37         66.6532
500.82        66.29081
501.26        66.07293
501.70        66.31216
502.14        66.45589
502.58        66.55019
503.02        66.66405
503.46        66.78156
503.90        66.87709
504.34        66.93674
504.78        66.94559
505.22        66.88965
505.66        66.79921
506.10        66.70811
506.54        66.61314
506.98        66.51414
507.42        66.79603
507.86        66.43735
508.30        66.77229
508.74        66.29431
509.18        66.04422
509.62        65.77187
510.06         65.7013
510.50        65.86588
510.94        66.20746
511.38        66.58893
511.82        66.75042
512.26        66.63432
512.70        66.30972
513.14        65.91416
513.58        65.70962
514.02        65.76362
514.46        65.85997
514.90        66.06042
515.34        66.28206
515.78        66.13692
516.22        66.01363
516.66        65.87074
517.10        65.81486
517.54         65.8683
517.98        66.00033
518.42        66.15251
518.86        66.22347
519.30        66.18741
519.74        66.07712
520.18        65.94193
520.62         65.8526
521.06        65.83364
521.50        65.87374
521.93        65.94025
522.37        65.95785
522.81        65.91859
523.25        65.84431
523.69        65.81362
524.13        65.87498
524.57        66.02242
525.01        66.35345
525.45        66.79852
525.89        66.53765
526.32         66.6498
526.76        66.31326
527.20        65.96053
527.64        65.72353
528.08        65.65112
528.52        65.68181
528.96        65.75623
529.40        65.80793
529.83        65.80306
530.27        65.78009
530.71        65.73624
531.15        65.66847
531.59        65.58422
532.03        65.47978
532.46        65.37707
532.90        65.34233
533.34        65.37795
533.78        65.46835
534.22        65.57469
534.66        65.63596
535.09        65.62958
535.53        65.58259
535.97         65.5135
536.41        65.46891
536.85        65.45907
537.28        65.46578
537.72        65.46277
538.16        65.40397
538.60        65.28332
539.04        65.12552
539.47        64.95224
539.91         64.8466
540.35        64.80766
540.79        64.82636
541.22        64.87353
541.66        64.91428
542.10        64.93186
542.54        64.93945
542.97        64.94906
543.41        64.99892
543.85        65.08424
544.29        65.20058
544.72        65.28552
545.16        65.29114
545.60        65.20856
546.04         65.0114
546.47        64.77388
546.91        64.83935
547.35        65.02673
547.79        65.17383
548.22        65.15128
548.66        65.36626
549.10         65.5241
549.53        65.52007
549.97        65.17796
550.41        65.69942
550.84        65.12024
551.28        64.94727
551.72        64.64119
552.15        64.78292
552.59         64.5729
553.03        64.80393
553.46        64.90728
553.90        65.01373
554.34        64.99934
554.77        64.95522
555.21        64.93465
555.65        64.82095
556.08         64.6487
556.52        64.77131
556.96        65.19112
557.39        64.89951
557.83        65.38844
558.27        65.35165
558.70        65.28044
559.14        65.33186
559.57        65.47009
560.01        65.51675
560.45        65.45589
560.88        65.23987
561.32        65.21451
561.75        65.14142
562.19        65.11933
562.63        64.97394
563.06        64.75185
563.50        64.78635
563.93        65.01658
564.37        65.00639
564.80        64.99841
565.24        64.93237
565.68        64.90102
566.11        64.90174
566.55        64.94476
566.98        64.90611
567.42        64.86594
567.85        64.89054
568.29          64.953
568.72        65.11549
569.16        65.50105
569.60        64.94405
570.03        65.36436
570.47        65.66795
570.90        65.38712
571.34        65.08733
571.77        65.41104
572.21        65.61993
572.64        65.87153
573.08         65.6792
573.51        65.11284
573.95        65.41062
574.38        65.69548
574.82        65.64626
