SpectraSmart Spectrum 2.9.0.0
--------- Device Information -----------
Spectrum Name :  反射率_0
Saving Time :  2024/04/30 00:21:59
Spectro-Module Model Name : SE2030-DUVN
Spectro-Module Serial Number : OS361AC55029948
Wavelength Start : 200
Wavelength End : 1025
Wavelength Unit : Wavelength(nm)
Spectrum Unit : Reflectance(%)
-----------Spectrum Setting ------------
Integration Time : 20ms
Average : 10
Boxcar : 0
Background removal :  enabled
linearity correction :  enabled
SC :  disabled
Intensity correction :  disabled
DWT denoise :  enabled
savitzky-golay :  disabled
FFT :  disabled
Running average :  disabled
Kalman :  disabled
High pass :  disabled
---------------BEGIN--------------------
Wavelength(nm)             Reflectance(%)
200.29               0
200.75        60.79351
201.21         45.9575
201.67        29.91793
202.13        19.79093
202.58        18.93725
203.04        26.26741
203.50        40.40981
203.96         57.4299
204.42        73.56216
204.88        87.92413
205.34        96.17644
205.80        94.07504
206.26        84.64139
206.72        72.51588
207.18        61.61854
207.64        53.77729
208.10        48.09335
208.55        43.32316
209.01        39.38712
209.47        37.56126
209.93        38.11794
210.39         40.5935
210.85        42.95198
211.31        43.27098
211.77        41.32393
212.23        36.73596
212.69        30.96515
213.14        31.00561
213.60        38.43121
214.06        48.64016
214.52        56.52295
214.98        59.21513
215.44         57.7174
215.90        53.50075
216.36        48.48824
216.81        46.37869
217.27        49.25785
217.73        56.97849
218.19        69.57578
218.65         81.9125
219.11        88.04049
219.57        88.08724
220.02        85.02316
220.48        82.25629
220.94        79.58633
221.40        75.75684
221.86         69.4753
222.32        61.11943
222.77        53.75579
223.23         49.4506
223.69        47.10514
224.15        45.04205
224.61        42.64455
225.06         39.8722
225.52        37.53942
225.98        37.27911
226.44        39.14255
226.90        41.80495
227.36        44.01253
227.81        45.03637
228.27        45.06675
228.73        44.37883
229.19        43.48832
229.65        43.39007
230.10        44.20379
230.56        45.43533
231.02        46.43801
231.48         46.7084
231.93        46.22372
232.39        45.26883
232.85        44.21769
233.31        43.81356
233.77        44.30443
234.22        45.63206
234.68        47.16813
235.14        47.78458
235.60        47.24842
236.05        45.90921
236.51        44.84015
236.97        45.48256
237.43        48.27722
237.88        53.44965
238.34        60.19395
238.80        65.57667
239.26        67.25413
239.71        65.64686
240.17         62.5279
240.63        60.94934
241.08        62.03429
241.54        65.76758
242.00        73.16235
242.46        82.69722
242.91        90.33762
243.37        93.96883
243.83        94.69249
244.28         96.0378
244.74         99.1131
245.20        102.5114
245.66        106.2896
246.11        110.5834
246.57        114.7878
247.03        120.3561
247.48        123.6199
247.94        117.1549
248.40        104.3162
248.85        90.74868
249.31        82.16909
249.77        80.28622
250.22        84.51629
250.68        95.60136
251.14        113.5297
251.59        124.4187
252.05        117.8993
252.51        104.5637
252.96         93.9792
253.42         89.8518
253.88        90.02634
254.33        92.49627
254.79        95.84666
255.25        96.72202
255.70        94.54077
256.16        91.83289
256.62        89.75137
257.07        88.87452
257.53        89.34871
257.99        90.32545
258.44        90.64717
258.90        89.71492
259.35        87.32245
259.81        84.77078
260.27        82.56414
260.72        81.11452
261.18        80.52795
261.63        80.07407
262.09        79.57407
262.55        78.36808
263.00        76.44022
263.46         74.4389
263.91        72.39705
264.37        70.75423
264.83        69.41428
265.28        68.17362
265.74        67.22009
266.19        66.56643
266.65        66.25813
267.11         66.1685
267.56        66.03262
268.02        65.50774
268.47        64.47604
268.93        63.05072
269.38        61.37544
269.84         59.8521
270.30        58.62279
270.75        57.59617
271.21        56.70567
271.66        55.76032
272.12        54.70993
272.57        53.57419
273.03        52.41481
273.48        51.22046
273.94        50.09246
274.39        48.98358
274.85        47.95687
275.31        46.97924
275.76        46.02427
276.22        45.14895
276.67        44.33813
277.13        43.70678
277.58        43.18356
278.04        42.77249
278.49        42.33116
278.95        41.79227
279.40        41.08224
279.86        40.32315
280.31        39.51099
280.77        38.79229
281.22        38.15747
281.68        37.62408
282.13        37.18418
282.59        36.90397
283.04        36.73584
283.50         36.6667
283.95        36.58774
284.41        36.36513
284.86        35.96415
285.32        35.48893
285.77        34.98217
286.22        34.59821
286.68        34.38369
287.13        34.24523
287.59        34.20724
288.04        34.23729
288.50         34.3255
288.95        34.42901
289.41        34.49976
289.86        34.40191
290.32        34.16581
290.77        33.86004
291.22        33.56925
291.68        33.41998
292.13        33.46087
292.59        33.69322
293.04        34.20311
293.50        35.15939
293.95        36.54239
294.40        38.29455
294.86        40.16355
295.31        41.75758
295.77        42.97535
296.22        43.90424
296.68        44.77045
297.13        45.91731
297.58        47.44075
298.04        49.20071
298.49        51.03077
298.95        52.69011
299.40        54.10401
299.85        55.37517
300.31        56.61663
300.76        57.90405
301.21        59.31401
301.67        60.84396
302.12        62.43849
302.58        64.17126
303.03        65.99802
303.48        67.85123
303.94         69.7528
304.39        71.97953
304.84        74.01121
305.30        76.22907
305.75        78.33208
306.20        80.17525
306.66        81.74847
307.11        83.04834
307.57        84.25677
308.02        85.51177
308.47        86.90551
308.93        88.40152
309.38        89.90006
309.83        91.32533
310.29        92.64577
310.74        93.86852
311.19        94.98937
311.65         95.9835
312.10        96.84164
312.55        97.59655
313.00        98.33492
313.46        99.19968
313.91        100.2005
314.36         101.295
314.82        102.4042
315.27        103.4262
315.72        104.2915
316.18        105.0253
316.63         105.593
317.08        105.9585
317.53        106.1524
317.99        106.2275
318.44        106.2614
318.89        106.3974
319.35         106.677
319.80        107.0606
320.25        107.5704
320.70        108.2319
321.16        108.9838
321.61        109.8557
322.06        110.6371
322.51        111.0032
322.97          110.89
323.42        110.4087
323.87        109.8162
324.32        109.5542
324.78        109.7194
325.23        110.2602
325.68        110.9729
326.13        111.5025
326.59         111.716
327.04        111.7567
327.49        111.7579
327.94        111.9884
328.39        112.5063
328.85        113.1535
329.30        113.8466
329.75        114.2401
330.20        114.2474
330.66         113.977
331.11        113.6258
331.56        113.4231
332.01        113.4777
332.46        113.7402
332.92        114.1455
333.37        114.7433
333.82        115.4432
334.27        116.2348
334.72        117.0715
335.17        117.8713
335.63        118.5635
336.08        119.2158
336.53        119.7242
336.98        120.0058
337.43        120.0687
337.88        119.9402
338.34        119.8133
338.79        120.0178
339.24         120.615
339.69        121.5402
340.14        122.5408
340.59        123.1738
341.05         123.341
341.50        123.1838
341.95        122.9569
342.40          123.09
342.85        123.6714
343.30        124.5152
343.75        125.4269
344.20        126.1004
344.66         126.452
345.11        126.6165
345.56         126.595
346.01        126.3734
346.46        126.0263
346.91        125.5705
347.36        125.2799
347.81        125.5785
348.26        126.4972
348.72        127.8615
349.17         129.323
349.62        130.2016
350.07        130.3068
350.52        129.8672
350.97        129.1386
351.42        128.5242
351.87        128.1769
352.32        127.9695
352.77        127.9628
353.22        128.2645
353.67         128.823
354.13         129.575
354.58        130.2523
355.03        130.3984
355.48        129.9065
355.93        128.9136
356.38        127.6232
356.83        126.3631
357.28        125.2628
357.73        124.2601
358.18        123.3714
358.63        122.6142
359.08        121.9687
359.53        121.4365
359.98         120.952
360.43         120.389
360.88        119.7109
361.33        118.9471
361.78        118.0988
362.23        117.1833
362.68        116.2274
363.13        115.2327
363.58        114.2879
364.03        113.5292
364.48        112.9779
364.93        112.5988
365.38        112.2745
365.83         111.813
366.28        111.1653
366.73         110.378
367.18        109.5503
367.63        108.8427
368.08        108.2849
368.53        107.8184
368.98        107.3522
369.43        106.7392
369.88        105.9591
370.33        105.0916
370.78        104.2148
371.23        103.4539
371.68         102.846
372.13        102.3223
372.58        101.8949
373.03         101.586
373.48        101.3507
373.93        101.1647
374.38        100.8503
374.83        100.1259
375.28        98.98448
375.72        97.54111
376.17        96.12339
376.62        95.03867
377.07        94.36059
377.52        93.97639
377.97        93.81237
378.42        93.74774
378.87        93.69952
379.32        93.67554
379.77         93.5797
380.22         93.2661
380.67         92.7084
381.11        91.93948
381.56        91.04704
382.01         90.2182
382.46        89.54025
382.91        88.99799
383.36        88.57284
383.81        88.21609
384.26        87.90038
384.71        87.63109
385.15        87.39307
385.60        87.21989
386.05        87.06985
386.50        86.91215
386.95        86.68362
387.40        86.30338
387.85        85.78463
388.29        85.13851
388.74        84.54587
389.19        84.02556
389.64        83.59254
390.09        83.20509
390.54        82.90434
390.98        82.75451
391.43        82.77681
391.88        82.88286
392.33         82.9017
392.78        82.72443
393.23        82.31438
393.67        81.47017
394.12        80.45184
394.57        80.20039
395.02        79.64584
395.47        79.73216
395.91        79.99294
396.36        80.07121
396.81        79.90017
397.26          79.668
397.71        79.41047
398.15        79.06194
398.60        78.73484
399.05        78.38067
399.50        78.04524
399.95        77.89169
400.39        77.64618
400.84        77.84013
401.29        78.19961
401.74        78.16493
402.18        77.66236
402.63        76.92605
403.08        76.23901
403.53         75.9222
403.97        76.03893
404.42        76.48079
404.87         76.9706
405.32        77.05009
405.76        76.61073
406.21        75.88042
406.66        75.08638
407.11        74.50612
407.55        74.30154
408.00        74.51062
408.45        74.98834
408.90        75.33567
409.34        75.40715
409.79        75.24764
410.24        74.97638
410.68        74.84337
411.13        74.88802
411.58        74.96088
412.03        74.99264
412.47        74.94027
412.92        74.75818
413.37        74.50869
413.81        74.20603
414.26        73.94646
414.71         73.7188
415.15        73.51264
415.60        73.33681
416.05        73.25795
416.49          73.291
416.94        73.42426
417.39        73.56489
417.83        73.54607
418.28        73.34308
418.73        72.99368
419.17        72.65358
419.62        72.58825
420.07        72.82074
420.51        73.23853
420.96        73.66312
421.41        73.73148
421.85        73.36176
422.30        72.87994
422.74        72.37134
423.19        71.79836
423.64        71.29887
424.08        71.41723
424.53        72.04881
424.98        72.32944
425.42        72.35559
425.87        72.67522
426.31        72.91635
426.76        72.57194
427.21        71.57995
427.65        71.34729
428.10        71.75787
428.54         71.6782
428.99        71.12151
429.44        70.85977
429.88        70.70755
430.33        70.69948
430.77         70.7406
431.22        71.26936
431.66        72.04775
432.11        72.01264
432.56        71.21809
433.00        70.75454
433.45        70.97372
433.89         71.1135
434.34        71.80799
434.78        73.07919
435.23        71.07264
435.67        70.31476
436.12        69.89333
436.57        69.91807
437.01        70.27502
437.46        70.44458
437.90        70.42349
438.35        70.69982
438.79        71.19779
439.24         71.3754
439.68        71.24736
440.13        71.22605
440.57         71.3364
441.02        71.37868
441.46        71.33034
441.91        71.35144
442.35        71.34263
442.80         71.3846
443.24        71.39928
443.69        71.24477
444.13        70.94704
444.58        70.74215
445.02        70.60822
445.47        70.47501
445.91        70.34898
446.36        70.30323
446.80        70.32088
447.24        70.39808
447.69        70.50995
448.13        70.59141
448.58        70.64175
449.02        70.64989
449.47        70.65055
449.91        70.66436
450.36         70.7088
450.80        70.75388
451.25        70.78859
451.69        70.76454
452.13        70.68363
452.58        70.59263
453.02        70.50062
453.47        70.42607
453.91        70.36076
454.36        70.41402
454.80        70.27155
455.24        70.40414
455.69        70.62671
456.13        70.58138
456.58        70.31845
457.02        69.99208
457.46        69.86013
457.91        69.77882
458.35        69.75005
458.79        69.68499
459.24        69.61578
459.68        69.61565
460.13        69.67647
460.57        69.54404
461.01         69.7421
461.46        69.20999
461.90        69.08068
462.34        69.15189
462.79        69.51208
463.23         69.2912
463.68        68.56721
464.12        68.15859
464.56        68.10007
465.01        67.99258
465.45        67.81615
465.89        67.76841
466.34        67.81595
466.78        68.29937
467.22        68.35093
467.67        68.36546
468.11        68.11108
468.55        67.70456
468.99        67.25996
469.44        66.89642
469.88        66.67423
470.32        66.59637
470.77        66.60086
471.21        66.58497
471.65        66.50607
472.10        66.41445
472.54        66.34621
472.98        66.37162
473.42        66.48756
473.87        66.71684
474.31        66.94624
474.75        66.88776
475.20        66.59613
475.64        66.47479
476.08        66.54337
476.52         66.3518
476.97        65.85999
477.41        65.80726
477.85        65.67636
478.29        65.20756
478.74         65.4051
479.18        65.83092
479.62        65.50343
480.06        65.59324
480.50        65.69682
480.95        65.51143
481.39        66.13931
481.83         65.2152
482.27        66.05412
482.72        65.96781
483.16        65.76944
483.60        65.75951
484.04        65.90021
484.48        66.17599
484.93         66.4537
485.37         66.1699
485.81        65.61615
486.25        65.41128
486.69        66.53418
487.14        66.43656
487.58        65.02409
488.02        65.41512
488.46        66.03178
488.90        65.23919
489.34        64.80869
489.79        65.44515
490.23         64.8414
490.67        64.99971
491.11        64.98456
491.55        64.71419
491.99        64.25988
492.43        64.07461
492.88        64.21744
493.32        64.45935
493.76        64.70491
494.20        64.91387
494.64        65.04255
495.08        65.08971
495.52        65.07016
495.96        65.03448
496.41        65.02892
496.85        65.02049
497.29         64.9309
497.73        65.06614
498.17        64.76736
498.61        64.44473
499.05        64.05409
499.49        64.13634
499.93        64.57256
500.37        64.62598
500.82          64.299
501.26         64.1971
501.70        64.32553
502.14        64.30581
502.58        64.16407
503.02        64.12303
503.46        64.19771
503.90        64.33691
504.34        64.48129
504.78         64.5127
505.22        64.41271
505.66        64.26818
506.10        64.13847
506.54        64.08304
506.98        64.12164
507.42        64.35226
507.86        64.22224
508.30        64.56831
508.74        64.06101
509.18        63.72554
509.62        63.34695
510.06        63.17287
510.50        63.24848
510.94        63.51238
511.38        63.85022
511.82        64.04259
512.26        64.03527
512.70        63.87321
513.14        63.64111
513.58        63.53347
514.02        63.60146
514.46        63.53325
514.90         63.7269
515.34        63.73643
515.78        63.67366
516.22        63.56088
516.66        63.44114
517.10        63.36514
517.54        63.34249
517.98        63.35699
518.42        63.37808
518.86        63.36079
519.30        63.29461
519.74        63.19775
520.18        63.09738
520.62        63.03004
521.06        63.01106
521.50        63.03861
521.93        63.09811
522.37        63.14587
522.81        63.17725
523.25        63.18877
523.69        63.21765
524.13        63.32343
524.57        63.50592
525.01        63.74083
525.45        63.93589
525.89        63.94443
526.32        63.73545
526.76         63.3826
527.20        63.00529
527.64        62.79163
528.08        62.78448
528.52        62.92666
528.96         63.1288
529.40        63.24563
529.83        63.23062
530.27        63.13839
530.71        63.01233
531.15        62.92619
531.59        62.90242
532.03        62.91105
532.46        62.92487
532.90        62.93198
533.34         62.9195
533.78        62.90302
534.22        62.88811
534.66        62.87848
535.09        62.87061
535.53        62.87248
535.97        62.87923
536.41        62.90007
536.85        62.93137
537.28         62.9627
537.72        62.98051
538.16        62.95919
538.60        62.89265
539.04        62.79235
539.47        62.65646
539.91        62.53347
540.35        62.42079
540.79        62.32779
541.22        62.25387
541.66          62.208
542.10        62.18847
542.54        62.19643
542.97        62.23606
543.41        62.33016
543.85        62.46463
544.29        62.63735
544.72        62.77694
545.16        62.80956
545.60         62.7196
546.04        62.50513
546.47        62.26102
546.91        62.23942
547.35        62.43095
547.79        62.58192
548.22        62.61187
548.66        62.73051
549.10        62.92859
549.53        62.89312
549.97        62.54694
550.41        63.07041
550.84        62.58692
551.28        62.48178
551.72        62.22094
552.15        62.45919
552.59        62.39165
553.03         62.4735
553.46        62.45955
553.90        62.46025
554.34        62.45453
554.77         62.4046
555.21        62.34337
555.65        62.27134
556.08        62.22821
556.52        62.34752
556.96        62.55837
557.39        62.70916
557.83        62.75628
558.27        62.62257
558.70        62.41009
559.14        62.39704
559.57        62.55793
560.01        62.76366
560.45        62.91826
560.88        62.70021
561.32        62.49129
561.75        62.34799
562.19         62.3812
562.63        62.32861
563.06        62.19059
563.50        62.15395
563.93        62.19131
564.37        62.23615
564.80        62.26157
565.24        62.30219
565.68        62.34373
566.11         62.4071
566.55        62.49001
566.98        62.48002
567.42        62.45278
567.85        62.47655
568.29        62.57487
568.72        62.79727
569.16        63.16403
569.60        62.97157
570.03         63.0833
570.47        63.17946
570.90        63.15307
571.34        62.95433
571.77        63.20601
572.21        63.38178
572.64        63.61386
573.08        63.55099
573.51        63.24594
573.95         63.3377
574.38        63.71304
574.82        63.31096
