SpectraSmart Spectrum 2.9.0.0
--------- Device Information -----------
Spectrum Name :  反射率_0
Saving Time :  2024/04/30 00:01:02
Spectro-Module Model Name : SE2030-DUVN
Spectro-Module Serial Number : OS361AC55029948
Wavelength Start : 200
Wavelength End : 1025
Wavelength Unit : Wavelength(nm)
Spectrum Unit : Reflectance(%)
-----------Spectrum Setting ------------
Integration Time : 20ms
Average : 10
Boxcar : 0
Background removal :  enabled
linearity correction :  enabled
SC :  disabled
Intensity correction :  disabled
DWT denoise :  enabled
savitzky-golay :  disabled
FFT :  disabled
Running average :  disabled
Kalman :  disabled
High pass :  disabled
---------------BEGIN--------------------
Wavelength(nm)             Reflectance(%)
200.29               0
200.75         60.3411
201.21        61.80196
201.67        64.30227
202.13        64.24411
202.58        60.32158
203.04        52.66999
203.50        45.21645
203.96        47.27076
204.42        61.37948
204.88        83.46648
205.34        102.4853
205.80        103.5373
206.26        89.18777
206.72         70.0663
207.18        53.18806
207.64        41.84267
208.10        34.81458
208.55        29.67252
209.01        26.37822
209.47        26.50062
209.93        29.66217
210.39        34.78635
210.85        39.46379
211.31        41.77759
211.77        41.84997
212.23        39.78586
212.69        36.52587
213.14        36.66455
213.60        41.18102
214.06        47.40148
214.52        52.60036
214.98        55.48854
215.44        56.73027
215.90        57.12743
216.36        57.74005
216.81        60.45275
217.27        66.33698
217.73        75.66086
218.19        87.47935
218.65        95.26354
219.11        94.39366
219.57        87.35177
220.02        78.96578
220.48        72.46477
220.94        66.73676
221.40        60.03248
221.86        51.65261
222.32        43.87943
222.77         39.7118
223.23        39.26409
223.69        39.73985
224.15        38.85753
224.61        36.35608
225.06         32.3295
225.52        28.38814
225.98        27.90815
226.44        31.09774
226.90        35.69778
227.36        39.17419
227.81        39.79586
228.27        37.85588
228.73        33.95204
229.19        29.69822
229.65        28.51338
230.10        30.89284
230.56        34.87312
231.02        38.32652
231.48         39.4802
231.93        38.35741
232.39        35.73243
232.85           32.54
233.31        30.54806
233.77        30.38751
234.22        31.65585
234.68        33.42112
235.14        33.97217
235.60        32.90727
236.05        30.92808
236.51        29.20143
236.97        29.19237
237.43        31.32876
237.88        35.58801
238.34        41.48359
238.80         46.9178
239.26         49.9034
239.71        50.62431
240.17        49.79313
240.63        49.13902
241.08        49.39531
241.54        50.16306
242.00        52.27593
242.46        57.38262
242.91        65.55291
243.37         74.6889
243.83        81.85105
244.28         86.0386
244.74        87.75606
245.20         86.4899
245.66        82.94418
246.11        79.47141
246.57        77.45705
247.03        77.40255
247.48        77.30375
247.94        72.92721
248.40        65.91055
248.85        59.22186
249.31        55.54501
249.77        55.50506
250.22        58.90903
250.68        66.45343
251.14        77.94626
251.59        84.21475
252.05        79.03624
252.51        69.68999
252.96         62.4832
253.42        59.69743
253.88        59.83705
254.33        61.48443
254.79        63.89424
255.25         64.8484
255.70         63.8234
256.16        62.41295
256.62        61.16272
257.07        60.29795
257.53        59.99958
257.99        59.77961
258.44        59.19026
258.90        58.39503
259.35        57.16494
259.81        56.04115
260.27        54.97155
260.72        53.90925
261.18        52.96773
261.63        51.85163
262.09        50.72803
262.55        49.53554
263.00        48.26913
263.46        47.16019
263.91        45.96856
264.37        44.64407
264.83        43.12989
265.28        41.42868
265.74        39.92715
266.19        39.02016
266.65        38.80112
267.11        39.04394
267.56         39.3368
268.02        39.08755
268.47         38.1571
268.93        36.73054
269.38        35.08419
269.84        33.82788
270.30        33.12756
270.75        32.79897
271.21        32.59172
271.66        32.11869
272.12        31.28521
272.57        30.21343
273.03        29.08072
273.48        28.07936
273.94        27.33268
274.39        26.73744
274.85        26.25103
275.31        25.76394
275.76        25.22731
276.22        24.68864
276.67        24.16625
277.13        23.75078
277.58        23.41018
278.04        23.14246
278.49        22.82399
278.95         22.3552
279.40        21.70304
279.86        20.97871
280.31        20.27677
280.77         19.8352
281.22        19.65495
281.68        19.66722
282.13        19.75448
282.59        19.78104
283.04        19.69159
283.50        19.51709
283.95        19.25941
284.41        18.92267
284.86        18.52467
285.32        18.10331
285.77        17.66681
286.22        17.28324
286.68        16.97798
287.13        16.70838
287.59        16.51845
288.04        16.42318
288.50        16.42171
288.95        16.48451
289.41        16.53305
289.86        16.42466
290.32        16.16444
290.77        15.80438
291.22         15.4578
291.68        15.30552
292.13        15.38065
292.59         15.6274
293.04        16.01042
293.50        16.49082
293.95        17.03902
294.40        17.67362
294.86        18.29529
295.31         18.7639
295.77        19.06022
296.22        19.21742
296.68        19.39777
297.13        19.84267
297.58        20.60194
298.04        21.56162
298.49        22.56575
298.95        23.35659
299.40        23.87343
299.85        24.21386
300.31        24.46801
300.76        24.72423
301.21        25.06098
301.67        25.46137
302.12        25.95566
302.58        26.72482
303.03        27.77147
303.48        28.91309
303.94        30.02297
304.39        31.62325
304.84        32.46573
305.30        33.57425
305.75        34.65336
306.20        35.86596
306.66        37.23777
307.11        38.70555
307.57        40.24312
308.02        41.74868
308.47        43.23414
308.93        44.74715
309.38        46.31523
309.83        48.01988
310.29        49.86353
310.74        51.79813
311.19        53.74841
311.65         55.6018
312.10        57.32426
312.55        58.94932
313.00        60.57262
313.46        62.35046
313.91        64.29967
314.36        66.37356
314.82        68.44988
315.27        70.35406
315.72        72.00999
316.18        73.45712
316.63        74.75746
317.08        76.03388
317.53        77.32757
317.99        78.61458
318.44        79.83161
318.89        80.89703
319.35        81.79842
319.80        82.57051
320.25        83.32719
320.70        84.24481
321.16        85.33169
321.61        86.57378
322.06         87.7654
322.51        88.57651
322.97        88.92195
323.42        88.90818
323.87        88.75856
324.32        88.85464
324.78        89.28375
325.23        89.99697
325.68        90.79773
326.13        91.34795
326.59        91.53377
327.04        91.49387
327.49        91.40286
327.94        91.58453
328.39        92.11302
328.85        92.83544
329.30        93.61886
329.75        94.06123
330.20        94.05582
330.66        93.72971
331.11        93.29749
331.56        93.03249
332.01         93.0517
332.46        93.28573
332.92        93.66623
333.37        94.20775
333.82        94.82018
334.27        95.50294
334.72        96.20415
335.17        96.82903
335.63        97.32109
336.08        97.74876
336.53        98.04372
336.98        98.17233
337.43         98.1557
337.88        98.00269
338.34        97.89799
338.79        98.15315
339.24        98.81539
339.69        99.82645
340.14        100.8901
340.59        101.4941
341.05        101.5315
341.50        101.1581
341.95        100.7205
342.40        100.7907
342.85        101.4871
343.30        102.5936
343.75        103.7995
344.20          104.61
344.66        104.8954
345.11        104.8329
345.56        104.5615
346.01        104.2932
346.46        104.1352
346.91        104.0162
347.36        104.0337
347.81        104.3458
348.26        104.9452
348.72        105.7756
349.17        106.6435
349.62        107.1434
350.07        107.1745
350.52        106.8652
350.97        106.4182
351.42        106.1551
351.87        106.1744
352.32        106.3758
352.77        106.7094
353.22        107.0984
353.67        107.4725
354.13        107.8194
354.58        108.0612
355.03        108.0655
355.48         107.795
355.93        107.2815
356.38        106.5537
356.83        105.6664
357.28        104.6775
357.73        103.6157
358.18        102.5841
358.63        101.7312
359.08        101.0877
359.53        100.6156
359.98        100.2358
360.43        99.80772
360.88        99.28606
361.33        98.71166
361.78        98.08891
362.23        97.42996
362.68        96.75164
363.13        96.04282
363.58        95.36127
364.03         94.8037
364.48        94.38147
364.93         94.0659
365.38        93.76999
365.83        93.35355
366.28        92.78059
366.73        92.08508
367.18        91.34198
367.63         90.6693
368.08        90.09498
368.53        89.58932
368.98        89.08598
369.43        88.47464
369.88        87.74702
370.33        86.96266
370.78        86.21085
371.23        85.63528
371.68        85.26198
372.13        85.01241
372.58        84.83061
373.03        84.62876
373.48         84.3504
373.93        84.01474
374.38        83.53378
374.83        82.77922
375.28         81.7785
375.72        80.58533
376.17        79.46538
376.62        78.66362
377.07        78.22182
377.52        78.05311
377.97        78.02701
378.42        77.92438
378.87        77.67056
379.32        77.32423
379.77        76.91975
380.22        76.50784
380.67        76.09871
381.11        75.65677
381.56        75.18534
382.01        74.71804
382.46        74.27639
382.91        73.88327
383.36        73.51193
383.81        73.10597
384.26        72.65873
384.71        72.18247
385.15         71.7382
385.60        71.47467
386.05         71.3838
386.50        71.41296
386.95        71.43729
387.40        71.26996
387.85        70.88497
388.29        70.31348
388.74        69.76516
389.19        69.34235
389.64        69.07457
390.09        68.90245
390.54        68.78372
390.98        68.67133
391.43        68.57774
391.88        68.42087
392.33        68.18379
392.78        68.09479
393.23        68.06358
393.67         67.5221
394.12        66.67832
394.57        66.60281
395.02         66.3686
395.47        66.49454
395.91        66.59397
396.36        66.56648
396.81        66.37757
397.26        66.07633
397.71          65.731
398.15        65.41117
398.60        65.18922
399.05        64.93784
399.50        64.68746
399.95        64.55502
400.39        64.35203
400.84        64.67619
401.29        65.25137
401.74        65.35834
402.18        64.90586
402.63        64.22575
403.08        63.60258
403.53        63.32714
403.97        63.46886
404.42        63.92086
404.87        64.43555
405.32         64.6078
405.76        64.33911
406.21        63.82011
406.66        63.21485
407.11        62.78072
407.55        62.65122
408.00        62.68544
408.45         62.8485
408.90         63.3057
409.34        63.83516
409.79        63.74789
410.24        63.21686
410.68        63.13433
411.13        63.55897
411.58        63.98968
412.03        64.27938
412.47        64.41576
412.92        64.32515
413.37        64.05096
413.81        63.69519
414.26        63.47842
414.71        63.42316
415.15        63.49824
415.60        63.62933
416.05        63.72807
416.49        63.77201
416.94        63.79675
417.39        63.83341
417.83         63.9088
418.28        64.03981
418.73        64.20794
419.17        64.40889
419.62        64.65474
420.07        64.91486
420.51        65.15942
420.96        65.38656
421.41        65.48442
421.85        65.41688
422.30        65.48196
422.74        65.58908
423.19         65.2637
423.64        64.70006
424.08        64.93047
424.53        65.85195
424.98        66.36043
425.42        66.34535
425.87         66.5793
426.31         67.0006
426.76        66.81699
427.21         66.0772
427.65        66.14355
428.10         66.8551
428.54        67.01552
428.99        66.65755
429.44        66.50011
429.88         66.6189
430.33        66.81849
430.77           67.03
431.22        67.52415
431.66        68.16213
432.11        68.20075
432.56         67.6972
433.00        67.60815
433.45        68.16831
433.89        68.21898
434.34        68.64838
434.78        69.89796
435.23        68.48023
435.67        68.06758
436.12        67.81667
436.57        68.18496
437.01         69.0106
437.46        69.49715
437.90        69.60199
438.35        69.89342
438.79        70.35469
439.24        70.54849
439.68        70.51607
440.13        70.62065
440.57        70.87447
441.02        71.04156
441.46         71.0808
441.91        71.21449
442.35        71.31178
442.80        71.28843
443.24        71.20799
443.69        70.98483
444.13        70.73407
444.58        70.64824
445.02        70.70637
445.47        70.90298
445.91        71.16753
446.36        71.33224
446.80        71.33153
447.24        71.62362
447.69        71.52249
448.13        71.61592
448.58        71.72186
449.02        71.81714
449.47        71.93542
449.91        72.10945
450.36        72.35435
450.80        72.63436
451.25        72.89548
451.69        73.01337
452.13        72.97427
452.58        72.85299
453.02        72.74062
453.47        72.67894
453.91        72.65573
454.36        72.97346
454.80        73.32529
455.24        73.04732
455.69        73.60142
456.13         73.5145
456.58        73.42185
457.02        72.50508
457.46        72.78687
457.91        72.60917
458.35        72.47774
458.79         72.4544
459.24        72.60291
459.68        72.71455
460.13        72.64867
460.57        73.07442
461.01        73.13849
461.46        72.41427
461.90        72.00407
462.34        72.74039
462.79        72.56501
463.23        72.58877
463.68          72.159
464.12        71.94528
464.56        71.96291
465.01        71.86751
465.45        71.66383
465.89        71.69904
466.34        71.95112
466.78        72.09525
467.22        72.20924
467.67        72.18294
468.11        72.06635
468.55        71.78183
468.99        71.42888
469.44        71.18228
469.88        71.08205
470.32         71.1004
470.77        71.16965
471.21        71.20197
471.65        71.15678
472.10        71.07852
472.54        71.01309
472.98        71.05686
473.42        71.20982
473.87        71.47445
474.31        71.73409
474.75        71.71108
475.20        71.41022
475.64        71.27615
476.08        71.39825
476.52        71.08847
476.97        70.24462
477.41        71.01403
477.85        70.56905
478.29        69.89855
478.74        70.95878
479.18        71.03658
479.62        70.67211
480.06        70.60406
480.50        70.78063
480.95        70.65609
481.39        71.20222
481.83        70.42223
482.27         71.3945
482.72        71.39524
483.16        71.41238
483.60        71.44203
484.04        71.53539
484.48        71.70983
484.93        71.78071
485.37        71.23361
485.81        70.57092
486.25        69.70385
486.69        71.32526
487.14        71.46282
487.58        70.29317
488.02        70.46684
488.46        70.98347
488.90        71.19924
489.34        70.63374
489.79        71.19198
490.23        70.49864
490.67        70.49556
491.11        70.48109
491.55        70.31967
491.99        70.06158
492.43         69.9991
492.88        70.16305
493.32        70.42427
493.76         70.6889
494.20         70.8772
494.64        70.95307
495.08        70.92618
495.52        70.82199
495.96        70.73563
496.41        70.71387
496.85        70.65981
497.29        70.51041
497.73        70.70679
498.17        70.41737
498.61        70.22676
499.05        69.98483
499.49        69.97993
499.93        70.10854
500.37        70.06596
500.82        69.94494
501.26        69.49948
501.70        69.82203
502.14        70.11736
502.58        70.07073
503.02        70.20576
503.46        70.33531
503.90        70.44168
504.34        70.50799
504.78        70.54556
505.22        70.53223
505.66        70.51736
506.10        70.52854
506.54          70.437
506.98        70.18751
507.42        70.71313
507.86         69.9566
508.30        70.30419
508.74        69.88258
509.18        69.74618
509.62        69.57359
510.06        69.55097
510.50        69.70514
510.94        69.98191
511.38        70.28542
511.82        70.41802
512.26        70.33622
512.70         70.1008
513.14        69.82012
513.58        69.66219
514.02        69.67261
514.46        69.80097
514.90        69.98052
515.34        70.10364
515.78        70.13355
516.22        70.10117
516.66        70.04602
517.10        70.02592
517.54        70.05362
517.98        70.10532
518.42        70.13742
518.86        70.08635
519.30        69.94452
519.74         69.7428
520.18        69.54383
520.62        69.43606
521.06        69.44637
521.50        69.55999
521.93         69.7298
522.37         69.8533
522.81        69.90878
523.25        69.90617
523.69        69.90717
524.13        70.01154
524.57        70.22696
525.01        70.51244
525.45        70.75375
525.89        70.76993
526.32        70.52315
526.76         70.1081
527.20         69.6618
527.64        69.39732
528.08        69.36652
528.52        69.50259
528.96        69.71981
529.40        69.87888
529.83        69.92719
530.27        69.91545
530.71        69.86183
531.15        69.80026
531.59        69.74698
532.03          69.686
532.46        69.61485
532.90        69.56586
533.34        69.53785
533.78         69.5324
534.22        69.54663
534.66        69.57065
535.09        69.59235
535.53        69.62504
535.97        69.65179
536.41        69.66265
536.85        69.65289
537.28        69.61845
537.72        69.56555
538.16        69.50001
538.60        69.42509
539.04        69.34502
539.47        69.24632
539.91        69.16302
540.35        69.08513
540.79        69.02679
541.22        68.98817
541.66        68.98022
542.10        68.99992
542.54        69.04426
542.97        69.11461
543.41        69.23431
543.85        69.38788
544.29        69.57592
544.72        69.72371
545.16        69.75513
545.60        69.65736
546.04          69.427
546.47        69.16317
546.91        69.16317
547.35        69.41877
547.79        69.59171
548.22        69.58482
548.66         69.8718
549.10        70.04299
549.53        70.06828
549.97          69.724
550.41        70.31722
550.84        69.73969
551.28         69.5395
551.72        69.17697
552.15        69.43769
552.59        69.32803
553.03        69.67659
553.46        69.11351
553.90        69.08157
554.34        69.23181
554.77         69.3767
555.21        69.46321
555.65        69.39438
556.08        69.23289
556.52        69.26552
556.96        69.48057
557.39        69.68214
557.83        69.83544
558.27        69.93452
558.70        69.98688
559.14        70.02836
559.57        70.03635
560.01        70.07477
560.45        70.12577
560.88        69.87639
561.32        69.74591
561.75         69.7258
562.19         69.8909
562.63        69.89211
563.06        69.72849
563.50        69.68471
563.93        69.72493
564.37        69.71139
564.80        69.62273
565.24        69.54107
565.68        69.48774
566.11        69.52339
566.55        69.65665
566.98        69.74371
567.42        69.82178
567.85        69.89088
568.29        69.96178
568.72        69.99903
569.16        70.44138
569.60        69.89609
570.03        70.23151
570.47        70.27025
570.90        70.51123
571.34        70.01917
571.77        70.35117
572.21         70.2756
572.64        70.25368
573.08        70.26753
573.51        69.94003
573.95        70.40952
574.38        70.60204
574.82        70.24878
