SpectraSmart Spectrum 2.9.0.0
--------- Device Information -----------
Spectrum Name :  反射率_0
Saving Time :  2024/04/30 00:20:33
Spectro-Module Model Name : SE2030-DUVN
Spectro-Module Serial Number : OS361AC55029948
Wavelength Start : 200
Wavelength End : 1025
Wavelength Unit : Wavelength(nm)
Spectrum Unit : Reflectance(%)
-----------Spectrum Setting ------------
Integration Time : 20ms
Average : 10
Boxcar : 0
Background removal :  enabled
linearity correction :  enabled
SC :  disabled
Intensity correction :  disabled
DWT denoise :  enabled
savitzky-golay :  disabled
FFT :  disabled
Running average :  disabled
Kalman :  disabled
High pass :  disabled
---------------BEGIN--------------------
Wavelength(nm)             Reflectance(%)
200.29               0
200.75        88.53645
201.21        86.53563
201.67        85.78276
202.13        83.55706
202.58          78.991
203.04        71.63167
203.50        65.44455
203.96         69.6178
204.42        86.16629
204.88        110.9414
205.34        130.7935
205.80        128.3952
206.26        108.0211
206.72        82.72805
207.18        61.42037
207.64        48.50262
208.10        42.16595
208.55        39.04272
209.01        38.56699
209.47        40.81937
209.93         44.6484
210.39        49.70591
210.85         53.5425
211.31         53.9389
211.77        50.76426
212.23        43.25021
212.69         33.1415
213.14        30.47975
213.60         38.9656
214.06        52.53259
214.52         63.9199
214.98         68.9034
215.44        68.68073
215.90        65.18699
216.36        60.90358
216.81        60.47654
217.27         66.4036
217.73         78.8838
218.19        96.86172
218.65        110.8799
219.11        113.1899
219.57        106.3645
220.02        97.55154
220.48        92.53654
220.94         90.5788
221.40        90.06065
221.86         88.0346
222.32        79.62788
222.77        67.17097
223.23        56.69913
223.69        50.11221
224.15        47.09932
224.61        46.46447
225.06        47.43231
225.52        49.68314
225.98        51.86928
226.44        53.07311
226.90        53.48555
227.36        53.36623
227.81        52.96864
228.27        52.36505
228.73        51.33011
229.19        49.94082
229.65        48.62918
230.10        47.72538
230.56        47.34935
231.02        47.10833
231.48        46.56762
231.93        45.60854
232.39        44.38108
232.85        43.27053
233.31         43.0812
233.77         44.0305
234.22        46.02458
234.68         48.2187
235.14        49.08376
235.60        48.29437
236.05        46.33863
236.51        44.55991
236.97        44.76009
237.43        47.48161
237.88        52.90134
238.34        60.27084
238.80         66.5864
239.26        69.32168
239.71        68.81841
240.17        66.73953
240.63        66.23603
241.08        68.67556
241.54        74.21448
242.00         84.1757
242.46        96.62939
242.91        106.2366
243.37        110.1541
243.83        109.9632
244.28        110.3235
244.74        112.5521
245.20        114.6783
245.66        116.9656
246.11        120.1733
246.57        123.9268
247.03        130.0848
247.48        133.5684
247.94        124.3441
248.40        106.9735
248.85        89.34853
249.31        78.52468
249.77        76.87603
250.22        83.82732
250.68        100.5834
251.14        128.1438
251.59         148.058
252.05        143.2626
252.51        126.7531
252.96         112.061
253.42        104.7099
253.88        101.9578
254.33        100.9731
254.79        100.3587
255.25        97.87708
255.70        93.75942
256.16        90.27493
256.62        87.80763
257.07        86.21828
257.53        85.55929
257.99         85.1429
258.44        84.19046
258.90          82.679
259.35        80.35844
259.81        78.07673
260.27        76.00221
260.72        74.23671
261.18         72.9435
261.63        71.69601
262.09        70.43821
262.55        68.72246
263.00        66.59928
263.46        64.54639
263.91        62.68639
264.37        61.52873
264.83        60.91809
265.28        60.56817
265.74        60.38901
266.19        59.98402
266.65        59.34966
267.11        58.55782
267.56        57.60093
268.02        56.48047
268.47        55.17412
268.93        53.67834
269.38        52.12416
269.84        50.87703
270.30        50.02402
270.75        49.50113
271.21         49.0745
271.66        48.31965
272.12        47.16822
272.57        45.70763
273.03        44.22646
273.48        43.09866
273.94          42.464
274.39        42.11251
274.85         41.8499
275.31        41.31105
275.76        40.41082
276.22        39.33274
276.67        38.19918
277.13        37.29177
277.58        36.62206
278.04        36.16003
278.49        35.75656
278.95         35.3181
279.40        34.76832
279.86        34.21456
280.31        33.69299
280.77        33.38675
281.22        33.25222
281.68        33.24126
282.13        33.21674
282.59        33.06015
283.04        32.72389
283.50        32.28164
283.95        31.76374
284.41        31.24213
284.86        30.75044
285.32        30.32653
285.77        29.98428
286.22        29.82092
286.68        29.84771
287.13        29.98828
287.59        30.21207
288.04        30.40052
288.50        30.53182
288.95        30.59262
289.41        30.59198
289.86        30.49925
290.32        30.35914
290.77        30.19275
291.22        30.06167
291.68        30.05375
292.13        30.19404
292.59        30.50267
293.04        31.01517
293.50        31.81371
293.95        32.89391
294.40        34.24345
294.86        35.73871
295.31          37.194
295.77        38.55236
296.22        39.83424
296.68         41.1574
297.13        42.68919
297.58        44.46159
298.04        46.37469
298.49        48.28704
298.95        49.99916
299.40        51.46134
299.85        52.76377
300.31        54.02987
300.76        55.36219
301.21        56.84279
301.67        58.46213
302.12        60.17489
302.58        62.06202
303.03        64.06935
303.48        66.11446
303.94        68.16756
304.39        70.44596
304.84        72.39424
305.30        74.44315
305.75        76.34717
306.20        78.06274
306.66        79.59899
307.11        80.91608
307.57        82.15256
308.02        83.38397
308.47        84.68236
308.93        86.03645
309.38        87.34881
309.83        88.54379
310.29        89.60319
310.74        90.53928
311.19        91.38234
311.65         92.1639
312.10        92.88056
312.55        93.53989
313.00        94.19349
313.46        94.92479
313.91        95.72708
314.36         96.5836
314.82        97.41328
315.27        98.11265
315.72        98.62981
316.18        98.99593
316.63        99.24287
317.08        99.43836
317.53        99.62572
317.99         99.8242
318.44        100.0197
318.89         100.204
319.35        100.3815
319.80         100.556
320.25        100.8191
320.70        101.3133
321.16        102.0149
321.61        102.9115
322.06        103.7627
322.51        104.1926
322.97        104.1138
323.42         103.654
323.87        103.0684
324.32        102.7895
324.78        102.9179
325.23        103.3989
325.68        104.0421
326.13          104.52
326.59        104.7108
327.04        104.7505
327.49        104.7701
327.94        105.0306
328.39        105.5805
328.85        106.2582
329.30        106.9643
329.75        107.3408
330.20        107.2964
330.66        106.9505
331.11        106.4889
331.56        106.1258
332.01        105.9785
332.46        106.0105
332.92         106.218
333.37        106.7419
333.82        107.5166
334.27        108.4984
334.72        109.5719
335.17        110.5363
335.63        111.2788
336.08        111.8878
336.53        112.2803
336.98         112.412
337.43        112.3215
337.88        112.0399
338.34        111.7864
338.79        111.9318
339.24        112.5458
339.69         113.548
340.14        114.6851
340.59        115.5051
341.05        115.8815
341.50        115.9381
341.95        115.8604
342.40        115.9736
342.85        116.3602
343.30        116.8874
343.75        117.4453
344.20         117.866
344.66        118.1173
345.11        118.2984
345.56        118.4111
346.01        118.4358
346.46        118.4066
346.91        118.3128
347.36        118.3416
347.81        118.7881
348.26        119.6644
348.72        120.8455
349.17        122.0282
349.62        122.6284
350.07        122.5071
350.52        121.8673
350.97        121.0347
351.42        120.5087
351.87        120.4396
352.32        120.6835
352.77         121.132
353.22        121.6099
353.67        122.0139
354.13        122.3594
354.58        122.5988
355.03         122.643
355.48        122.4578
355.93        122.0442
356.38        121.3888
356.83        120.4925
357.28        119.4045
357.73        118.1771
358.18        116.9529
358.63        115.9399
359.08        115.1873
359.53        114.6429
359.98         114.207
360.43        113.7058
360.88        113.0825
361.33        112.3865
361.78        111.6357
362.23        110.8608
362.68        110.0828
363.13        109.2857
363.58        108.5047
364.03        107.8037
364.48        107.1897
364.93        106.6442
365.38        106.1253
365.83        105.5622
366.28        104.9374
366.73        104.2748
367.18        103.5854
367.63        102.8874
368.08        102.1832
368.53        101.4546
368.98        100.7289
369.43        100.0493
369.88        99.43409
370.33        98.90513
370.78        98.39169
371.23        97.77567
371.68        97.04055
372.13        96.19847
372.58        95.42212
373.03        94.98895
373.48        94.92207
373.93          95.118
374.38        95.27113
374.83        94.88753
375.28        93.88828
375.72        92.44553
376.17        90.96304
376.62        89.87157
377.07        89.26732
377.52        88.98479
377.97        88.88572
378.42        88.74946
378.87        88.48694
379.32        88.18092
379.77        87.79572
380.22        87.26017
380.67        86.57668
381.11        85.74776
381.56        84.90066
382.01        84.28176
382.46        83.95805
382.91        83.87772
383.36        83.88046
383.81         83.7086
384.26        83.29757
384.71        82.70956
385.15        82.07854
385.60        81.67589
386.05        81.52509
386.50        81.53547
386.95        81.52505
387.40        81.22491
387.85        80.60473
388.29        79.73942
388.74        78.92318
389.19        78.33778
389.64        78.02363
390.09        77.89375
390.54        77.84639
390.98        77.72211
391.43        77.50929
391.88        77.19727
392.33        76.82218
392.78        76.58571
393.23        76.45329
393.67        76.05759
394.12        75.48659
394.57        75.41887
395.02         74.8226
395.47        74.75728
395.91        74.85135
396.36        74.74333
396.81        74.40392
397.26        74.24673
397.71        73.94048
398.15        73.70498
398.60        73.52844
399.05        73.37457
399.50        73.20847
399.95        73.15985
400.39        72.96767
400.84        72.92744
401.29        72.85856
401.74        73.09957
402.18        72.80338
402.63        72.18304
403.08        71.28829
403.53        70.90817
403.97        71.09669
404.42        71.46848
404.87        71.80837
405.32        71.85625
405.76         71.5285
406.21        71.05305
406.66        70.53688
407.11        69.99773
407.55        69.64597
408.00        69.69145
408.45        70.08793
408.90        70.78236
409.34        71.42759
409.79        71.13426
410.24        70.17043
410.68        69.84592
411.13          70.253
411.58        70.63507
412.03        70.81645
412.47        70.86382
412.92         70.6977
413.37        70.35566
413.81        69.91745
414.26        69.57288
414.71        69.34007
415.15        69.19183
415.60        69.12068
416.05         69.1567
416.49        69.29691
416.94        69.53692
417.39        69.78973
417.83        69.89412
418.28        69.82226
418.73        69.60686
419.17        69.36782
419.62        69.31831
420.07        69.48267
420.51        69.77528
420.96        70.08833
421.41         70.1646
421.85        69.93929
422.30        69.70683
422.74        69.49436
423.19        69.12041
423.64        68.70774
424.08        68.93727
424.53        69.73628
424.98        69.89211
425.42        70.13647
425.87        70.35494
426.31        70.70184
426.76        70.33701
427.21        69.33593
427.65        69.27066
428.10        69.95227
428.54        69.92458
428.99        69.30602
429.44        69.10457
429.88        69.36108
430.33        69.77779
430.77        70.12918
431.22        70.35268
431.66        70.43766
432.11        70.19855
432.56         69.7791
433.00        69.98224
433.45        70.94453
433.89        70.83223
434.34         71.1264
434.78        72.32587
435.23         69.9939
435.67        69.39142
436.12        69.27726
436.57        69.54919
437.01        70.03387
437.46        70.39281
437.90        70.60576
438.35        70.89077
438.79        71.38142
439.24        71.51035
439.68        71.34968
440.13        71.30973
440.57        71.47435
441.02        71.53392
441.46        71.42331
441.91        72.08312
442.35        72.02885
442.80        72.13099
443.24         71.9711
443.69        71.70549
444.13        71.39917
444.58        71.15138
445.02        70.94892
445.47        70.86939
445.91        70.91876
446.36        70.91955
446.80        70.80432
447.24        71.34473
447.69        71.22786
448.13        71.40385
448.58        71.49711
449.02        71.52383
449.47        71.53068
449.91        71.61543
450.36        71.81433
450.80        72.00769
451.25        72.14436
451.69         72.3632
452.13        72.25557
452.58        72.21518
453.02        72.13407
453.47         72.0628
453.91        71.99386
454.36        72.00327
454.80        71.85349
455.24        72.16164
455.69        72.64787
456.13        73.06296
456.58        72.38545
457.02        72.03095
457.46        72.22679
457.91        72.12054
458.35        71.85567
458.79        71.70438
459.24        71.71729
459.68        71.82872
460.13        72.00237
460.57        71.91503
461.01        72.07921
461.46           71.84
461.90        71.40379
462.34        71.84962
462.79        71.95074
463.23        71.86083
463.68        71.30038
464.12        70.97698
464.56        70.93654
465.01        70.81092
465.45        70.59293
465.89        70.58217
466.34        70.76185
466.78        70.89079
467.22        71.16965
467.67        70.97036
468.11        70.97463
468.55        70.65374
468.99        70.29072
469.44        70.02855
469.88        69.90999
470.32        69.90572
470.77        69.94243
471.21        69.94039
471.65        69.85956
472.10        69.74524
472.54        69.64545
472.98        69.65305
473.42        69.76742
473.87        70.00764
474.31        70.25713
474.75        70.20774
475.20        69.91881
475.64        69.84813
476.08        69.98325
476.52        69.82607
476.97        69.40746
477.41        69.44233
477.85        68.79068
478.29        69.06426
478.74        69.69981
479.18        69.66228
479.62        69.02386
480.06        68.82496
480.50        69.10829
480.95        69.01188
481.39        69.63728
481.83        68.77052
482.27        69.62522
482.72        69.29501
483.16        69.59344
483.60        69.49973
484.04        69.90668
484.48        69.93144
484.93        69.59444
485.37        70.45454
485.81        69.21377
486.25        68.85928
486.69        70.23557
487.14        69.23254
487.58         68.9576
488.02        68.75037
488.46        69.77025
488.90        69.19743
489.34        68.96407
489.79        70.04157
490.23        69.15658
490.67        69.24957
491.11        69.17995
491.55        68.95583
491.99        68.61088
492.43        68.43197
492.88        68.47205
493.32        68.60868
493.76         68.8063
494.20        69.02388
494.64        69.20415
495.08        69.47013
495.52        69.77083
495.96        69.65816
496.41        69.11197
496.85        69.43645
497.29        68.90298
497.73        68.79623
498.17        69.00641
498.61        68.91843
499.05        68.53856
499.49        68.43684
499.93        68.54218
500.37        68.66963
500.82        68.82449
501.26        68.61661
501.70        68.55565
502.14        69.07036
502.58        68.69985
503.02          68.816
503.46        68.93772
503.90        69.08689
504.34        69.20393
504.78        69.23449
505.22        69.16601
505.66        69.02551
506.10        68.87899
506.54        68.75323
506.98        68.71407
507.42        69.01818
507.86        68.58913
508.30         68.9469
508.74        68.52201
509.18        68.33599
509.62        68.10402
510.06        68.04266
510.50        68.18161
510.94        68.46532
511.38        68.78709
511.82        68.93629
512.26        68.86589
512.70        68.63477
513.14         68.3418
513.58        68.20354
514.02        68.27599
514.46        68.37769
514.90        68.39803
515.34        68.80419
515.78        68.53838
516.22        68.46194
516.66        68.32684
517.10        68.23908
517.54        68.21564
517.98        68.24149
518.42        68.28429
518.86        68.26856
519.30        68.18318
519.74        68.05373
520.18        67.93456
520.62        67.90369
521.06        67.98026
521.50        68.14684
521.93        68.34393
522.37        68.45222
522.81        68.45143
523.25        68.36298
523.69        68.27081
524.13        68.30768
524.57        68.49112
525.01        68.77191
525.45         69.0318
525.89        69.08026
526.32        68.87177
526.76        68.50163
527.20        68.09214
527.64        67.83382
528.08        67.77638
528.52        67.85953
528.96        68.01736
529.40        68.14417
529.83        68.19607
530.27        68.21382
530.71        68.20184
531.15         68.1713
531.59        68.13013
532.03        68.06741
532.46        67.98512
532.90        67.92223
533.34        67.87992
533.78        67.85738
534.22        67.84884
534.66        67.84027
535.09        67.82204
535.53        67.81393
535.97        67.80795
536.41        67.80611
536.85        67.80746
537.28        67.80377
537.72        67.79889
538.16         67.7942
538.60        67.78705
539.04        67.77818
539.47        67.74176
539.91        67.69472
540.35        67.62061
540.79        67.53304
541.22        67.44535
541.66        67.38186
542.10        67.34749
542.54         67.3687
542.97        67.42491
543.41        67.44957
543.85         67.4499
544.29        67.55402
544.72        67.71447
545.16        67.77482
545.60        67.71633
546.04        67.64467
546.47        67.59736
546.91        67.57827
547.35        67.62201
547.79        67.79002
548.22        67.98574
548.66        68.17428
549.10        68.34203
549.53        68.29634
549.97        67.95692
550.41        68.53761
550.84        67.98873
551.28        67.84777
551.72        67.53266
552.15        67.69701
552.59        67.51555
553.03        67.63826
553.46        67.77651
553.90        67.89156
554.34        67.95359
554.77        67.96295
555.21        67.94913
555.65        67.99974
556.08        68.07841
556.52        68.02296
556.96        67.87769
557.39        67.91412
557.83        68.12503
558.27        68.27824
558.70        68.33522
559.14          68.326
559.57        68.24769
560.01        68.24085
560.45         68.3167
560.88        68.16061
561.32        68.12408
561.75        68.13852
562.19        68.24511
562.63        68.01501
563.06        67.55997
563.50        67.49109
563.93        67.75773
564.37        67.92894
564.80        67.92802
565.24        67.91134
565.68        67.88336
566.11        67.89151
566.55        67.94488
566.98        67.89024
567.42        67.82613
567.85        67.82848
568.29        67.90144
568.72        68.17602
569.16        68.76109
569.60         68.3134
570.03        68.81266
570.47        69.10975
570.90        68.89314
571.34        68.27918
571.77        68.77436
572.21        68.85706
572.64         68.9526
573.08        68.79736
573.51        68.47419
573.95        68.59439
574.38        68.83078
574.82        68.72929
