SpectraSmart Spectrum 2.9.0.0
--------- Device Information -----------
Spectrum Name :  反射率_0
Saving Time :  2024/04/30 00:17:11
Spectro-Module Model Name : SE2030-DUVN
Spectro-Module Serial Number : OS361AC55029948
Wavelength Start : 200
Wavelength End : 1025
Wavelength Unit : Wavelength(nm)
Spectrum Unit : Reflectance(%)
-----------Spectrum Setting ------------
Integration Time : 20ms
Average : 10
Boxcar : 0
Background removal :  enabled
linearity correction :  enabled
SC :  disabled
Intensity correction :  disabled
DWT denoise :  enabled
savitzky-golay :  disabled
FFT :  disabled
Running average :  disabled
Kalman :  disabled
High pass :  disabled
---------------BEGIN--------------------
Wavelength(nm)             Reflectance(%)
200.29               0
200.75         94.1833
201.21        90.05314
201.67        85.68428
202.13        79.36848
202.58         70.9048
203.04        59.53825
203.50          50.122
203.96        53.64591
204.42        72.89201
204.88        103.5518
205.34        130.6511
205.80        133.4549
206.26        115.2497
206.72        90.10775
207.18        68.20303
207.64        54.94071
208.10        48.69325
208.55        46.02428
209.01        45.99457
209.47        48.00908
209.93        50.94439
210.39        54.80952
210.85        57.99861
211.31        59.14442
211.77        58.27342
212.23        54.92691
212.69        50.03539
213.14        49.04715
213.60        53.53288
214.06        60.69265
214.52        66.53545
214.98        68.63729
215.44        67.65736
215.90        64.50739
216.36        61.18503
216.81        61.54279
217.27        67.52744
217.73        79.56589
218.19        95.57104
218.65        104.3871
219.11        99.82944
219.57        87.35936
220.02        75.34378
220.48         69.1839
220.94        67.68968
221.40        68.80932
221.86        71.06328
222.32        70.61118
222.77        66.45099
223.23        62.18141
223.69        58.35256
224.15        54.38613
224.61        49.80544
225.06        44.03415
225.52        38.48063
225.98        36.77089
226.44         39.3742
226.90        43.92678
227.36        47.86674
227.81        49.46993
228.27        48.97847
228.73        46.93438
229.19        44.24778
229.65        42.92237
230.10        43.41632
230.56        44.77974
231.02        45.86023
231.48        45.63399
231.93        44.04314
232.39        41.59566
232.85        38.88709
233.31        37.10653
233.77         36.7206
234.22        37.51452
234.68         38.9261
235.14        39.89127
235.60         40.1132
236.05         39.9472
236.51         40.0787
236.97        41.47024
237.43        44.50774
237.88        49.39579
238.34        55.77359
238.80        61.89947
239.26        65.87556
239.71        67.63755
240.17        67.82968
240.63        68.39394
241.08        70.42533
241.54        73.93995
242.00        80.33418
242.46        90.27824
242.91        101.5907
243.37        110.9728
243.83        116.9001
244.28        121.1016
244.74        124.8092
245.20        126.7885
245.66        127.6278
246.11        128.9421
246.57        131.0654
247.03        135.6726
247.48        138.3471
247.94        130.2942
248.40        115.2498
248.85         99.7123
249.31         90.3364
249.77         89.3686
250.22        96.28921
250.68        112.3319
251.14        136.7303
251.59         148.736
252.05        135.2161
252.51        113.0782
252.96         96.0954
253.42         88.3869
253.88        86.47607
254.33        87.42004
254.79        89.49418
255.25        89.26498
255.70        86.29331
256.16        83.14219
256.62        80.61324
257.07        78.92094
257.53        78.17179
257.99        77.65346
258.44         76.6797
258.90        75.30184
259.35        73.29132
259.81        71.40106
260.27        69.72793
260.72        68.33225
261.18        67.32911
261.63        66.28129
262.09        65.17497
262.55        63.64191
263.00        61.71394
263.46        59.83815
263.91        58.00185
264.37        56.50643
264.83        55.24739
265.28        54.05459
265.74        53.08762
266.19        52.35801
266.65        51.90672
267.11        51.64426
267.56        51.32065
268.02        50.58416
268.47        49.34192
268.93        47.70445
269.38        45.90276
269.84        44.47959
270.30        43.58545
270.75        43.07831
271.21        42.71596
271.66        42.08797
272.12        41.10016
272.57        39.85107
273.03        38.54638
273.48        37.42097
273.94        36.61036
274.39        35.99014
274.85        35.46931
275.31        34.84389
275.76        34.05929
276.22        33.21495
276.67        32.40694
277.13        31.86481
277.58        31.55762
278.04        31.43738
278.49        31.28455
278.95        30.88888
279.40        30.18548
279.86        29.34299
280.31         28.4944
280.77        27.95613
281.22        27.74118
281.68         27.7625
282.13         27.8894
282.59        27.99459
283.04        28.00735
283.50        27.97373
283.95        27.86164
284.41        27.63369
284.86        27.29894
285.32        26.92268
285.77        26.54624
286.22        26.30924
286.68        26.24594
287.13        26.27131
287.59         26.4007
288.04        26.58978
288.50        26.82036
288.95        27.06782
289.41        27.25456
289.86        27.22229
290.32        26.99658
290.77        26.64199
291.22        26.32052
291.68        26.28153
292.13        26.58402
292.59        27.18709
293.04        28.02647
293.50        29.03596
293.95        30.17811
294.40        31.48078
294.86        32.89396
295.31        34.34788
295.77        35.81347
296.22         37.2765
296.68        38.78146
297.13        40.38346
297.58        42.09742
298.04        43.87048
298.49        45.65198
298.95        47.37651
299.40        49.01969
299.85        50.61697
300.31        52.21152
300.76        53.78695
301.21        55.39569
301.67        57.07381
302.12        58.81565
302.58        60.75982
303.03        62.87678
303.48        65.06237
303.94         67.2984
304.39        69.82995
304.84        72.08682
305.30        74.50719
305.75        76.80717
306.20         78.8809
306.66        80.72465
307.11        82.31246
307.57        83.82134
308.02        85.38954
308.47        87.10135
308.93        88.91928
309.38        90.71161
309.83        92.34953
310.29        93.79568
310.74        95.07691
311.19        96.23151
311.65        97.30316
312.10        98.29748
312.55         99.2219
313.00        100.1406
313.46        101.1607
313.91        102.2764
314.36        103.4581
314.82        104.6149
315.27        105.6247
315.72        106.4222
316.18        107.0435
316.63        107.4929
317.08        107.7973
317.53        108.0043
317.99        108.1529
318.44        108.2925
318.89        108.5173
319.35        108.8535
319.80        109.2748
320.25         109.817
320.70         110.527
321.16        111.3496
321.61        112.3047
322.06        113.1717
322.51        113.6127
322.97        113.5567
323.42        113.1163
323.87        112.5555
324.32         112.328
324.78        112.5323
325.23        113.1163
325.68        113.8613
326.13        114.3873
326.59        114.5583
327.04          114.53
327.49        114.4607
327.94        114.6624
328.39        115.2005
328.85        115.8971
329.30        116.6493
329.75        117.0716
330.20        117.0619
330.66        116.7453
331.11        116.3152
331.56        115.9889
332.01        115.8894
332.46        115.9837
332.92        116.2549
333.37        116.8396
333.82        117.6656
334.27        118.6859
334.72         119.818
335.17        120.9185
335.63        121.8728
336.08        122.7503
336.53        123.3836
336.98        123.5963
337.43        123.3959
337.88        122.8549
338.34        122.2772
338.79        122.1702
339.24         122.646
339.69        123.5944
340.14        124.7231
340.59        125.5084
341.05        125.8091
341.50        125.7888
341.95        125.6528
342.40        125.7536
342.85        126.1759
343.30         126.751
343.75        127.3792
344.20        127.9164
344.66         128.318
345.11        128.6752
345.56        128.8976
346.01        128.8208
346.46        128.4707
346.91        127.8967
347.36        127.4413
347.81         127.629
348.26        128.5181
348.72        129.9181
349.17        131.3996
349.62        132.1519
350.07        131.9738
350.52         131.145
350.97        130.0857
351.42         129.441
351.87        129.3924
352.32        129.7237
352.77        130.2838
353.22        130.8382
353.67        131.2529
354.13        131.5719
354.58        131.7113
355.03        131.5185
355.48        130.9724
355.93        130.1077
356.38        129.0214
356.83        127.8813
357.28        126.7661
357.73        125.6765
358.18        124.6552
358.63        123.7483
359.08         122.959
359.53        122.2789
359.98        121.6627
360.43        121.0251
360.88        120.3366
361.33        119.6149
361.78        118.8479
362.23        118.0258
362.68        117.1564
363.13        116.2365
363.58        115.3273
364.03        114.5289
364.48        113.8541
364.93        113.2739
365.38        112.7042
365.83        112.0084
366.28         111.163
366.73        110.2202
367.18        109.2577
367.63        108.3953
368.08        107.6574
368.53         106.994
368.98        106.3729
369.43        105.7384
369.88        105.0804
370.33          104.45
370.78        103.8133
371.23        103.1143
371.68        102.3539
372.13        101.5168
372.58        100.7569
373.03        100.3263
373.48        100.2352
373.93        100.3885
374.38         100.475
374.83        99.98962
375.28        98.86089
375.72        97.27296
376.17        95.65201
376.62        94.45089
377.07        93.77441
377.52        93.45361
377.97         93.3565
378.42        93.26979
378.87        93.09634
379.32        92.90463
379.77        92.63099
380.22        92.16887
380.67        91.50469
381.11        90.63673
381.56        89.69785
382.01        88.95161
382.46        88.47591
382.91         88.2289
383.36        88.04082
383.81        87.63294
384.26        86.95342
384.71        86.09057
385.15        85.23616
385.60        84.74763
386.05        84.65838
386.50        84.83862
386.95         85.0522
387.40        84.93939
387.85        84.44068
388.29        83.65856
388.74         82.8853
389.19        82.29934
389.64        81.94346
390.09        81.70798
390.54         81.5648
390.98        81.46093
391.43        81.39529
391.88        81.38071
392.33        81.29723
392.78        80.98979
393.23         80.4681
393.67        79.71364
394.12        78.99187
394.57        78.72822
395.02         78.6112
395.47        78.81565
395.91        79.10048
396.36        79.18899
396.81        79.02499
397.26        78.71263
397.71        78.30278
398.15        77.85493
398.60        77.50304
399.05        77.08148
399.50        76.67223
399.95        76.68986
400.39        76.76537
400.84        76.94644
401.29        76.99888
401.74        76.86656
402.18        76.51681
402.63        75.89567
403.08        75.24103
403.53        74.94534
403.97        75.05696
404.42        75.43521
404.87        75.86442
405.32        75.96202
405.76        75.63014
406.21        75.15137
406.66        74.62423
407.11        73.98975
407.55        73.47667
408.00        73.45158
408.45         73.8566
408.90        74.40202
409.34        74.80709
409.79        74.54483
410.24         73.8504
410.68        73.69656
411.13        74.15418
411.58        74.64552
412.03        74.98734
412.47        75.14729
412.92        75.03206
413.37        74.69626
413.81        74.23946
414.26        73.89274
414.71        73.67991
415.15        73.56025
415.60         73.5023
416.05        73.49889
416.49        73.54231
416.94        73.65093
417.39        73.76541
417.83         73.7598
418.28        73.62655
418.73        73.40028
419.17        73.19588
419.62        73.21632
420.07         73.4634
420.51        73.83228
420.96        74.22569
421.41        74.34906
421.85        74.11878
422.30         73.9921
422.74        73.89484
423.19         73.1946
423.64         72.1948
424.08        72.33606
424.53        73.47523
424.98        74.05745
425.42        73.91876
425.87        74.10224
426.31        74.56075
426.76        74.30054
427.21         73.3772
427.65        73.47115
428.10        74.29961
428.54        74.13979
428.99        73.13133
429.44         72.5552
429.88        72.57288
430.33        72.76771
430.77        73.00087
431.22        73.65885
431.66        74.48402
432.11         74.2451
432.56        73.14271
433.00        72.98849
433.45        73.97727
433.89        74.31933
434.34        74.17527
434.78        75.61839
435.23        74.38892
435.67        73.89677
436.12        73.20255
436.57        73.26283
437.01        73.94036
437.46        74.32806
437.90        74.16666
438.35        74.37177
438.79        74.84119
439.24        75.03171
439.68        74.96269
440.13        75.07248
440.57        75.38222
441.02        75.53618
441.46        75.46414
441.91        75.78297
442.35        75.77522
442.80        75.65601
443.24        75.58179
443.69           75.37
444.13        75.15328
444.58        74.97699
445.02        74.82703
445.47        74.73804
445.91        74.71371
446.36        74.77473
446.80        74.89392
447.24        75.07927
447.69        75.28465
448.13        75.41131
448.58         75.4577
449.02        75.42161
449.47        75.37169
449.91        75.38171
450.36         75.4842
450.80        75.63409
451.25        75.79759
451.69        75.88659
452.13        75.89001
452.58         75.8645
453.02        75.83509
453.47        75.83598
453.91         75.8591
454.36        76.03278
454.80        76.00888
455.24         76.1469
455.69        76.40037
456.13        76.28886
456.58        75.99051
457.02        75.37086
457.46         75.5138
457.91        75.36835
458.35        75.18102
458.79        75.02613
459.24        74.94803
459.68        74.88032
460.13        74.86732
460.57        74.82951
461.01        75.33752
461.46        75.07111
461.90        75.40105
462.34        75.59142
462.79        75.47199
463.23        75.17654
463.68        74.65195
464.12        74.24142
464.56        74.00556
465.01        73.74551
465.45          73.481
465.89        73.61413
466.34        74.01115
466.78        74.28014
467.22        74.02881
467.67        73.93304
468.11        73.92171
468.55         73.6931
468.99        73.31789
469.44        73.04407
469.88        72.91263
470.32        72.87734
470.77        72.88311
471.21        72.85859
471.65        72.77011
472.10        72.66624
472.54        72.59079
472.98         72.6283
473.42        72.77699
473.87         73.0547
474.31        73.34202
474.75        73.34171
475.20        73.09297
475.64        73.02303
476.08        73.15434
476.52        72.95571
476.97        72.38441
477.41        72.55214
477.85        72.11784
478.29        71.77721
478.74        72.43475
479.18        72.35374
479.62        71.99609
480.06        71.93549
480.50        72.22513
480.95        72.10082
481.39        72.67981
481.83        72.21807
482.27        72.85496
482.72        72.71558
483.16        72.82984
483.60        72.87366
484.04        72.99928
484.48        73.25631
484.93        73.39799
485.37        73.01187
485.81        71.92882
486.25         70.8417
486.69        72.38309
487.14        71.99541
487.58        71.62733
488.02        71.60448
488.46        72.72179
488.90        72.26601
489.34         72.1479
489.79        72.67685
490.23        71.79249
490.67        71.81913
491.11        71.93496
491.55        71.82227
491.99        71.49828
492.43        71.41439
492.88        71.59903
493.32          71.821
493.76        72.02293
494.20        72.22395
494.64        72.39262
495.08        72.53812
495.52        72.63337
495.96        72.55354
496.41        72.34571
496.85        72.22379
497.29        72.19547
497.73        72.01148
498.17        72.02184
498.61        71.71014
499.05        71.31041
499.49        71.32046
499.93        71.66415
500.37        71.74158
500.82        71.54459
501.26        71.49355
501.70        71.67413
502.14        71.73542
502.58        71.71287
503.02        71.74834
503.46        71.84922
503.90        71.97782
504.34        72.09709
504.78        72.13995
505.22        72.07091
505.66        71.96506
506.10        71.88784
506.54        71.79218
506.98         71.6628
507.42        72.25143
507.86        71.81625
508.30        72.24679
508.74        71.72224
509.18        71.39961
509.62        71.02599
510.06         70.8829
510.50        71.02561
510.94        71.37775
511.38        71.79109
511.82        71.98085
512.26        71.87715
512.70        71.56551
513.14        71.19744
513.58        71.00553
514.02        71.04918
514.46         71.2565
514.90        71.51225
515.34        71.63296
515.78        71.56875
516.22        71.38027
516.66        71.17079
517.10        71.09501
517.54        71.18669
517.98        71.38975
518.42        71.60191
518.86        71.66528
519.30        71.54317
519.74        71.29163
520.18        71.01315
520.62        70.85825
521.06        70.87204
521.50        71.02306
521.93        71.23283
522.37        71.34969
522.81        71.34292
523.25        71.24081
523.69        71.15044
524.13        71.23753
524.57        71.51973
525.01        71.93298
525.45        72.30538
525.89         72.3631
526.32        72.04787
526.76        71.48711
527.20        70.87775
527.64        70.52318
528.08        70.49821
528.52        70.71002
528.96        71.03028
529.40        71.25267
529.83        71.30499
530.27        71.25619
530.71        71.15768
531.15        71.09548
531.59         71.0937
532.03        71.11344
532.46        71.11035
532.90        71.05451
533.34        70.93595
533.78        70.78606
534.22        70.64426
534.66        70.56264
535.09        70.54593
535.53        70.58701
535.97        70.65421
536.41        70.71284
536.85        70.74623
537.28        70.75983
537.72        70.74685
538.16        70.69096
538.60        70.59486
539.04        70.46661
539.47           70.32
539.91        70.23606
540.35        70.20947
540.79        70.23467
541.22        70.28175
541.66        70.31261
542.10        70.31167
542.54         70.2971
542.97        70.28119
543.41        70.30411
543.85        70.36324
544.29         70.4571
544.72        70.53456
545.16        70.55606
545.60        70.51046
546.04         70.3844
546.47        70.24538
546.91        70.31162
547.35        70.55623
547.79        70.70491
548.22        70.69511
548.66        70.82445
549.10        71.09467
549.53        71.07557
549.97        70.76259
550.41        71.36794
550.84        70.78897
551.28        70.64288
551.72        70.33316
552.15        70.52579
552.59        70.35664
553.03        70.51499
553.46        70.68345
553.90        70.77184
554.34        70.74333
554.77        70.66228
555.21        70.57243
555.65        70.48094
556.08        70.41547
556.52        70.43256
556.96        70.52023
557.39        70.67868
557.83        70.86991
558.27        70.98354
558.70         71.0204
559.14         71.0135
559.57        70.96813
560.01        71.05477
560.45        71.22036
560.88         70.9939
561.32         70.7882
561.75        70.67113
562.19        70.75304
562.63         70.6826
563.06        70.47526
563.50        70.47888
563.93        70.65531
564.37        70.60268
564.80        70.66114
565.24        70.63467
565.68        70.63243
566.11        70.65964
566.55        70.72022
566.98        70.69685
567.42        70.67567
567.85        70.66806
568.29        70.67745
568.72         70.9039
569.16         71.4497
569.60        70.83696
570.03        71.19102
570.47        71.33889
570.90        71.34743
571.34        70.65644
571.77        71.19303
572.21        71.22368
572.64        71.28178
573.08         71.2448
573.51        71.17084
573.95        70.97865
574.38        71.54536
574.82        71.08972
