SpectraSmart Spectrum 2.9.0.0
--------- Device Information -----------
Spectrum Name :  反射率_0
Saving Time :  2024/04/30 00:37:30
Spectro-Module Model Name : SE2030-DUVN
Spectro-Module Serial Number : OS361AC55029948
Wavelength Start : 200
Wavelength End : 1025
Wavelength Unit : Wavelength(nm)
Spectrum Unit : Reflectance(%)
-----------Spectrum Setting ------------
Integration Time : 20ms
Average : 10
Boxcar : 0
Background removal :  enabled
linearity correction :  enabled
SC :  disabled
Intensity correction :  disabled
DWT denoise :  enabled
savitzky-golay :  disabled
FFT :  disabled
Running average :  disabled
Kalman :  disabled
High pass :  disabled
---------------BEGIN--------------------
Wavelength(nm)             Reflectance(%)
200.29               0
200.75        115.2471
201.21        98.25282
201.67        81.16515
202.13        69.06487
202.58        64.61037
203.04        66.45048
203.50        74.96491
203.96        89.94488
204.42        108.7691
204.88        129.4695
205.34        142.7022
205.80        137.4925
206.26         118.818
206.72         96.3963
207.18        77.67287
207.64        66.39814
208.10        60.94008
208.55        58.68755
209.01        58.91449
209.47         61.1238
209.93        64.16034
210.39        67.80056
210.85        70.42218
211.31        70.59592
211.77        68.14722
212.23        62.34409
212.69        53.90623
213.14        49.46123
213.60        52.29312
214.06        59.48155
214.52        66.18539
214.98        69.14769
215.44        69.00101
215.90        67.08211
216.36        65.37575
216.81        67.63102
217.27        75.90058
217.73        90.71428
218.19        110.7584
218.65        125.4855
219.11        126.7034
219.57        117.5909
220.02        106.5404
220.48         100.016
220.94        97.15559
221.40        96.35916
221.86         94.9865
222.32        88.40572
222.77        78.19246
223.23         69.5741
223.69        64.66615
224.15        63.84969
224.61        66.16045
225.06          70.965
225.52        76.79127
225.98        79.50809
226.44         78.0978
226.90        74.69871
227.36        71.58594
227.81        70.34261
228.27        70.89224
228.73        72.43424
229.19        74.20988
229.65        74.67453
230.10        73.51276
230.56        71.92592
231.02        70.35435
231.48        69.09784
231.93        68.05564
232.39        67.07925
232.85        66.38441
233.31        66.55774
233.77        67.70221
234.22        69.85138
234.68         72.0844
235.14        72.75916
235.60        71.56316
236.05        69.01032
236.51        66.60249
236.97        66.32568
237.43        68.70628
237.88        73.85359
238.34        80.84859
238.80        86.60545
239.26         88.6032
239.71         87.3924
240.17        84.42725
240.63        82.30354
241.08        81.96581
241.54        82.69499
242.00        85.48436
242.46        91.64882
242.91        100.7936
243.37        110.6324
243.83        118.2173
244.28        122.7424
244.74          124.81
245.20        123.4156
245.66        119.7825
246.11        117.5842
246.57        118.4951
247.03        123.5322
247.48        128.0762
247.94        122.4134
248.40        109.2647
248.85         95.2772
249.31        87.08685
249.77        87.26633
250.22        95.73078
250.68        114.1393
251.14        142.4365
251.59        158.8995
252.05        147.6543
252.51        125.6685
252.96        108.3188
253.42        100.9796
253.88        100.2392
254.33        103.0517
254.79         107.132
255.25        107.7322
255.70        104.2793
256.16        100.2617
256.62         97.3514
257.07        96.39123
257.53        97.42301
257.99        99.33366
258.44        100.5746
258.90         100.064
259.35        97.53883
259.81        94.63036
260.27        92.14413
260.72           90.75
261.18         90.5538
261.63        90.63567
262.09        90.60106
262.55        89.46956
263.00        87.21335
263.46        84.66188
263.91         82.0759
264.37        80.21549
264.83        78.96745
265.28        78.02789
265.74        77.32961
266.19        76.47336
266.65        75.50062
267.11        74.45838
267.56        73.44209
268.02        72.61951
268.47        71.93524
268.93        71.32847
269.38        70.60303
269.84        69.57315
270.30        68.21138
270.75          66.612
271.21        64.99249
271.66        63.55247
272.12        62.33924
272.57        61.23017
273.03        60.15462
273.48         58.8943
273.94        57.51904
274.39        56.08562
274.85        54.74876
275.31        53.56489
275.76        52.52037
276.22        51.61986
276.67        50.82988
277.13        50.26914
277.58        49.83704
278.04        49.54927
278.49        49.18302
278.95        48.57429
279.40        47.64206
279.86        46.55496
280.31        45.41931
280.77        44.56654
281.22        44.00075
281.68        43.67236
282.13        43.44777
282.59        43.23355
283.04        42.94447
283.50        42.63744
283.95        42.26786
284.41        41.81147
284.86        41.26566
285.32        40.70845
285.77        40.15907
286.22        39.75127
286.68         39.5201
287.13        39.37467
287.59        39.34182
288.04        39.37867
288.50        39.47567
288.95         39.5858
289.41        39.64683
289.86        39.49812
290.32        39.16943
290.77        38.72416
291.22        38.29082
291.68        38.06655
292.13        38.10822
292.59        38.40492
293.04        38.96112
293.50        39.82848
293.95        40.97367
294.40        42.38618
294.86        43.92585
295.31        45.37812
295.77        46.68093
296.22        47.86392
296.68         49.0423
297.13        50.38184
297.58        51.93028
298.04        53.59916
298.49        55.30262
298.95        56.92793
299.40        58.43177
299.85        59.87586
300.31         61.3063
300.76        62.69963
301.21        64.10983
301.67        65.56224
302.12        67.07291
302.58        68.82056
303.03        70.77191
303.48        72.84028
303.94        74.94629
304.39        77.15263
304.84        79.01419
305.30         80.8988
305.75        82.67439
306.20        84.41622
306.66        86.15069
307.11        87.78418
307.57        89.34842
308.02        90.75641
308.47        92.05506
308.93        93.28094
309.38        94.44154
309.83        95.63164
310.29        96.86985
310.74        98.11298
311.19        99.28245
311.65        100.2416
312.10        100.9536
312.55        101.4892
313.00        102.0122
313.46        102.7795
313.91         103.819
314.36        105.0472
314.82        106.2839
315.27         107.269
315.72        107.9027
316.18        108.2694
316.63        108.4501
317.08        108.5903
317.53        108.7674
317.99        108.9776
318.44        109.2123
318.89        109.4775
319.35        109.7724
319.80        110.0984
320.25        110.5218
320.70        111.1385
321.16        111.9067
321.61        112.8257
322.06        113.6569
322.51        114.0366
322.97        113.8884
323.42         113.342
323.87         112.671
324.32        112.3382
324.78        112.4481
325.23        112.9452
325.68        113.6233
326.13        114.1239
326.59        114.3146
327.04        114.3466
327.49        114.3542
327.94        114.6077
328.39        115.1639
328.85        115.8566
329.30        116.6089
329.75        117.0809
330.20         117.184
330.66        117.0278
331.11        116.7807
331.56        116.6276
332.01        116.6713
332.46        116.8681
332.92        117.2116
333.37        117.8585
333.82        118.7388
334.27        119.8127
334.72         120.933
335.17        121.8502
335.63        122.4455
336.08        122.8252
336.53        122.9935
336.98        123.0581
337.43         123.082
337.88        123.0456
338.34        123.0308
338.79        123.1865
339.24        123.5379
339.69        124.0888
340.14         124.717
340.59        125.1864
341.05        125.4595
341.50        125.6211
341.95         125.806
342.40         126.258
342.85        127.0137
343.30        127.9286
343.75        128.9115
344.20        129.8249
344.66        130.6073
345.11        131.3177
345.56        131.8053
346.01        131.8246
346.46        131.4044
346.91        130.6487
347.36        129.9849
347.81        130.0627
348.26        130.9729
348.72        132.4786
349.17         134.147
349.62        135.1461
350.07        135.2441
350.52        134.7331
350.97        133.9267
351.42        133.3085
351.87        133.0532
352.32        132.9924
352.77        133.1717
353.22        133.6799
353.67        134.4503
354.13        135.4303
354.58         136.313
355.03        136.5786
355.48        136.1101
355.93        135.0507
356.38        133.6778
356.83        132.4398
357.28        131.4793
357.73        130.6937
358.18        129.9997
358.63        129.2545
359.08        128.4173
359.53        127.5644
359.98        126.7298
360.43        125.9432
360.88        125.2152
361.33        124.5191
361.78        123.8315
362.23        123.1297
362.68        122.4033
363.13        121.6563
363.58        120.9098
364.03        120.1916
364.48          119.51
364.93        118.8641
365.38        118.2215
365.83        117.5373
366.28        116.8057
366.73        116.0295
367.18        115.2754
367.63        114.6445
368.08        114.1399
368.53        113.7284
368.98        113.2863
369.43         112.608
369.88        111.6752
370.33        110.5854
370.78        109.4955
371.23        108.6685
371.68        108.1678
372.13        107.8725
372.58        107.7221
373.03         107.617
373.48        107.4721
373.93        107.3062
374.38        106.9408
374.83        106.0956
375.28        104.7923
375.72         103.153
376.17        101.5914
376.62        100.5377
377.07        100.0736
377.52        100.0361
377.97        100.2567
378.42        100.4469
378.87        100.4714
379.32        100.3935
379.77        100.1503
380.22        99.64938
380.67        98.89534
381.11        97.90197
381.56         96.8202
382.01        95.94442
382.46        95.37522
382.91        95.07146
383.36        94.89812
383.81        94.62319
384.26         94.1824
384.71        93.63038
385.15        93.07204
385.60        92.73432
386.05        92.62289
386.50        92.65567
386.95        92.65212
387.40        92.35209
387.85        91.73149
388.29        90.85207
388.74        90.03976
389.19        89.50222
389.64        89.28473
390.09        89.28062
390.54        89.35686
390.98        89.34036
391.43        89.20646
391.88        88.83572
392.33        88.29388
392.78        88.06853
393.23        87.98563
393.67        87.25893
394.12        85.78558
394.57        85.47547
395.02        85.07105
395.47        85.25165
395.91        85.52713
396.36        85.69333
396.81        85.67858
397.26        85.61703
397.71        85.49118
398.15        85.15179
398.60        84.71536
399.05        84.17598
399.50        83.63412
399.95        83.33503
400.39        83.00543
400.84        83.18225
401.29        83.57675
401.74        83.62113
402.18        83.22456
402.63        82.57489
403.08        81.94302
403.53        81.71671
403.97         81.9542
404.42        82.35017
404.87         82.9194
405.32        83.07944
405.76        82.78276
406.21        82.36417
406.66        81.89698
407.11        81.09766
407.55        80.25986
408.00        80.21729
408.45        80.85592
408.90        81.23954
409.34        81.16518
409.79        80.82799
410.24        80.43623
410.68        80.40351
411.13        80.77427
411.58        81.25861
412.03        81.66774
412.47        81.82573
412.92        81.63164
413.37        81.18446
413.81        80.59769
414.26        80.13068
414.71         79.8164
415.15        79.60514
415.60        79.48377
416.05        79.48186
416.49        79.59492
416.94        79.82689
417.39        80.07574
417.83         80.1487
418.28        80.01752
418.73        79.72582
419.17        79.42862
419.62        79.40009
420.07        79.66521
420.51        80.10154
420.96        80.56554
421.41          80.727
421.85         80.4968
422.30        80.23856
422.74         79.9556
423.19        79.38937
423.64        78.70903
424.08        78.73981
424.53        79.42421
424.98        79.65543
425.42        79.74053
425.87        80.12175
426.31        80.63046
426.76        80.28793
427.21        79.14559
427.65        79.16022
428.10        80.05703
428.54        80.02174
428.99        79.14873
429.44         78.5052
429.88         78.3203
430.33        78.68225
430.77        79.32145
431.22        79.92565
431.66        80.33896
432.11        80.04105
432.56        79.18644
433.00        79.10276
433.45        80.03554
433.89        79.50375
434.34        79.86679
434.78         81.1103
435.23        79.30255
435.67        78.95853
436.12        78.92451
436.57          78.977
437.01        78.93064
437.46        79.94581
437.90        79.52596
438.35         79.9737
438.79        80.46561
439.24        80.62751
439.68        80.47258
440.13        80.42878
440.57        80.57423
441.02        80.66262
441.46           80.66
441.91        80.84451
442.35        81.02817
442.80        80.94042
443.24        80.72549
443.69        80.50963
444.13        80.36815
444.58        80.21311
445.02        80.00615
445.47        79.90557
445.91        79.93513
446.36        79.95416
446.80        79.90372
447.24        80.42834
447.69        80.39048
448.13        80.52039
448.58        80.50041
449.02        80.36444
449.47         80.2126
449.91        80.18809
450.36        80.34107
450.80        80.58617
451.25        80.85315
451.69        80.98994
452.13        80.97044
452.58        80.88639
453.02        80.78209
453.47        80.67498
453.91        80.56034
454.36        80.64417
454.80        80.62886
455.24        80.54651
455.69        81.20786
456.13        81.18999
456.58        80.87785
457.02        80.37048
457.46          80.298
457.91        80.24655
458.35        80.27824
458.79        80.22275
459.24        80.10236
459.68        80.09146
460.13        80.21325
460.57        80.07217
461.01        80.24556
461.46        80.08663
461.90        79.85213
462.34        80.13773
462.79        80.50231
463.23        80.36762
463.68         79.7033
464.12        79.31683
464.56         79.2793
465.01        79.06604
465.45        78.78331
465.89        78.83588
466.34        79.20677
466.78        79.38197
467.22        79.55472
467.67        79.51976
468.11        79.36167
468.55        78.98158
468.99        78.48626
469.44        78.07301
469.88        77.79749
470.32        77.63624
470.77        77.56784
471.21        77.57603
471.65        77.62181
472.10        77.72284
472.54        77.85553
472.98        77.98394
473.42         78.0782
473.87        78.25304
474.31        78.41805
474.75        78.17878
475.20        77.63348
475.64        77.58649
476.08        78.06753
476.52        77.87821
476.97        76.86015
477.41        77.78267
477.85        77.31576
478.29        76.46776
478.74        77.37828
479.18        77.47466
479.62        77.09479
480.06        77.11446
480.50        77.43168
480.95        77.25187
481.39        77.73251
481.83        77.40034
482.27        77.75456
482.72        77.58335
483.16           77.56
483.60        77.59164
484.04        77.81347
484.48        78.11101
484.93        78.22455
485.37        78.22253
485.81        77.51798
486.25        76.02213
486.69        77.86959
487.14        77.31085
487.58        76.82648
488.02        77.33289
488.46        77.77608
488.90         77.6498
489.34        77.19331
489.79        77.88482
490.23        76.67237
490.67         76.6858
491.11        76.87885
491.55        76.67825
491.99         76.1515
492.43        76.01361
492.88        76.31613
493.32        76.68462
493.76        77.01251
494.20        77.30225
494.64        77.50228
495.08        77.61664
495.52        77.63522
495.96        77.52297
496.41        77.36279
496.85         77.2689
497.29        77.15869
497.73        77.32993
498.17        76.89838
498.61        76.60605
499.05        76.31435
499.49        76.49574
499.93        76.95555
500.37         76.8786
500.82        76.37321
501.26        76.17505
501.70        76.27822
502.14        76.94231
502.58        76.73337
503.02        76.89776
503.46        77.01042
503.90        77.06824
504.34        77.06525
504.78        77.02547
505.22        76.96596
505.66        76.87253
506.10        76.77294
506.54        76.73925
506.98        76.78339
507.42        76.94392
507.86        76.72727
508.30        77.09746
508.74        76.51987
509.18        76.18694
509.62        75.81948
510.06        75.67892
510.50         75.8043
510.94        76.13545
511.38        76.53535
511.82         76.7352
512.26         76.6694
512.70        76.42049
513.14        76.11389
513.58        75.94299
514.02        75.95971
514.46        76.09786
514.90        76.28451
515.34        76.40623
515.78        76.42477
516.22        76.38001
516.66        76.30863
517.10        76.26019
517.54        76.25117
517.98          76.263
518.42        76.27299
518.86        76.25047
519.30        76.19022
519.74        76.10734
520.18        76.03578
520.62        76.01826
521.06        76.06769
521.50        76.18409
521.93        76.32536
522.37        76.38952
522.81        76.36611
523.25        76.27806
523.69        76.19163
524.13        76.20859
524.57        76.34418
525.01        76.56187
525.45        76.77413
525.89        76.83915
526.32        76.71576
526.76        76.47688
527.20        76.20633
527.64        76.03982
528.08        76.01086
528.52        76.07365
528.96        76.17612
529.40         76.2366
529.83        76.22216
530.27        76.17007
530.71        76.09019
531.15        76.00228
531.59        75.91904
532.03        75.83591
532.46        75.75053
532.90        75.69382
533.34        75.66334
533.78        75.65685
534.22        75.67657
534.66        75.72195
535.09        75.78115
535.53        75.86713
535.97        75.94599
536.41        75.98306
536.85        75.96749
537.28        75.89648
537.72        75.80359
538.16         75.7378
538.60        75.70781
539.04        75.70502
539.47        75.66981
539.91        75.57042
540.35        75.38728
540.79        75.16147
541.22        74.95098
541.66        74.85936
542.10        74.90527
542.54         75.0571
542.97        75.26492
543.41        75.47411
543.85        75.64655
544.29        75.80688
544.72        75.90895
545.16        75.92442
545.60        75.85049
546.04        75.66296
546.47        75.44804
546.91        75.46745
547.35        75.69861
547.79        75.85096
548.22        75.84725
548.66        75.97193
549.10        76.21992
549.53        76.19864
549.97        75.80536
550.41        76.45497
550.84        75.85973
551.28        75.73272
551.72        75.43211
552.15        75.67753
552.59        75.45298
553.03        75.69884
553.46        75.39198
553.90        75.41794
554.34        75.52334
554.77        75.77367
555.21        75.87233
555.65        75.85819
556.08        75.69025
556.52        75.67746
556.96        75.83615
557.39         75.9489
557.83        75.96968
558.27        76.33708
558.70        76.15465
559.14         76.2747
559.57         76.3744
560.01         76.3654
560.45        76.26279
560.88        75.99512
561.32        75.98337
561.75         75.9294
562.19        75.93368
562.63        75.82321
563.06        75.63353
563.50        75.64466
563.93        75.81406
564.37        75.91114
564.80        75.89417
565.24        75.94771
565.68        76.03073
566.11        75.88439
566.55        75.67302
566.98        75.64989
567.42        75.90191
567.85        76.09486
568.29        76.17911
568.72        76.41577
569.16        76.90704
569.60        76.24514
570.03        76.78791
570.47         76.8035
570.90        76.72932
571.34        76.59368
571.77         76.6622
572.21        76.70322
572.64         76.7666
573.08        76.69988
573.51        76.53207
573.95        76.70914
574.38        76.97092
574.82        76.80389
