SpectraSmart Spectrum 2.9.0.0
--------- Device Information -----------
Spectrum Name :  反射率_0
Saving Time :  2024/04/30 00:35:43
Spectro-Module Model Name : SE2030-DUVN
Spectro-Module Serial Number : OS361AC55029948
Wavelength Start : 200
Wavelength End : 1025
Wavelength Unit : Wavelength(nm)
Spectrum Unit : Reflectance(%)
-----------Spectrum Setting ------------
Integration Time : 20ms
Average : 10
Boxcar : 0
Background removal :  enabled
linearity correction :  enabled
SC :  disabled
Intensity correction :  disabled
DWT denoise :  enabled
savitzky-golay :  disabled
FFT :  disabled
Running average :  disabled
Kalman :  disabled
High pass :  disabled
---------------BEGIN--------------------
Wavelength(nm)             Reflectance(%)
200.29               0
200.75        116.1053
201.21        94.98211
201.67        73.49335
202.13         57.6883
202.58        50.65106
203.04        50.78226
203.50        58.70021
203.96        74.36137
204.42        95.01099
204.88        118.7483
205.34        134.5981
205.80        129.2878
206.26        108.3309
206.72        82.91534
207.18        61.94133
207.64        50.16641
208.10        45.77348
208.55        45.75535
209.01        48.86859
209.47        53.08981
209.93        56.64008
210.39        59.88892
210.85        62.07837
211.31        62.68404
211.77         61.7909
212.23        58.76066
212.69        54.06815
213.14        51.96185
213.60        54.04151
214.06        58.75886
214.52        63.02988
214.98        64.70814
215.44        64.32761
215.90        62.83516
216.36        61.90698
216.81        64.75876
217.27        73.20729
217.73        87.87466
218.19         107.719
218.65        122.8589
219.11        125.1747
219.57        117.2639
220.02        106.8494
220.48        100.0635
220.94        96.04279
221.40        93.01102
221.86        88.73236
222.32         80.6754
222.77        71.20719
223.23        64.23145
223.69         60.3801
224.15        59.05214
224.61        59.33369
225.06        60.79147
225.52        62.72408
225.98        63.23992
226.44        62.07981
226.90        60.31299
227.36        58.79708
227.81        58.06713
228.27        58.11897
228.73        58.58589
229.19        59.51036
229.65        60.79775
230.10        62.01508
230.56        63.15324
231.02        63.82829
231.48        63.77552
231.93        62.99896
232.39        61.67277
232.85        60.13281
233.31         59.1574
233.77        59.02146
234.22        59.71188
234.68        60.62857
235.14         60.7083
235.60        59.78135
236.05        58.25031
236.51        57.14083
236.97        57.77487
237.43        60.57169
237.88        65.80013
238.34        72.76464
238.80        78.89891
239.26        81.89124
239.71        81.88251
240.17        80.25468
240.63        79.86509
241.08        81.97106
241.54        86.52206
242.00         94.5332
242.46           104.1
242.91        110.8492
243.37        112.8429
243.83        111.6877
244.28        110.9124
244.74        111.3638
245.20        111.4145
245.66        111.8518
246.11        114.6724
246.57        120.1506
247.03        129.4832
247.48        136.9671
247.94        130.7973
248.40        114.4193
248.85        96.30223
249.31        84.31328
249.77        81.05199
250.22        85.64017
250.68        98.50896
251.14        119.8545
251.59        133.7934
252.05        127.4767
252.51        112.7973
252.96        100.5582
253.42        94.86599
253.88        93.35562
254.33        93.73714
254.79        94.97738
255.25        94.84702
255.70        92.94311
256.16        91.13883
256.62        89.88497
257.07        89.29774
257.53        89.61238
257.99        90.16983
258.44        90.12012
258.90        89.27025
259.35        87.32909
259.81        85.31885
260.27        83.49282
260.72        82.04647
261.18         81.1814
261.63        80.35206
262.09        79.51101
262.55        78.16685
263.00        76.29813
263.46         74.4053
263.91         72.5319
264.37        71.15092
264.83        70.11859
265.28        69.21918
265.74        68.43629
266.19        67.45982
266.65        66.36475
267.11        65.21725
267.56        64.06501
268.02        62.99393
268.47        61.95972
268.93        60.91088
269.38        59.86368
269.84        58.97511
270.30        58.25137
270.75        57.66793
271.21        57.03327
271.66        55.98397
272.12        54.49772
272.57        52.65028
273.03        50.79943
273.48         49.4218
273.94        48.68797
274.39        48.36228
274.85         48.1889
275.31        47.68739
275.76        46.74311
276.22         45.5738
276.67        44.33137
277.13        43.36671
277.58         42.6837
278.04        42.21916
278.49        41.78106
278.95        41.23753
279.40        40.50151
279.86         39.7234
280.31        38.94615
280.77        38.37225
281.22        37.97972
281.68        37.73796
282.13        37.55061
282.59        37.36845
283.04        37.13207
283.50        36.87769
283.95        36.56969
284.41        36.18901
284.86        35.73248
285.32        35.26545
285.77        34.80513
286.22        34.46725
286.68        34.28214
287.13        34.17429
287.59        34.15198
288.04        34.15153
288.50        34.16914
288.95        34.17813
289.41        34.16421
289.86        34.04879
290.32        33.86378
290.77        33.63793
291.22        33.44239
291.68        33.38086
292.13         33.4824
292.59        33.76436
293.04        34.24869
293.50        35.00497
293.95        36.02436
294.40        37.29651
294.86        38.71751
295.31        40.13473
295.77        41.48913
296.22        42.77893
296.68        44.08207
297.13        45.50381
297.58        47.06541
298.04        48.69659
298.49        50.28419
298.95        51.67351
299.40         52.8385
299.85        53.86634
300.31        54.90364
300.76        56.08259
301.21        57.48562
301.67        59.09546
302.12        60.82591
302.58        62.69344
303.03        64.62959
303.48        66.56869
303.94        68.51514
304.39        70.73891
304.84        72.70019
305.30        74.80368
305.75        76.77611
306.20         78.5295
306.66        80.06515
307.11        81.36401
307.57        82.58407
308.02        83.82723
308.47        85.17393
308.93        86.60139
309.38        88.01414
309.83         89.3394
310.29        90.55488
310.74        91.67369
311.19        92.70284
311.65        93.63742
312.10        94.46885
312.55        95.21259
313.00        95.95605
313.46        96.84206
313.91        97.87196
314.36        99.00577
314.82        100.1149
315.27        101.0203
315.72        101.6473
316.18         102.047
316.63        102.2868
317.08        102.4909
317.53        102.7246
317.99        103.0004
318.44        103.2832
318.89         103.531
319.35        103.7431
319.80        103.9333
320.25        104.2342
320.70        104.8516
321.16        105.7661
321.61        106.9404
322.06        108.0568
322.51        108.6124
322.97        108.4877
323.42        107.8494
323.87        107.0329
324.32        106.5994
324.78        106.6873
325.23        107.2129
325.68         107.939
326.13        108.4559
326.59        108.6145
327.04        108.5788
327.49        108.5183
327.94        108.7518
328.39        109.3462
328.85        110.1265
329.30        110.9519
329.75        111.3863
330.20        111.3223
330.66        110.9001
331.11        110.3838
331.56        110.1135
332.01        110.2264
332.46         110.638
332.92        111.2403
333.37        111.9988
333.82        112.7922
334.27        113.6364
334.72        114.4847
335.17        115.2581
335.63         115.894
336.08        116.4435
336.53         116.845
336.98        117.0928
337.43        117.2059
337.88        117.1961
338.34        117.1781
338.79        117.3506
339.24         117.755
339.69        118.3772
340.14        119.0636
340.59        119.5342
341.05        119.7417
341.50        119.7834
341.95        119.8483
342.40        120.2592
342.85        121.0668
343.30        122.1085
343.75        123.2082
344.20        124.0941
344.66        124.6772
345.11        125.0494
345.56        125.1792
346.01        125.0148
346.46        124.6202
346.91        124.0394
347.36        123.5523
347.81        123.5804
348.26        124.1812
348.72        125.2112
349.17         126.386
349.62        127.1301
350.07        127.2781
350.52        127.0136
350.97        126.5584
351.42         126.262
351.87        126.2389
352.32        126.3646
352.77        126.6182
353.22         126.983
353.67        127.3944
354.13        127.8246
354.58        128.1438
355.03        128.1258
355.48        127.7189
355.93        126.9967
356.38        126.0382
356.83        124.9728
357.28        123.8833
357.73        122.7748
358.18        121.7479
358.63        120.9474
359.08        120.3892
359.53        120.0291
359.98        119.7485
360.43        119.3448
360.88        118.7563
361.33        118.0331
361.78        117.2114
362.23         116.361
362.68        115.5149
363.13        114.6486
363.58        113.8035
364.03        113.0459
364.48        112.3877
364.93        111.8294
365.38        111.3029
365.83        110.6925
366.28        109.9763
366.73        109.1797
367.18        108.3937
367.63        107.7629
368.08        107.3033
368.53        106.9604
368.98        106.6117
369.43        106.0581
369.88        105.2686
370.33        104.3309
370.78        103.3653
371.23        102.5723
371.68        102.0082
372.13        101.5845
372.58        101.2748
373.03        101.0335
373.48        100.8051
373.93        100.6002
374.38        100.2729
374.83        99.59153
375.28        98.56067
375.72        97.26097
376.17        96.02097
376.62        95.16067
377.07        94.73738
377.52        94.62636
377.97        94.68391
378.42        94.66882
378.87         94.4891
379.32        94.21665
379.77        93.84222
380.22        93.34928
380.67        92.74566
381.11        92.01221
381.56        91.24315
382.01         90.6302
382.46         90.2261
382.91         90.0055
383.36        89.82236
383.81        89.43521
384.26        88.80067
384.71        87.99415
385.15        87.18227
385.60        86.68628
386.05        86.53913
386.50        86.63359
386.95        86.77122
387.40        86.64944
387.85        86.21484
388.29        85.53667
388.74        84.88314
389.19        84.39672
389.64        84.10947
390.09        83.92834
390.54        83.80147
390.98        83.63963
391.43        83.44912
391.88        83.24956
392.33        82.98197
392.78        82.63017
393.23        82.21685
393.67        81.59097
394.12        80.90897
394.57        80.91487
395.02        80.46353
395.47        80.49174
395.91        80.58668
396.36        80.57877
396.81        80.42558
397.26        80.19753
397.71        79.93719
398.15        79.58667
398.60        79.24599
399.05        79.00027
399.50        78.81182
399.95         78.4341
400.39        77.71799
400.84        77.88191
401.29        78.64332
401.74          78.808
402.18        78.26556
402.63        77.63897
403.08        77.18546
403.53        77.00422
403.97         77.1343
404.42        77.50801
404.87        77.90985
405.32        77.94358
405.76        77.52141
406.21        76.98233
406.66        76.42981
407.11        75.70518
407.55        75.09718
408.00        75.21291
408.45        75.95377
408.90        76.73616
409.34        77.21388
409.79        76.95107
410.24        76.18712
410.68        75.90228
411.13        76.18224
411.58        76.42369
412.03        76.50516
412.47        76.53158
412.92        76.43983
413.37        76.24371
413.81        75.96936
414.26        75.73872
414.71        75.54577
415.15        75.37917
415.60        75.23904
416.05        75.17543
416.49        75.20106
416.94        75.31366
417.39        75.44094
417.83        75.43938
418.28        75.29684
418.73        75.06024
419.17        74.85261
419.62        74.88549
420.07        75.16203
420.51        75.56898
420.96        76.00182
421.41        76.16014
421.85        75.95303
422.30        75.82597
422.74        75.70361
423.19        74.97664
423.64        73.93842
424.08         73.9832
424.53         74.9726
424.98        75.42088
425.42        75.18325
425.87        75.24637
426.31        75.57565
426.76        75.29994
427.21        74.45168
427.65        74.48492
428.10        75.15089
428.54         75.1058
428.99        74.45036
429.44         73.9052
429.88        73.67142
430.33         74.0928
430.77        74.88628
431.22        75.17123
431.66        75.44877
432.11        75.10914
432.56        74.46725
433.00        74.44046
433.45        75.26767
433.89         75.0217
434.34        74.99405
434.78        76.92123
435.23         74.4521
435.67         73.9663
436.12         73.7528
436.57        73.94983
437.01        74.30737
437.46        75.13313
437.90        74.75194
438.35        74.97663
438.79        75.32256
439.24         75.4347
439.68        75.34254
440.13        75.48142
440.57        75.85338
441.02        75.95385
441.46        75.69707
441.91        75.88528
442.35        75.81597
442.80         75.4049
443.24        75.96695
443.69        75.76811
444.13        75.32571
444.58        75.09718
445.02        75.07008
445.47        75.01588
445.91        74.93066
446.36        74.94363
446.80         75.0239
447.24        75.31934
447.69        75.47338
448.13        75.61167
448.58        75.64177
449.02        75.57946
449.47        75.51172
449.91        75.54175
450.36         75.7064
450.80        75.94435
451.25        76.19202
451.69        76.31247
452.13        76.28304
452.58        76.18077
453.02        76.05225
453.47         75.9522
453.91        75.86943
454.36        75.99734
454.80        75.99067
455.24        76.08079
455.69          76.077
456.13         76.4922
456.58        76.19962
457.02        75.95963
457.46        75.73506
457.91        75.51667
458.35        75.35954
458.79        75.21822
459.24        75.14474
459.68        75.19344
460.13        75.32683
460.57        75.29652
461.01        75.34953
461.46        75.09974
461.90        74.69056
462.34        74.99715
462.79        75.15088
463.23        75.05976
463.68        74.53851
464.12        74.20603
464.56        74.09106
465.01        73.93855
465.45        73.75587
465.89        73.66302
466.34        73.65717
466.78         74.2702
467.22        74.44481
467.67        74.57937
468.11         74.3835
468.55        73.96101
468.99        73.46918
469.44        73.11877
469.88        72.98341
470.32         73.0099
470.77        73.10855
471.21         73.1546
471.65        73.09647
472.10        72.99738
472.54        72.90051
472.98        72.90443
473.42        73.01146
473.87        73.19731
474.31        73.37592
474.75        73.36936
475.20        73.19844
475.64        73.14965
476.08        73.22189
476.52        72.97466
476.97        72.34978
477.41        72.38573
477.85        71.80042
478.29        71.52295
478.74        72.37457
479.18        72.78762
479.62        71.87468
480.06        71.78768
480.50        72.16146
480.95        72.07912
481.39        72.70608
481.83        71.79653
482.27        72.80696
482.72        72.41763
483.16        72.65137
483.60        72.23298
484.04         72.6405
484.48        72.76991
484.93        72.77895
485.37        72.84612
485.81        71.61866
486.25        71.40014
486.69        72.60283
487.14        72.23155
487.58        71.46321
488.02         71.7168
488.46        72.90094
488.90        72.25308
489.34         71.8074
489.79        72.51875
490.23        71.76286
490.67        71.95155
491.11        72.05629
491.55        71.97765
491.99        71.71268
492.43        71.61593
492.88        71.71573
493.32        71.79484
493.76        71.84135
494.20         71.9379
494.64        72.06902
495.08        72.25954
495.52        72.41827
495.96        72.29384
496.41        71.96684
496.85        71.77134
497.29        71.68694
497.73        71.88978
498.17         71.4967
498.61        71.51399
499.05        71.04742
499.49        71.22261
499.93         71.6777
500.37        71.67746
500.82        71.26328
501.26        71.07379
501.70        71.27293
502.14        71.32188
502.58        71.25034
503.02        71.27692
503.46        71.41856
503.90        71.43631
504.34        71.62905
504.78        71.67326
505.22        71.65153
505.66        71.52781
506.10        71.37455
506.54        71.42158
506.98        71.63468
507.42        71.85716
507.86         71.5004
508.30        71.79021
508.74        71.26826
509.18           70.91
509.62        70.48599
510.06         70.3553
510.50        70.56366
510.94        71.02261
511.38        71.54345
511.82        71.77351
512.26        71.62953
512.70         71.2229
513.14        70.74633
513.58        70.49627
514.02        70.54855
514.46        70.80777
514.90         71.1404
515.34        71.33219
515.78        71.31735
516.22        71.16624
516.66         70.9688
517.10        70.85735
517.54        70.86868
517.98        70.95695
518.42        71.05264
518.86        71.05279
519.30        70.93523
519.74        70.73985
520.18        70.54776
520.62        70.47469
521.06        70.54964
521.50        70.74539
521.93        70.97913
522.37         71.0927
522.81        71.05745
523.25         70.9068
523.69        70.75235
524.13        70.76913
524.57        70.98122
525.01        71.32313
525.45        71.64629
525.89        71.71137
526.32        71.46332
526.76        71.01942
527.20        70.52711
527.64        70.21846
528.08        70.15487
528.52        70.24863
528.96        70.43145
529.40        70.62247
529.83        70.75604
530.27        70.81029
530.71        70.78395
531.15         70.7342
531.59        70.67034
532.03        70.55075
532.46        70.39348
532.90        70.28078
533.34        70.22433
533.78        70.21779
534.22        70.24377
534.66        70.26881
535.09        70.27695
535.53        70.28862
535.97         70.3103
536.41        70.36877
536.85        70.45929
537.28        70.55655
537.72        70.62556
538.16        70.60828
538.60        70.49638
539.04        70.32185
539.47        70.10069
539.91        69.91296
540.35        69.76542
540.79        69.65665
541.22        69.59909
541.66        69.62228
542.10        69.71768
542.54         69.8775
542.97        70.05553
543.41        70.19889
543.85        70.28184
544.29        70.33041
544.72        70.32722
545.16        70.28962
545.60        70.22391
546.04        70.09436
546.47        69.96578
546.91        70.05185
547.35         70.3185
547.79        70.50408
548.22        70.52327
548.66        70.61974
549.10        70.78872
549.53        70.67328
549.97        70.21499
550.41        70.76353
550.84        70.21902
551.28        70.18919
551.72        70.03617
552.15        70.24906
552.59        70.11095
553.03        70.19476
553.46        70.27951
553.90        70.32989
554.34        70.31993
554.77        70.33443
555.21        70.36008
555.65        70.20945
556.08        69.95451
556.52         69.9304
556.96        70.11642
557.39        70.30785
557.83        70.46889
558.27        70.56053
558.70         70.6063
559.14        70.73388
559.57        70.87189
560.01        70.92887
560.45        70.89438
560.88        70.51611
561.32        70.24859
561.75        70.22992
562.19          70.491
562.63        70.32001
563.06        69.82201
563.50        69.85468
563.93        70.31319
564.37        70.48742
564.80         70.3167
565.24         70.1913
565.68        70.14002
566.11        70.09517
566.55         70.0925
566.98        70.07711
567.42        70.12358
567.85        70.22157
568.29        70.33532
568.72        70.54201
569.16          70.945
569.60        70.32394
570.03        70.75883
570.47        70.82437
570.90        70.88946
571.34        70.56722
571.77        70.82497
572.21        70.97297
572.64        71.14222
573.08        71.01797
573.51        70.61234
573.95        70.87069
574.38        71.26235
574.82        70.88734
