SpectraSmart Spectrum 2.9.0.0
--------- Device Information -----------
Spectrum Name :  反射率_0
Saving Time :  2024/04/30 00:21:07
Spectro-Module Model Name : SE2030-DUVN
Spectro-Module Serial Number : OS361AC55029948
Wavelength Start : 200
Wavelength End : 1025
Wavelength Unit : Wavelength(nm)
Spectrum Unit : Reflectance(%)
-----------Spectrum Setting ------------
Integration Time : 20ms
Average : 10
Boxcar : 0
Background removal :  enabled
linearity correction :  enabled
SC :  disabled
Intensity correction :  disabled
DWT denoise :  enabled
savitzky-golay :  disabled
FFT :  disabled
Running average :  disabled
Kalman :  disabled
High pass :  disabled
---------------BEGIN--------------------
Wavelength(nm)             Reflectance(%)
200.29               0
200.75         101.974
201.21        76.51633
201.67        49.22135
202.13        32.00729
202.58        30.36767
203.04        43.13947
203.50        65.46149
203.96        84.82489
204.42        94.01485
204.88        94.32851
205.34        89.29032
205.80        85.78591
206.26        85.29892
206.72        85.38048
207.18        83.74196
207.64        78.23496
208.10        68.88834
208.55        56.28257
209.01        43.26521
209.47        37.94359
209.93        42.06217
210.39        51.39899
210.85        60.00913
211.31        62.92279
211.77         59.6465
212.23        50.17928
212.69         36.1861
213.14          29.134
213.60        34.98836
214.06        47.45953
214.52        58.40646
214.98        62.63358
215.44        61.11451
215.90        56.11251
216.36        50.42292
216.81        49.25756
217.27        55.45039
217.73        69.02287
218.19        88.88907
218.65        104.8527
219.11        108.2053
219.57        101.5719
220.02         92.3878
220.48        86.64371
220.94        83.67902
221.40        81.75714
221.86        78.27353
222.32        69.67969
222.77        58.64192
223.23        50.12749
223.69        45.35027
224.15        43.90495
224.61        44.76966
225.06        47.28417
225.52        50.96727
225.98        53.78944
226.44        54.71924
226.90        54.50404
227.36        53.68185
227.81        52.62907
228.27        51.43832
228.73        49.78455
229.19        48.17682
229.65        47.78975
230.10        48.70932
230.56        50.42953
231.02         51.8518
231.48        51.98911
231.93         50.8503
232.39        48.85615
232.85        46.76543
233.31         46.0927
233.77         47.2808
234.22        49.99052
234.68        53.15924
235.14        54.81073
235.60        54.42105
236.05        52.67632
236.51        50.83276
236.97        50.53229
237.43        52.26968
237.88        55.99164
238.34        61.31921
238.80        66.76103
239.26        70.59503
239.71        72.87241
240.17        73.64716
240.63        73.90109
241.08        74.27226
241.54        74.08817
242.00        74.15644
242.46        77.28104
242.91        85.40626
243.37        96.74442
243.83        106.8815
244.28        113.0114
244.74        115.5623
245.20        114.1437
245.66        111.2301
246.11        112.8556
246.57        121.4165
247.03        137.3426
247.48        152.4255
247.94        149.0069
248.40        129.8588
248.85        106.7932
249.31        91.12656
249.77        87.29042
250.22        94.29292
250.68        112.7735
251.14        141.8162
251.59          156.69
252.05        141.4432
252.51        116.2988
252.96        97.06319
253.42        88.32058
253.88        86.26771
254.33        87.42475
254.79         90.2905
255.25        91.67008
255.70         90.4305
256.16        88.69045
256.62        86.92117
257.07        85.13069
257.53        83.69632
257.99        82.20658
258.44         80.2118
258.90        78.17426
259.35        75.96516
259.81        74.13872
260.27        72.80335
260.72         72.0657
261.18        71.94627
261.63        71.89085
262.09         71.6152
262.55        70.36067
263.00        68.17751
263.46        65.75113
263.91        63.33056
264.37        61.55304
264.83        60.32696
265.28        59.36248
265.74        58.67558
266.19        58.04272
266.65         57.4785
267.11        56.99465
267.56         56.4591
268.02        55.68899
268.47        54.61543
268.93        53.27335
269.38        51.82189
269.84        50.68289
270.30        49.94922
270.75        49.50968
271.21         49.1235
271.66        48.36987
272.12        47.18302
272.57        45.67262
273.03          44.109
273.48        42.82917
273.94        41.99225
274.39          41.425
274.85        41.00863
275.31        40.47797
275.76        39.75315
276.22         38.9667
276.67        38.16108
277.13        37.50913
277.58         36.9798
278.04        36.54958
278.49        36.10763
278.95        35.61789
279.40        35.02077
279.86        34.43019
280.31        33.81929
280.77        33.27909
281.22        32.78787
281.68         32.3567
282.13        32.01097
282.59        31.85082
283.04        31.84111
283.50        31.95941
283.95        32.04549
284.41        31.87911
284.86        31.42527
285.32        30.81258
285.77        30.19229
286.22         29.8655
286.68        29.88839
287.13        30.11399
287.59        30.43373
288.04        30.61345
288.50        30.61091
288.95        30.47247
289.41         30.2649
289.86        30.03112
290.32        29.83427
290.77        29.66485
291.22        29.56289
291.68        29.58574
292.13        29.74262
292.59        30.06131
293.04        30.56775
293.50        31.32798
293.95        32.33651
294.40        33.58104
294.86        34.95376
295.31        36.29957
295.77        37.56762
296.22        38.76896
296.68        40.00841
297.13        41.43063
297.58        43.06479
298.04        44.82722
298.49        46.58257
298.95        48.13664
299.40        49.44834
299.85        50.60606
300.31        51.75179
300.76        53.02061
301.21        54.48864
301.67        56.12306
302.12         57.8437
302.58        59.67751
303.03        61.56366
303.48        63.44079
303.94         65.2892
304.39        67.37795
304.84        69.11541
305.30         70.9727
305.75        72.73538
306.20        74.42704
306.66        76.05989
307.11        77.57781
307.57        79.03685
308.02         80.3963
308.47        81.70345
308.93         82.9711
309.38        84.18678
309.83        85.40925
310.29        86.64083
310.74        87.84836
311.19        88.95453
311.65        89.82671
312.10        90.43687
312.55        90.85559
313.00        91.24955
313.46        91.88038
313.91        92.78297
314.36         93.8776
314.82        94.99663
315.27        95.89648
315.72        96.47799
316.18        96.81363
316.63        96.96928
317.08        97.06644
317.53        97.17277
317.99        97.29212
318.44         97.4126
318.89         97.5322
319.35        97.66012
319.80         97.8099
320.25        98.07905
320.70        98.61177
321.16        99.38223
321.61        100.3712
322.06         101.327
322.51        101.8553
322.97        101.8588
323.42        101.4648
323.87        100.9272
324.32        100.6797
324.78        100.8279
325.23        101.3179
325.68        101.9681
326.13        102.4674
326.59         102.695
327.04        102.7741
327.49        102.8328
327.94        103.1249
328.39        103.6948
328.85         104.392
329.30        105.0877
329.75        105.3762
330.20        105.1693
330.66        104.6084
331.11        103.9604
331.56        103.5698
332.01        103.5773
332.46        103.9046
332.92        104.4592
333.37        105.2177
333.82         106.059
334.27        106.9833
334.72         107.918
335.17        108.7435
335.63        109.3842
336.08        109.8979
336.53        110.2235
336.98        110.3587
337.43        110.3352
337.88        110.1677
338.34        110.0132
338.79        110.1337
339.24        110.5806
339.69        111.3237
340.14        112.1497
340.59        112.6779
341.05        112.8285
341.50        112.7142
341.95        112.5819
342.40        112.8476
342.85        113.5862
343.30        114.6193
343.75        115.7033
344.20        116.4541
344.66        116.7766
345.11        116.8173
345.56        116.6643
346.01        116.4523
346.46        116.2702
346.91        116.0719
347.36        116.0173
347.81        116.3549
348.26        117.0892
348.72        118.1314
349.17        119.2038
349.62        119.7543
350.07        119.6543
350.52        119.0894
350.97        118.3685
351.42        117.9721
351.87        118.0353
352.32        118.4053
352.77         118.963
353.22        119.5196
353.67        119.9648
354.13        120.3166
354.58        120.5177
355.03        120.4684
355.48        120.1436
355.93        119.5568
356.38        118.7377
356.83        117.7479
357.28        116.6486
357.73        115.4797
358.18        114.3406
358.63        113.3677
359.08        112.5967
359.53        112.0001
359.98        111.5179
360.43        111.0414
360.88        110.5247
361.33        109.9842
361.78        109.4075
362.23        108.7812
362.68         108.108
363.13        107.3862
363.58        106.6419
364.03        105.9241
364.48        105.2471
364.93        104.5995
365.38        103.9803
365.83        103.3875
366.28        102.8148
366.73        102.2617
367.18        101.7009
367.63        101.0848
368.08        100.4001
368.53        99.65881
368.98        98.89293
369.43        98.15251
369.88        97.47098
370.33        96.86469
370.78         96.3147
371.23        95.79153
371.68        95.27971
372.13        94.74807
372.58        94.27462
373.03        93.98436
373.48        93.86256
373.93         93.8595
374.38        93.72068
374.83         93.0452
375.28        91.80753
375.72        90.16637
376.17        88.56873
376.62        87.50463
377.07        87.06841
377.52        87.08346
377.97        87.32085
378.42        87.40063
378.87        87.18838
379.32        86.79607
379.77        86.28325
380.22        85.73149
380.67        85.17311
381.11        84.56517
381.56        83.93426
382.01        83.36288
382.46        82.88725
382.91        82.52087
383.36        82.22607
383.81        81.92345
384.26        81.58766
384.71        81.22443
385.15        80.86456
385.60        80.61847
386.05        80.46857
386.50        80.37421
386.95        80.23557
387.40        79.90818
387.85        79.38921
388.29        78.70763
388.74         78.0779
389.19        77.58252
389.64        77.23816
390.09        76.97959
390.54        76.78297
390.98        76.60149
391.43        76.44575
391.88        76.30898
392.33        76.10237
392.78        75.77747
393.23        75.33448
393.67        74.63648
394.12        73.88389
394.57        73.79152
395.02        73.37184
395.47        73.63407
395.91        74.08432
396.36        74.18978
396.81        73.87124
397.26        73.38503
397.71        72.89152
398.15        72.48679
398.60        72.29805
399.05        72.26241
399.50        72.28585
399.95        72.24241
400.39        71.88106
400.84        71.93583
401.29        72.22889
401.74        72.19966
402.18        71.80872
402.63        71.33243
403.08        70.95347
403.53        70.80108
403.97         70.9016
404.42        71.20703
404.87          71.522
405.32        71.50233
405.76         71.0736
406.21        70.46684
406.66        69.84402
407.11        69.28493
407.55         68.9807
408.00        69.22682
408.45        69.87511
408.90        70.34331
409.34        70.44907
409.79        70.25079
410.24         69.9157
410.68        69.81057
411.13        69.98968
411.58         70.2394
412.03        70.43699
412.47        70.47676
412.92        70.29218
413.37        69.96181
413.81        69.56762
414.26        69.30192
414.71        69.17712
415.15        69.15952
415.60         69.1963
416.05        69.24637
416.49          69.294
416.94        69.35286
417.39        69.40775
417.83        69.41895
418.28        69.38334
418.73        69.29353
419.17        69.20422
419.62        69.22347
420.07        69.35686
420.51        69.56194
420.96        69.76105
421.41        69.78474
421.85        69.59087
422.30        69.32267
422.74        69.03818
423.19        68.88039
423.64        68.86092
424.08        69.04607
424.53        69.37704
424.98        69.50153
425.42        69.76122
425.87        69.97717
426.31        70.21596
426.76        70.09029
427.21        69.60167
427.65        69.77253
428.10        70.38361
428.54        70.47114
428.99        70.03718
429.44        69.46571
429.88        68.99409
430.33        69.06059
430.77        69.50324
431.22        70.00801
431.66        70.41978
432.11        70.22916
432.56        69.57157
433.00        69.62636
433.45        70.59352
433.89        70.60417
434.34        70.79887
434.78        72.21315
435.23        70.65204
435.67        70.03769
436.12        69.37428
436.57        69.47229
437.01          70.206
437.46        70.64741
437.90        70.76236
438.35        71.19962
438.79        71.87202
439.24         72.1618
439.68        72.08602
440.13        72.08208
440.57        72.15567
441.02        72.12061
441.46        71.98032
441.91        71.80958
442.35        71.61526
442.80        71.82784
443.24        72.28849
443.69        72.30473
444.13        71.89666
444.58        71.76333
445.02        71.88027
445.47        71.88971
445.91        71.79173
446.36        71.79745
446.80        71.89468
447.24        72.05296
447.69        72.23539
448.13        72.33295
448.58        72.35909
449.02        72.37778
449.47        72.43398
449.91        72.50475
450.36         72.6085
450.80        72.74269
451.25        72.88297
451.69        72.94305
452.13        72.91958
452.58        72.86987
453.02        72.81092
453.47         72.7851
453.91         72.7945
454.36        72.91579
454.80        72.81934
455.24        73.08814
455.69          73.495
456.13        73.43173
456.58        73.00076
457.02        72.79136
457.46        72.84874
457.91        72.85177
458.35         72.7429
458.79        72.63659
459.24         72.5577
459.68        72.50895
460.13         72.5278
460.57        72.34961
461.01        72.50359
461.46        72.33297
461.90        72.17908
462.34        72.36979
462.79         72.7843
463.23        72.62247
463.68         71.9277
464.12        71.58618
464.56        71.66993
465.01         71.2219
465.45        71.10699
465.89        71.19232
466.34        71.53584
466.78        72.03393
467.22        71.46599
467.67        71.38634
468.11        71.47215
468.55         71.3511
468.99        71.05935
469.44        70.85477
469.88        70.77573
470.32        70.75794
470.77        70.76591
471.21        70.76274
471.65         70.7205
472.10        70.67657
472.54         70.6478
472.98        70.68084
473.42        70.76913
473.87        70.93712
474.31        71.10725
474.75        71.06333
475.20        70.85104
475.64        70.84285
476.08        71.05654
476.52        70.89883
476.97        70.28022
477.41          70.422
477.85        70.34098
478.29        69.38554
478.74         70.5013
479.18         70.7934
479.62        69.80892
480.06        69.66985
480.50        69.95286
480.95        69.89716
481.39        70.60435
481.83        69.73491
482.27        70.44043
482.72        70.71806
483.16        70.54595
483.60        70.66101
484.04        70.81641
484.48        71.04963
484.93        71.16669
485.37        70.82632
485.81        70.31771
486.25        69.29893
486.69        70.14825
487.14        70.11115
487.58        69.50582
488.02        70.13953
488.46        70.47391
488.90        70.70863
489.34        69.73466
489.79        70.47547
490.23        70.21848
490.67        70.45927
491.11        70.40121
491.55        70.10725
491.99        69.69101
492.43        69.51421
492.88        69.63051
493.32         69.8239
493.76        70.02692
494.20         70.2357
494.64        70.40712
495.08        70.59286
495.52        70.74628
495.96        70.65845
496.41         70.3974
496.85        70.42368
497.29         70.2949
497.73        70.51569
498.17         70.1478
498.61        69.98876
499.05        69.84319
499.49        69.82221
499.93        69.88049
500.37        69.79771
500.82        69.61821
501.26        69.60146
501.70        69.75454
502.14        69.92229
502.58        70.06119
503.02        70.16887
503.46        70.23012
503.90        70.24487
504.34        70.23077
504.78        70.22507
505.22        70.23838
505.66        70.24351
506.10        70.22827
506.54        70.25384
506.98        70.33174
507.42        70.31235
507.86        70.11581
508.30        70.40567
508.74        69.89468
509.18        69.64682
509.62        69.38161
510.06        69.29105
510.50        69.39566
510.94        69.65826
511.38         69.9734
511.82        70.12772
512.26        70.07139
512.70        69.86992
513.14        69.62112
513.58         69.4767
514.02        69.47868
514.46        69.57525
514.90        69.71664
515.34        69.82626
515.78        69.87349
516.22        69.88226
516.66        69.86654
517.10        69.84235
517.54        69.81752
517.98        69.78607
518.42        69.73843
518.86        69.66518
519.30        69.57035
519.74        69.46254
520.18        69.37706
520.62        69.36159
521.06         69.4272
521.50        69.56877
521.93        69.73929
522.37        69.83691
522.81        69.84651
523.25        69.78156
523.69        69.71628
524.13        69.77103
524.57        69.95881
525.01        70.23265
525.45        70.48061
525.89         70.5219
526.32        70.31358
526.76        69.95034
527.20        69.54446
527.64        69.27145
528.08        69.18026
528.52        69.21585
528.96         69.3318
529.40        69.45301
529.83        69.53972
530.27        69.62162
530.71        69.67693
531.15        69.67544
531.59        69.61634
532.03        69.50348
532.46        69.36087
532.90        69.26309
533.34        69.22131
533.78        69.22238
534.22        69.25088
534.66        69.27853
535.09        69.28928
535.53         69.3074
535.97        69.32074
536.41        69.32487
536.85        69.31716
537.28        69.28788
537.72        69.24916
538.16        69.21651
538.60        69.19273
539.04        69.18008
539.47        69.13708
539.91        69.07626
540.35        68.98341
540.79        68.84921
541.22        68.70164
541.66        68.73848
542.10        68.74174
542.54         68.8727
542.97        69.01516
543.41        69.11691
543.85        69.15104
544.29        69.15382
544.72        69.11805
545.16        69.06398
545.60        69.00201
546.04        68.89951
546.47        68.79868
546.91        68.91602
547.35        69.23264
547.79        69.41927
548.22        69.37005
548.66        69.79864
549.10        69.83766
549.53        69.83408
549.97        69.45557
550.41        70.03092
550.84        69.47181
551.28        69.36903
551.72        69.11131
552.15        69.28976
552.59        69.05246
553.03        69.09888
553.46        69.16033
553.90        69.21816
554.34        69.24592
554.77         69.2673
555.21        69.29277
555.65        69.29021
556.08        69.26358
556.52        69.26763
556.96        69.29427
557.39         69.3731
557.83        69.49496
558.27        69.52756
558.70         69.5136
559.14         69.6315
559.57         69.8207
560.01        69.99569
560.45        70.10036
560.88        69.82355
561.32         69.6024
561.75        69.52523
562.19         69.6931
562.63        69.61136
563.06        69.30133
563.50        69.34029
563.93        69.70046
564.37        69.43048
564.80        69.62881
565.24        69.49472
565.68        69.39375
566.11        69.37412
566.55        69.45699
566.98        69.47881
567.42        69.47584
567.85        69.51012
568.29        69.59283
568.72        69.73938
569.16        70.03244
569.60        69.84938
570.03        69.99414
570.47         70.1813
570.90        70.34028
571.34        69.68434
571.77        70.18388
572.21        70.14397
572.64        70.13078
573.08        70.15409
573.51        69.89273
573.95        70.11878
574.38        70.13646
574.82        70.04774
