SpectraSmart Spectrum 2.9.0.0
--------- Device Information -----------
Spectrum Name :  反射率_0
Saving Time :  2024/04/30 00:02:40
Spectro-Module Model Name : SE2030-DUVN
Spectro-Module Serial Number : OS361AC55029948
Wavelength Start : 200
Wavelength End : 1025
Wavelength Unit : Wavelength(nm)
Spectrum Unit : Reflectance(%)
-----------Spectrum Setting ------------
Integration Time : 20ms
Average : 10
Boxcar : 0
Background removal :  enabled
linearity correction :  enabled
SC :  disabled
Intensity correction :  disabled
DWT denoise :  enabled
savitzky-golay :  disabled
FFT :  disabled
Running average :  disabled
Kalman :  disabled
High pass :  disabled
---------------BEGIN--------------------
Wavelength(nm)             Reflectance(%)
200.29               0
200.75        79.90061
201.21        61.28991
201.67         41.7944
202.13        27.24253
202.58        20.61212
203.04        21.02979
203.50        28.33233
203.96        41.10846
204.42        56.62093
204.88         73.2714
205.34        84.99588
205.80        84.49851
206.26        74.51241
206.72        61.36023
207.18        48.98545
207.64        38.99952
208.10        30.53562
208.55        21.83723
209.01        14.71227
209.47         14.3898
209.93        20.94607
210.39        31.41294
210.85        40.18968
211.31        42.56311
211.77        38.23769
212.23        26.58138
212.69        10.31513
213.14        4.853402
213.60        16.81949
214.06        36.74503
214.52        53.12183
214.98        58.95929
215.44        55.86325
215.90         46.7184
216.36        35.68277
216.81        30.68467
217.27        35.74869
217.73        50.61786
218.19        73.04966
218.65        88.60392
219.11        87.58813
219.57        76.12374
220.02        63.97037
220.48        57.87617
220.94        57.07737
221.40        59.19738
221.86         62.5022
222.32        62.36894
222.77        57.68119
223.23        52.69433
223.69        48.57652
224.15        45.12551
224.61        41.77457
225.06        37.73995
225.52        34.02453
225.98        33.06807
226.44         35.0967
226.90        38.57717
227.36        41.37359
227.81        41.93822
228.27        40.47103
228.73        37.36596
229.19        33.98332
229.65        33.21483
230.10        35.36546
230.56        38.76139
231.02        41.49295
231.48        41.90961
231.93        40.05611
232.39        36.71762
232.85        32.82776
233.31        30.21458
233.77        29.58003
234.22         30.4831
234.68        32.25824
235.14        33.61157
235.60        34.09079
236.05        34.14471
236.51        34.27279
236.97        35.12328
237.43        36.97078
237.88        39.83693
238.34        43.52943
238.80        47.37908
239.26        50.33841
239.71        52.28093
240.17        53.10848
240.63        53.41833
241.08        53.61025
241.54        53.37194
242.00        53.12328
242.46        54.53891
242.91        58.91217
243.37        65.03613
243.83        70.64111
244.28         74.3235
244.74        76.13489
245.20        76.04955
245.66         74.4399
246.11        72.40994
246.57        70.86803
247.03        70.43045
247.48        69.95399
247.94        66.99567
248.40        62.80388
248.85        58.80144
249.31        57.48432
249.77        60.10453
250.22        67.17464
250.68        80.59931
251.14        100.1312
251.59        110.2668
252.05        100.7687
252.51        84.06743
252.96        71.44109
253.42        66.65421
253.88         67.1481
254.33        70.71188
254.79          75.246
255.25        76.07703
255.70        72.79904
256.16        68.68313
256.62        65.58654
257.07         64.5121
257.53        65.32642
257.99        66.98805
258.44        68.14577
258.90        67.78306
259.35        65.72185
259.81        63.29036
260.27        61.16149
260.72        59.88075
261.18        59.46807
261.63         59.2575
262.09        58.99204
262.55        58.05411
263.00        56.42989
263.46        54.65562
263.91         52.8293
264.37        51.32929
264.83        50.08591
265.28        48.91694
265.74        47.93302
266.19        47.09563
266.65        46.45795
267.11        45.98446
267.56        45.52551
268.02        44.85403
268.47        43.89468
268.93        42.70133
269.38        41.41173
269.84        40.40001
270.30        39.74418
270.75        39.34076
271.21        38.97797
271.66        38.30322
272.12        37.25791
272.57        35.94708
273.03        34.60201
273.48        33.50499
273.94        32.79719
274.39        32.33774
274.85         32.0384
275.31         31.7041
275.76        31.25977
276.22        30.78461
276.67        30.28932
277.13        29.87642
277.58        29.51279
278.04        29.19696
278.49        28.83061
278.95        28.37205
279.40        27.78526
279.86        27.17791
280.31        26.58649
280.77        26.17367
281.22        25.93009
281.68        25.83177
282.13        25.82097
282.59        25.86616
283.04        25.91513
283.50         25.9597
283.95        25.94518
284.41        25.80096
284.86        25.51684
285.32        25.17196
285.77        24.77638
286.22        24.41337
286.68        24.13034
287.13        23.88207
287.59        23.75866
288.04        23.83693
288.50        24.11783
288.95        24.52462
289.41        24.93395
289.86        25.12511
290.32        25.08776
290.77        24.89823
291.22        24.66478
291.68        24.55681
292.13        24.63071
292.59        24.86898
293.04        25.30647
293.50        26.02219
293.95        27.00697
294.40        28.24887
294.86        29.60905
295.31        30.87296
295.77        31.97811
296.22        32.95744
296.68         33.9391
297.13        35.10996
297.58        36.51718
298.04        38.06673
298.49        39.63515
298.95        41.03983
299.40         42.2357
299.85        43.29923
300.31        44.33913
300.76        45.44651
301.21        46.68403
301.67         48.0278
302.12        49.41428
302.58        50.89652
303.03           52.43
303.48        53.91955
303.94        55.34536
304.39        57.09737
304.84        58.40337
305.30        59.88149
305.75        61.24876
306.20        62.49966
306.66        63.64539
307.11        64.65974
307.57        65.63346
308.02        66.59139
308.47        67.57887
308.93        68.58509
309.38        69.56096
309.83        70.49687
310.29        71.38229
310.74        72.21679
311.19        72.95601
311.65        73.51974
312.10        73.89823
312.55        74.13529
313.00        74.38221
313.46        74.87711
313.91        75.64439
314.36        76.61246
314.82        77.59949
315.27        78.33425
315.72        78.72162
316.18        78.84483
316.63        78.80844
317.08        78.79696
317.53         78.8874
317.99        79.05532
318.44        79.25362
318.89        79.42175
319.35        79.54453
319.80         79.6447
320.25        79.81597
320.70        80.19798
321.16        80.77779
321.61        81.53694
322.06        82.25045
322.51        82.56909
322.97        82.41405
323.42        81.90099
323.87        81.29074
324.32        81.01686
324.78        81.17683
325.23        81.70472
325.68        82.37373
326.13        82.79332
326.59        82.83403
327.04        82.64062
327.49        82.40963
327.94        82.49814
328.39        82.98596
328.85        83.70988
329.30        84.50111
329.75        84.91763
330.20        84.84241
330.66        84.41841
331.11        83.88969
331.56        83.58161
332.01        83.62296
332.46        83.92902
332.92        84.41035
333.37        85.02753
333.82        85.67984
334.27        86.38274
334.72        87.09525
335.17        87.74344
335.63        88.27866
336.08        88.74514
336.53        89.08761
336.98        89.29048
337.43        89.37438
337.88          89.353
338.34        89.35662
338.79        89.61076
339.24        90.15078
339.69        90.93382
340.14        91.77343
340.59        92.33979
341.05        92.56037
341.50        92.54129
341.95        92.46663
342.40        92.65043
342.85        93.16254
343.30        93.86879
343.75        94.64567
344.20        95.30004
344.66        95.77177
345.11        96.13858
345.56          96.367
346.01        96.39146
346.46        96.25062
346.91        95.97418
347.36        95.78249
347.81        96.01696
348.26        96.72039
348.72        97.76919
349.17        98.91883
349.62        99.68532
350.07        99.92925
350.52        99.80881
350.97        99.51215
351.42        99.33656
351.87        99.38659
352.32        99.56275
352.77        99.86713
353.22        100.3127
353.67        100.8492
354.13        101.4465
354.58         101.965
355.03         102.165
355.48        101.9877
355.93        101.5011
356.38        100.7986
356.83        100.0362
357.28        99.29041
357.73        98.54756
358.18         97.8607
358.63        97.30175
359.08        96.87927
359.53        96.58515
359.98        96.34981
360.43        96.04838
360.88        95.64323
361.33        95.15685
361.78        94.62463
362.23        94.11196
362.68         93.6382
363.13        93.18253
363.58        92.72655
364.03        92.24274
364.48        91.72723
364.93        91.19702
365.38         90.6785
365.83        90.21239
366.28        89.80762
366.73        89.44643
367.18         89.1018
367.63        88.72987
368.08        88.31265
368.53        87.86093
368.98         87.3815
369.43        86.88415
369.88        86.38632
370.33         85.9018
370.78        85.43939
371.23        85.01704
371.68        84.63548
372.13        84.26797
372.58        83.94285
373.03        83.70384
373.48        83.53094
373.93        83.39878
374.38        83.17218
374.83        82.64039
375.28        81.79752
375.72        80.72645
376.17        79.68909
376.62        78.92539
377.07        78.48816
377.52        78.28751
377.97        78.23988
378.42        78.20676
378.87        78.12239
379.32        78.01684
379.77        77.85583
380.22        77.58738
380.67        77.20219
381.11        76.69759
381.56        76.12886
382.01        75.61604
382.46        75.20821
382.91        74.90301
383.36         74.6421
383.81        74.32339
384.26        73.92454
384.71        73.46786
385.15        73.03434
385.60        72.80206
386.05        72.76618
386.50        72.86526
386.95        72.93636
387.40        72.73396
387.85        72.23453
388.29        71.50328
388.74        70.81116
389.19        70.33897
389.64        70.12197
390.09        70.06711
390.54        70.09321
390.98        70.05609
391.43        69.93639
391.88        69.76925
392.33        69.53188
392.78        69.22814
393.23        68.88111
393.67        68.39079
394.12        67.88606
394.57        67.78053
395.02        67.46959
395.47        67.41262
395.91        67.39714
396.36        67.34278
396.81        67.23614
397.26        67.10917
397.71        66.95313
398.15        66.70765
398.60        66.45407
399.05        66.16482
399.50        65.88547
399.95        65.75076
400.39        65.53986
400.84         65.7209
401.29        66.06546
401.74        66.09093
402.18        65.73313
402.63         65.1906
403.08        64.70792
403.53        64.56217
403.97        64.80437
404.42        65.33836
404.87        65.88853
405.32        66.01411
405.76        65.61568
406.21        64.87114
406.66        64.04139
407.11        63.54345
407.55        63.50244
408.00        63.75696
408.45        64.15392
408.90        64.45452
409.34        64.53288
409.79        64.36475
410.24        64.09353
410.68        64.02335
411.13        64.20004
411.58        64.47615
412.03        64.72838
412.47        64.80135
412.92        64.62657
413.37        64.29993
413.81        63.91085
414.26        63.65567
414.71        63.55087
415.15        63.55573
415.60        63.62207
416.05        63.71289
416.49        63.80994
416.94        63.93143
417.39        64.04342
417.83        64.07151
418.28        64.01744
418.73        63.89815
419.17        63.80099
419.62        63.88291
420.07         64.1466
420.51        64.51344
420.96        64.89922
421.41        65.07481
421.85        64.96911
422.30        64.88625
422.74        64.79209
423.19        64.35599
423.64        63.76571
424.08        63.88703
424.53        64.60863
424.98        64.99045
425.42        64.94366
425.87        65.05397
426.31        65.30838
426.76        65.28525
427.21         64.9225
427.65        64.94587
428.10        65.24869
428.54        65.28748
428.99        65.08544
429.44        64.90317
429.88        64.82043
430.33         64.9012
430.77        65.10806
431.22        65.59417
431.66        66.23662
432.11        66.44315
432.56        66.18862
433.00        66.08091
433.45        66.42734
433.89        66.26443
434.34        67.23645
434.78        68.28335
435.23        66.46957
435.67        65.87609
436.12        65.76463
436.57         66.0202
437.01        66.44278
437.46         67.1216
437.90        67.07457
438.35        67.19312
438.79        67.76209
439.24        67.93298
439.68        67.91123
440.13        68.06074
440.57        68.41297
441.02        68.59834
441.46        68.54292
441.91        68.69224
442.35        69.03246
442.80        68.48379
443.24        69.17036
443.69         68.9884
444.13        68.63074
444.58        68.43285
445.02        68.36965
445.47        68.31928
445.91        68.29678
446.36        68.27151
446.80        68.18029
447.24        68.89105
447.69        68.80399
448.13        69.02491
448.58        69.09138
449.02        69.05733
449.47        69.00243
449.91        69.04454
450.36        69.23621
450.80        69.50764
451.25        69.80193
451.69        69.99506
452.13        70.05911
452.58        70.05413
453.02        70.02312
453.47        70.01433
453.91        70.02337
454.36        70.21991
454.80        70.23291
455.24        70.26679
455.69        70.21703
456.13        70.16827
456.58        70.13612
457.02        69.91422
457.46        69.61069
457.91        69.60929
458.35        69.82318
458.79        69.87511
459.24        69.77211
459.68        69.74997
460.13        69.84526
460.57        69.71671
461.01        69.87874
461.46        69.75746
461.90        69.53638
462.34         69.8326
462.79        70.16812
463.23        69.98663
463.68        69.30148
464.12        69.01695
464.56        69.17553
465.01        69.20604
465.45        69.06477
465.89         69.1862
466.34        69.47736
466.78        69.61282
467.22         69.3607
467.67        69.19839
468.11        69.10869
468.55        68.87091
468.99         68.5601
469.44        68.37891
469.88        68.35491
470.32        68.45078
470.77        68.57669
471.21        68.60428
471.65        68.48811
472.10        68.28883
472.54        68.08808
472.98        68.02902
473.42        68.12684
473.87        68.39679
474.31        68.70461
474.75        68.69592
475.20         68.4319
475.64        68.40139
476.08        68.58679
476.52        68.47416
476.97        68.03782
477.41        67.95072
477.85        67.51633
478.29        67.44215
478.74        68.07758
479.18        68.14733
479.62        67.60406
480.06        67.49691
480.50          67.772
480.95        67.64793
481.39         68.2256
481.83        67.47935
482.27        68.53519
482.72        68.18562
483.16         68.2654
483.60        68.24841
484.04        68.47955
484.48        68.69487
484.93        68.62501
485.37        68.65529
485.81        68.08556
486.25        66.84784
486.69        68.11698
487.14        68.37302
487.58         67.9817
488.02        67.27415
488.46        68.51239
488.90        68.17578
489.34        67.87347
489.79        68.62641
490.23        67.69471
490.67        67.70655
491.11        67.73431
491.55        67.68607
491.99        67.54211
492.43        67.49702
492.88        67.57231
493.32        67.68327
493.76        67.81126
494.20         67.9531
494.64         68.0856
495.08        68.24711
495.52        68.38081
495.96        68.28068
496.41        68.00857
496.85        67.90682
497.29         67.9081
497.73        67.91097
498.17        67.21928
498.61        67.20721
499.05        67.59011
499.49        67.65553
499.93        67.34937
500.37        67.20756
500.82        67.30655
501.26        67.09061
501.70        66.93184
502.14        67.36224
502.58        67.10889
503.02        67.26396
503.46        67.41032
503.90        67.57388
504.34         67.7149
504.78        67.81589
505.22        67.87617
505.66        67.86568
506.10        67.79706
506.54        67.77254
506.98        67.81882
507.42        67.78168
507.86        67.58225
508.30        67.85799
508.74        67.36782
509.18        67.14097
509.62        66.91207
510.06        66.87123
510.50        67.03416
510.94        67.35658
511.38        67.71861
511.82        67.88627
512.26        67.80524
512.70        67.55003
513.14         67.2287
513.58        67.00896
514.02        66.94197
514.46        66.97507
514.90        67.07022
515.34        67.16793
515.78        67.23885
516.22        67.30145
516.66        67.34903
517.10        67.36413
517.54        67.34496
517.98        67.29164
518.42        67.20779
518.86        67.10831
519.30        67.00384
519.74        66.89507
520.18        66.80798
520.62        66.77592
521.06        66.80735
521.50        66.90481
521.93        67.03012
522.37        67.09517
522.81         67.0898
523.25        67.02453
523.69        66.96937
524.13        67.03789
524.57        67.24065
525.01        67.53198
525.45         67.8011
525.89        67.86946
526.32        67.69228
526.76        67.35812
527.20        66.97582
527.64        66.71642
528.08         66.6288
528.52        66.66327
528.96        66.77087
529.40        66.87219
529.83        66.93037
530.27        66.97613
530.71        67.00668
531.15        67.02144
531.59        67.02084
532.03        66.99622
532.46        66.94043
532.90        66.87714
533.34        66.80893
533.78        66.74293
534.22        66.68924
534.66        66.65979
535.09        66.65032
535.53        66.66919
535.97        66.70531
536.41        66.75435
536.85        66.80991
537.28        66.86626
537.72        66.90489
538.16        66.89919
538.60        66.84113
539.04        66.72573
539.47        66.57939
539.91        66.51032
540.35        66.51589
540.79        66.57932
541.22        66.64567
541.66        66.64095
542.10        66.54778
542.54         66.3997
542.97        66.25491
543.41        66.22192
543.85        66.31124
544.29        66.49799
544.72        66.68607
545.16        66.76265
545.60        66.69772
546.04        66.50155
546.47         66.2728
546.91        66.27319
547.35        66.49252
547.79        66.65837
548.22        66.69119
548.66        66.82812
549.10        67.06004
549.53        67.05013
549.97        66.71823
550.41        67.29617
550.84        66.77438
551.28        66.69859
551.72        66.49946
552.15        66.61098
552.59        66.56242
553.03        66.61127
553.46         66.6166
553.90         66.6328
554.34        66.63784
554.77        66.65399
555.21        66.67862
555.65        66.56999
556.08        66.38839
556.52          66.465
556.96        66.74932
557.39        66.90325
557.83        66.91409
558.27         66.9886
558.70        67.14311
559.14         67.1207
559.57        67.13608
560.01         67.1709
560.45        67.26606
560.88        66.98612
561.32         66.7583
561.75        66.74607
562.19        66.99471
562.63        66.96327
563.06        66.67876
563.50        66.63463
563.93        66.79128
564.37        66.84724
564.80         66.7748
565.24         66.7453
565.68        66.75286
566.11        66.77984
566.55        66.83028
566.98        66.77983
567.42        66.72244
567.85        66.75272
568.29        66.88096
568.72        67.04601
569.16        67.57579
569.60        67.03368
570.03        67.40211
570.47        67.33545
570.90        67.43742
571.34        67.00108
571.77        67.35561
572.21         67.4781
572.64        67.65792
573.08         67.6183
573.51        67.29666
573.95        67.27178
574.38        67.73906
574.82        67.26207
