SpectraSmart Spectrum 2.9.0.0
--------- Device Information -----------
Spectrum Name :  反射率_0
Saving Time :  2024/04/30 00:17:54
Spectro-Module Model Name : SE2030-DUVN
Spectro-Module Serial Number : OS361AC55029948
Wavelength Start : 200
Wavelength End : 1025
Wavelength Unit : Wavelength(nm)
Spectrum Unit : Reflectance(%)
-----------Spectrum Setting ------------
Integration Time : 20ms
Average : 10
Boxcar : 0
Background removal :  enabled
linearity correction :  enabled
SC :  disabled
Intensity correction :  disabled
DWT denoise :  enabled
savitzky-golay :  disabled
FFT :  disabled
Running average :  disabled
Kalman :  disabled
High pass :  disabled
---------------BEGIN--------------------
Wavelength(nm)             Reflectance(%)
200.29               0
200.75        78.96555
201.21        58.44547
201.67        35.46762
202.13        19.03293
202.58        13.33345
203.04        16.89847
203.50        27.63218
203.96        39.92908
204.42        49.75772
204.88        57.63644
205.34        61.91148
205.80        60.94708
206.26        56.56879
206.72        50.97585
207.18        45.45009
207.64        40.48395
208.10        35.71854
208.55          30.359
209.01        26.06719
209.47        27.06737
209.93        33.18577
210.39        41.89277
210.85        48.78286
211.31        50.15466
211.77        45.74266
212.23        34.93847
212.69        19.78727
213.14        13.42844
213.60        21.98437
214.06        37.66145
214.52        51.04947
214.98        56.30131
215.44        54.59522
215.90        48.51869
216.36        40.64909
216.81        35.77895
217.27        36.53583
217.73         42.1669
218.19        52.61886
218.65        63.41468
219.11        69.17585
219.57        70.06366
220.02        68.29887
220.48        66.58801
220.94        64.80118
221.40        61.79893
221.86        56.15731
222.32        47.68545
222.77        39.68485
223.23        34.87731
223.69        32.26027
224.15        30.16445
224.61        27.97171
225.06        25.39122
225.52        24.02072
225.98        26.48566
226.44        31.96961
226.90        38.08816
227.36         42.3373
227.81         43.1561
228.27        41.02547
228.73        36.55368
229.19        31.43255
229.65        29.41924
230.10        31.27992
230.56        35.03502
231.02        38.54848
231.48        40.03102
231.93        39.46405
232.39        37.61938
232.85        35.32076
233.31        34.07874
233.77        34.42427
234.22        36.02675
234.68        37.98303
235.14        38.67502
235.60        37.74306
236.05        35.80691
236.51        34.16971
236.97        34.53274
237.43        37.39278
237.88          42.825
238.34        50.08445
238.80        56.14481
239.26        58.48264
239.71        57.53106
240.17        54.75602
240.63        52.80539
241.08        52.58189
241.54        53.55967
242.00        56.67579
242.46        63.06227
242.91        71.98174
243.37        81.42509
243.83        88.50628
244.28        92.42374
244.74        93.92052
245.20        92.33711
245.66        89.18378
246.11        88.62961
246.57        92.61747
247.03        101.5289
247.48        111.1135
247.94        111.1308
248.40        102.2953
248.85        90.65174
249.31        82.70575
249.77         80.9321
250.22        84.91859
250.68        95.04562
251.14         110.355
251.59        116.5323
252.05        105.8761
252.51        90.65789
252.96         79.6479
253.42        75.36542
253.88        75.40226
254.33        77.63644
254.79        81.12864
255.25         83.1603
255.70        82.65816
256.16        81.47402
256.62        79.98595
257.07        78.21904
257.53        76.61324
257.99        74.82574
258.44        72.78191
258.90        71.33528
259.35        70.17451
259.81        69.47597
260.27        68.91354
260.72        68.22823
261.18        67.57325
261.63        66.67793
262.09        65.61446
262.55        64.10672
263.00        62.19888
263.46        60.29034
263.91        58.38535
264.37        56.80804
264.83        55.46236
265.28        54.21305
265.74        53.17167
266.19        52.26958
266.65        51.57021
267.11        51.02599
267.56        50.52838
268.02        49.92966
268.47        49.14595
268.93        48.19524
269.38        47.12536
269.84        46.15597
270.30        45.33447
270.75        44.62299
271.21        43.89768
271.66        42.91674
272.12        41.66245
272.57        40.20681
273.03        38.79116
273.48        37.70589
273.94        37.07882
274.39        36.75104
274.85        36.58209
275.31        36.29097
275.76        35.78556
276.22        35.17387
276.67        34.50193
277.13        33.94123
277.58        33.47169
278.04        33.08179
278.49        32.64762
278.95        32.10453
279.40        31.40327
279.86        30.65944
280.31        29.93125
280.77        29.41963
281.22        29.11578
281.68        28.99432
282.13        28.94263
282.59        28.85931
283.04        28.68889
283.50        28.45692
283.95        28.19425
284.41        27.96545
284.86        27.77498
285.32        27.64894
285.77         27.4952
286.22        27.25755
286.68        26.95472
287.13        26.58234
287.59        26.29736
288.04        26.27654
288.50        26.54714
288.95        26.99474
289.41        27.45164
289.86        27.62978
290.32        27.50759
290.77         27.1885
291.22        26.82252
291.68        26.63972
292.13        26.71437
292.59        27.01542
293.04        27.54225
293.50        28.32572
293.95        29.34636
294.40         30.6075
294.86        32.00896
295.31        33.39588
295.77        34.71201
296.22        35.96238
296.68         37.2185
297.13        38.58036
297.58        40.07525
298.04        41.63692
298.49        43.19095
298.95         44.6345
299.40        45.94473
299.85        47.17936
300.31        48.41908
300.76        49.70737
301.21        51.09867
301.67         52.5907
302.12        54.14842
302.58        55.86441
303.03        57.69946
303.48        59.56267
303.94        61.40912
304.39          63.516
304.84        65.21725
305.30        67.05566
305.75        68.81683
306.20        70.55056
306.66        72.26787
307.11        73.89552
307.57        75.47516
308.02        76.95507
308.47        78.37286
308.93        79.74572
309.38        81.04454
309.83        82.29904
310.29        83.51315
310.74        84.66856
311.19        85.72979
311.65        86.62848
312.10        87.35213
312.55        87.95348
313.00        88.56058
313.46        89.37304
313.91        90.40752
314.36        91.59733
314.82        92.80292
315.27        93.82571
315.72        94.57628
316.18        95.11195
316.63        95.46075
317.08        95.68749
317.53        95.84998
317.99         95.9696
318.44        96.08559
318.89         96.2769
319.35        96.56577
319.80        96.93495
320.25        97.42174
320.70        98.07301
321.16        98.83855
321.61         99.7321
322.06        100.5444
322.51        100.9549
322.97        100.8948
323.42         100.468
323.87        99.92202
324.32        99.68136
324.78        99.83971
325.23        100.3463
325.68        100.9976
326.13        101.4387
326.59        101.5472
327.04        101.4712
327.49        101.3651
327.94         101.526
328.39        102.0178
328.85        102.6767
329.30        103.4056
329.75        103.8509
330.20        103.9174
330.66        103.7222
331.11        103.4264
331.56        103.2113
332.01        103.1798
332.46        103.2884
332.92        103.5539
333.37        104.1509
333.82        105.0257
334.27        106.1372
334.72        107.3192
335.17        108.2878
335.63        108.9178
336.08        109.3111
336.53        109.5014
336.98        109.6388
337.43        109.7915
337.88        109.9235
338.34        110.0693
338.79        110.3063
339.24        110.6444
339.69        111.1038
340.14        111.6141
340.59        112.0304
341.05        112.3274
341.50         112.547
341.95        112.7689
342.40        113.1464
342.85        113.7023
343.30         114.351
343.75        115.0173
344.20        115.5867
344.66        116.0274
345.11         116.386
345.56        116.6204
346.01        116.6567
346.46        116.5248
346.91        116.2603
347.36        116.0709
347.81        116.2734
348.26        116.9018
348.72        117.8277
349.17        118.8219
349.62        119.4224
350.07        119.4994
350.52        119.2112
350.97         118.735
351.42        118.3469
351.87        118.1486
352.32        118.0507
352.77        118.0848
353.22        118.3071
353.67        118.6828
354.13         119.179
354.58        119.6189
355.03        119.7046
355.48        119.3587
355.93        118.6466
356.38        117.7251
356.83        116.8468
357.28        116.0926
357.73        115.4199
358.18        114.7488
358.63        113.9463
359.08        112.9998
359.53        111.9786
359.98         111.009
360.43        110.2765
360.88        109.8075
361.33        109.5205
361.78        109.2682
362.23        108.8231
362.68        108.1266
363.13        107.2561
363.58        106.2986
364.03         105.393
364.48        104.5926
364.93        103.8546
365.38        103.1871
365.83        102.6095
366.28        102.1109
366.73        101.6857
367.18        101.2733
367.63        100.7671
368.08        100.1359
368.53        99.40232
368.98         98.6077
369.43          97.825
369.88        97.09634
370.33        96.42741
370.78        95.81494
371.23        95.25359
371.68        94.73709
372.13        94.24557
372.58        93.82257
373.03        93.53307
373.48        93.35316
373.93          93.241
374.38        93.02224
374.83         92.4264
375.28        91.44044
375.72        90.17243
376.17        88.92952
376.62        88.00312
377.07        87.45621
377.52        87.17149
377.97        87.06496
378.42        86.99937
378.87        86.89729
379.32        86.79044
379.77        86.59377
380.22        86.17393
380.67        85.51887
381.11        84.66093
381.56        83.73808
382.01        83.01264
382.46        82.57123
382.91        82.36237
383.36        82.26617
383.81        82.08557
384.26        81.75877
384.71        81.32579
385.15        80.86216
385.60        80.54318
386.05        80.37141
386.50         80.2913
386.95        80.16176
387.40        79.77761
387.85         79.1372
388.29        78.30289
388.74        77.56051
389.19        77.09058
389.64        76.91687
390.09        76.93153
390.54        77.03314
390.98        77.04024
391.43        76.92688
391.88        76.74327
392.33        76.44662
392.78        76.04636
393.23        75.58286
393.67        74.90253
394.12        74.19987
394.57        74.25105
395.02         74.0024
395.47        74.25431
395.91        74.55607
396.36         74.6556
396.81        74.48378
397.26        74.12952
397.71        73.70232
398.15        73.26348
398.60        72.93089
399.05        72.74508
399.50        72.64385
399.95        72.35545
400.39        71.73055
400.84        71.92393
401.29        72.65828
401.74        72.78345
402.18          72.194
402.63         71.4855
403.08        70.92739
403.53        70.65721
403.97        70.72641
404.42        71.06313
404.87        71.45753
405.32        71.52935
405.76        71.18786
406.21        70.72847
406.66        70.24496
407.11        69.63518
407.55        69.14937
408.00        69.23827
408.45        69.82294
408.90        70.53025
409.34         71.0295
409.79         70.7332
410.24        69.91428
410.68        69.68472
411.13        70.13169
411.58        70.60573
412.03          70.898
412.47         70.9684
412.92        70.72753
413.37        70.24667
413.81        69.66825
414.26        69.27542
414.71        69.10127
415.15        69.08464
415.60        69.16412
416.05        69.27766
416.49        69.39445
416.94        69.54384
417.39        69.67157
417.83         69.6652
418.28        69.52331
418.73        69.27248
419.17        69.03632
419.62        69.03467
420.07        69.27767
420.51        69.66181
420.96        70.07668
421.41        70.22896
421.85        70.03642
422.30        69.88776
422.74        69.73566
423.19        69.13355
423.64        68.31732
424.08        68.37071
424.53        69.20257
424.98        69.68275
425.42        69.70118
425.87        70.02055
426.31        70.51694
426.76        70.39154
427.21        69.59975
427.65        69.27666
428.10        69.40534
428.54        69.24995
428.99        68.89497
429.44        68.89706
429.88        69.21192
430.33        69.36629
430.77         69.3319
431.22        69.78952
431.66        70.55089
432.11         70.4779
432.56         69.7049
433.00        69.46057
433.45         69.9174
433.89        70.49094
434.34        70.66165
434.78        71.60231
435.23        69.87357
435.67        69.31382
436.12         69.1414
436.57        69.31874
437.01        69.73145
437.46        69.99114
437.90        70.08331
438.35        70.37048
438.79        70.80103
439.24        70.95538
439.68        70.83704
440.13        70.86821
440.57        71.13008
441.02        71.20398
441.46        71.00027
441.91        71.72562
442.35        71.76134
442.80        71.45657
443.24        71.26555
443.69        70.95347
444.13        70.82023
444.58        70.67107
445.02        70.50539
445.47        70.49474
445.91         70.6046
446.36        70.70429
446.80        70.74706
447.24        70.89336
447.69        70.94209
448.13        71.00436
448.58          71.039
449.02        71.03929
449.47        71.04449
449.91        71.08069
450.36        71.17142
450.80        71.29418
451.25         71.4316
451.69        71.51605
452.13         71.5397
452.58        71.55063
453.02        71.56841
453.47        71.58967
453.91        71.59041
454.36        71.78015
454.80        71.82401
455.24        71.81016
455.69        71.86309
456.13        71.94482
456.58        72.09186
457.02        71.62798
457.46        71.26265
457.91         70.9733
458.35        70.93388
458.79        70.85915
459.24        70.79498
459.68        70.92255
460.13         71.1787
460.57        71.16274
461.01        71.38703
461.46        70.89453
461.90        70.64974
462.34        70.84866
462.79        71.37708
463.23        71.24298
463.68        70.49615
464.12        70.16032
464.56        70.28016
465.01         70.3053
465.45        70.16347
465.89        70.15176
466.34        70.25184
466.78        70.32293
467.22          70.342
467.67        70.26063
468.11        70.10236
468.55        69.83997
468.99        69.54073
469.44        69.30186
469.88        69.14963
470.32        69.07529
470.77         69.0414
471.21        69.00862
471.65        68.94954
472.10         68.8926
472.54        68.84914
472.98        68.87119
473.42        68.95734
473.87        69.10284
474.31        69.23147
474.75        69.21698
475.20        69.05106
475.64        68.90784
476.08        68.86151
476.52        68.65353
476.97        68.24503
477.41         68.7935
477.85        68.35218
478.29        68.37108
478.74        68.58493
479.18        68.48364
479.62        68.23936
480.06        68.18488
480.50        68.36005
480.95        68.29062
481.39        69.04221
481.83        68.43116
482.27        68.91446
482.72        68.95085
483.16        68.86759
483.60        68.80263
484.04         69.0886
484.48        69.36607
484.93        69.47586
485.37        69.33497
485.81        68.83894
486.25        67.42864
486.69        68.08184
487.14        68.18513
487.58         67.8386
488.02         68.4173
488.46         68.7245
488.90        68.72788
489.34         68.0414
489.79        68.65342
490.23        67.87397
490.67        68.04532
491.11        68.26749
491.55        68.10271
491.99        67.63042
492.43        67.49968
492.88        67.75689
493.32        68.02758
493.76         68.2193
494.20        68.38364
494.64        68.49372
495.08        68.52255
495.52        68.48783
495.96        68.45244
496.41        68.44339
496.85        68.37498
497.29        68.27141
497.73        68.29801
498.17        68.60065
498.61         68.3317
499.05        67.69898
499.49        67.58532
499.93        67.93807
500.37        67.98647
500.82        67.72648
501.26        67.65291
501.70        67.75819
502.14          67.951
502.58        67.90063
503.02        67.97057
503.46        68.06281
503.90        68.15676
504.34        68.23563
504.78        68.27807
505.22        68.27321
505.66        68.23404
506.10        68.18161
506.54        68.12254
506.98        68.06079
507.42        68.17086
507.86        67.97537
508.30        68.08338
508.74        67.76192
509.18         67.5378
509.62        67.33035
510.06        67.31857
510.50        67.52438
510.94        67.89031
511.38        68.28288
511.82        68.46436
512.26        68.37513
512.70        68.08932
513.14         67.7264
513.58        67.47103
514.02         67.3804
514.46        67.40486
514.90        67.49107
515.34        67.55289
515.78         67.5607
516.22        67.54314
516.66        67.53252
517.10        67.57171
517.54        67.66504
517.98        67.78764
518.42        67.88807
518.86        67.89219
519.30        67.78825
519.74        67.60563
520.18        67.41106
520.62         67.3031
521.06        67.31095
521.50        67.41633
521.93        67.57104
522.37        67.67104
522.81        67.69514
523.25        67.65905
523.69        67.62267
524.13        67.68008
524.57        67.84167
525.01         68.0712
525.45        68.26848
525.89        68.27536
526.32         68.0566
526.76        67.69394
527.20        67.30911
527.64        67.09211
528.08        67.08652
528.52        67.23239
528.96        67.44093
529.40         67.5687
529.83        67.56829
530.27        67.49411
530.71        67.38405
531.15          67.304
531.59        67.27441
532.03        67.26579
532.46        67.25771
532.90        67.25137
533.34        67.23552
533.78        67.22288
534.22        67.20848
534.66        67.17904
535.09         67.1302
535.53        67.07937
535.97        67.03469
536.41         67.0332
536.85        67.07819
537.28        67.13721
537.72        67.18679
538.16        67.24687
538.60        67.20509
539.04        67.15714
539.47        67.06037
539.91        66.95824
540.35        66.84589
540.79        66.72395
541.22        66.61259
541.66        66.59523
542.10        66.60861
542.54        66.70181
542.97        66.81995
543.41        66.92747
543.85        67.00157
544.29        67.06212
544.72        67.09258
545.16        67.10545
545.60        67.10019
546.04        67.04145
546.47        66.96557
546.91         67.0387
547.35        67.22443
547.79        67.28474
548.22        67.18198
548.66        67.21497
549.10        67.39361
549.53        67.35839
549.97        67.00859
550.41        67.58005
550.84        67.05251
551.28        66.92814
551.72        66.63666
552.15        66.87299
552.59        66.78258
553.03         66.8624
553.46        66.85675
553.90        66.89561
554.34         66.9576
554.77        66.97395
555.21        66.97075
555.65        66.97924
556.08        66.98844
556.52        67.04657
556.96          67.153
557.39        67.14174
557.83         67.2807
558.27        67.41502
558.70        67.22414
559.14        67.31247
559.57        67.49237
560.01        67.64469
560.45        67.71712
560.88        67.45358
561.32        67.26653
561.75        67.20708
562.19        67.34483
562.63         67.1981
563.06        66.83655
563.50         66.8306
563.93        67.10925
564.37        67.22511
564.80        67.13786
565.24        67.10452
565.68        67.11908
566.11        67.14041
566.55        67.17426
566.98        67.06976
567.42        66.95432
567.85        67.02725
568.29        67.24148
568.72        67.47433
569.16        67.81734
569.60        67.17113
570.03        67.60361
570.47        67.55869
570.90        67.67751
571.34        67.15135
571.77        67.51701
572.21        67.58637
572.64         67.7485
573.08        67.67219
573.51        67.35143
573.95        67.69593
574.38        67.68533
574.82        67.52026
