SpectraSmart Spectrum 2.9.0.0
--------- Device Information -----------
Spectrum Name :  反射率_0
Saving Time :  2024/04/30 00:20:51
Spectro-Module Model Name : SE2030-DUVN
Spectro-Module Serial Number : OS361AC55029948
Wavelength Start : 200
Wavelength End : 1025
Wavelength Unit : Wavelength(nm)
Spectrum Unit : Reflectance(%)
-----------Spectrum Setting ------------
Integration Time : 20ms
Average : 10
Boxcar : 0
Background removal :  enabled
linearity correction :  enabled
SC :  disabled
Intensity correction :  disabled
DWT denoise :  enabled
savitzky-golay :  disabled
FFT :  disabled
Running average :  disabled
Kalman :  disabled
High pass :  disabled
---------------BEGIN--------------------
Wavelength(nm)             Reflectance(%)
200.29               0
200.75        69.40836
201.21        62.15234
201.67        54.81572
202.13        49.15512
202.58        46.20551
203.04        45.72141
203.50         48.5083
203.96         56.2938
204.42        68.12075
204.88        81.48915
205.34        91.13181
205.80        90.57749
206.26        81.99687
206.72         71.3565
207.18        61.04305
207.64        51.36778
208.10        41.81543
208.55        31.09167
209.01        22.21814
209.47        23.02496
209.93        33.42108
210.39        48.33469
210.85        60.94106
211.31        66.01259
211.77        63.48422
212.23        53.37405
212.69        37.12963
213.14        27.07485
213.60        30.80577
214.06        42.37122
214.52        53.44757
214.98         58.4879
215.44        58.23615
215.90        54.90234
216.36        51.11649
216.81        51.64255
217.27        58.94038
217.73        73.02368
218.19        91.60095
218.65         102.524
219.11        98.39986
219.57        84.93668
220.02        71.31147
220.48        63.15615
220.94        59.20221
221.40        57.40729
221.86        56.24182
222.32        53.19975
222.77         48.7527
223.23         45.6071
223.69        44.08918
224.15        44.04782
224.61        45.08975
225.06        46.71018
225.52        48.87423
225.98        50.73645
226.44        51.69639
226.90        52.10915
227.36        51.91985
227.81        50.99987
228.27        49.49129
228.73        47.28134
229.19        45.21937
229.65         45.1261
230.10        46.99523
230.56        49.72272
231.02        51.90155
231.48        52.33614
231.93        51.04338
232.39        48.61633
232.85        45.66312
233.31          43.433
233.77        42.48402
234.22        42.64479
234.68        43.54546
235.14        44.48634
235.60        45.20287
236.05        45.82206
236.51        46.84081
236.97        49.00565
237.43        52.63022
237.88        58.06637
238.34        64.45713
238.80        69.01247
239.26        69.64754
239.71        66.89888
240.17        62.80601
240.63         60.5992
241.08        61.38785
241.54        65.23325
242.00        73.62121
242.46        85.78714
242.91        97.48359
243.37        105.3328
243.83        108.5002
244.28        109.5829
244.74        109.8439
245.20        107.6477
245.66        103.9456
246.11        101.9042
246.57        102.9525
247.03        108.0528
247.48          113.74
247.94        111.5136
248.40        102.7199
248.85        92.61025
249.31        86.21546
249.77        85.19056
250.22        89.25906
250.68        98.69462
251.14        113.7752
251.59        123.7813
252.05        119.6264
252.51        109.4782
252.96        100.4344
253.42        95.22649
253.88        92.12717
254.33        89.60246
254.79        87.74709
255.25        86.70007
255.70        86.12214
256.16        86.17605
256.62        86.26642
257.07        85.89302
257.53        85.42881
257.99        84.66819
258.44        83.06424
258.90        80.87955
259.35        78.10468
259.81        75.57494
260.27        73.49182
260.72         72.0072
261.18        71.18766
261.63        70.48711
262.09         69.8009
262.55         68.6115
263.00        66.89857
263.46        65.15913
263.91        63.38852
264.37        61.93826
264.83        60.70643
265.28        59.51328
265.74        58.51492
266.19        57.70227
266.65        57.13303
267.11        56.73335
267.56         56.2899
268.02         55.5055
268.47        54.29114
268.93        52.74392
269.38        51.05283
269.84        49.69061
270.30        48.77781
270.75        48.17223
271.21         47.6801
271.66        46.94918
272.12        45.90643
272.57         44.6552
273.03        43.32561
273.48        42.03172
273.94        40.91794
274.39        39.90155
274.85        39.08136
275.31        38.50261
275.76        38.10913
276.22        37.89411
276.67        37.69287
277.13        37.37701
277.58        36.86381
278.04         36.2519
278.49        35.54977
278.95        34.88997
279.40        34.25547
279.86        33.68245
280.31        33.13416
280.77         32.6919
281.22         32.3106
281.68         32.0123
282.13        31.74544
282.59        31.49089
283.04        31.21622
283.50        30.94798
283.95        30.65526
284.41          30.316
284.86        29.93457
285.32        29.57078
285.77        29.26088
286.22        29.13769
286.68        29.21774
287.13        29.40095
287.59        29.64974
288.04        29.84008
288.50        29.94845
288.95        29.97665
289.41        29.92185
289.86        29.73049
290.32        29.45489
290.77        29.13276
291.22        28.87457
291.68        28.84519
292.13        29.08016
292.59        29.56407
293.04        30.27978
293.50        31.23164
293.95        32.39193
294.40        33.76748
294.86        35.24664
295.31         36.6645
295.77         37.9784
296.22        39.20761
296.68        40.48152
297.13        41.98807
297.58         43.7644
298.04        45.70516
298.49        47.66992
298.95        49.45615
299.40        51.00534
299.85        52.40343
300.31        53.74509
300.76        55.09118
301.21        56.52153
301.67         58.0448
302.12        59.65608
302.58        61.49663
303.03        63.52919
303.48        65.65548
303.94        67.81975
304.39         70.2025
304.84        72.22875
305.30        74.33684
305.75        76.29679
306.20        78.09085
306.66        79.72698
307.11        81.15199
307.57        82.46779
308.02        83.69852
308.47        84.91562
308.93         86.1333
309.38        87.30748
309.83        88.44419
310.29        89.54444
310.74        90.59533
311.19        91.58609
311.65        92.48331
312.10        93.26391
312.55        93.95295
313.00        94.62058
313.46        95.38039
313.91        96.23268
314.36        97.14592
314.82        98.02708
315.27         98.7562
315.72        99.27861
316.18        99.63781
316.63        99.87268
317.08        100.0597
317.53        100.2477
317.99        100.4522
318.44        100.6689
318.89        100.9051
319.35        101.1637
319.80        101.4419
320.25        101.8061
320.70        102.3574
321.16        103.0627
321.61        103.9221
322.06        104.7189
322.51        105.1207
322.97        105.0533
323.42        104.6306
323.87        104.0944
324.32        103.8563
324.78        104.0077
325.23        104.4998
325.68        105.1391
326.13        105.5927
326.59        105.7388
327.04        105.7147
327.49        105.6601
327.94        105.8503
328.39        106.3423
328.85        106.9806
329.30         107.666
329.75        108.0345
330.20        107.9965
330.66         107.671
331.11        107.2602
331.56         107.007
332.01         107.024
332.46         107.253
332.92        107.6485
333.37        108.2802
333.82        109.0654
334.27        109.9964
334.72        110.9722
335.17        111.8216
335.63        112.4525
336.08        112.9317
336.53        113.2545
336.98        113.5089
337.43        113.7309
337.88        113.8979
338.34        114.0333
338.79        114.1959
339.24         114.401
339.69        114.6795
340.14        114.9888
340.59        115.2349
341.05        115.4166
341.50        115.5706
341.95        115.7827
342.40        116.2114
342.85        116.8636
343.30        117.6343
343.75        118.4152
344.20        119.0366
344.66         119.456
345.11        119.7519
345.56        119.8745
346.01         119.743
346.46        119.4089
346.91         118.912
347.36         118.566
347.81        118.8454
348.26        119.7953
348.72         121.236
349.17        122.7594
349.62        123.5951
350.07        123.5377
350.52        122.8375
350.97        121.8644
351.42        121.1912
351.87         120.995
352.32        121.1051
352.77        121.4181
353.22        121.7715
353.67        122.0711
354.13        122.3524
354.58        122.5587
355.03        122.5764
355.48        122.3657
355.93        121.9211
356.38        121.2631
356.83        120.4472
357.28        119.5189
357.73        118.5065
358.18        117.4658
358.63        116.4718
359.08        115.5568
359.53        114.7168
359.98        113.9651
360.43        113.3069
360.88        112.7292
361.33        112.2275
361.78        111.7275
362.23        111.1119
362.68        110.3575
363.13        109.4888
363.58        108.5972
364.03        107.8353
364.48        107.2333
364.93        106.7415
365.38        106.2707
365.83        105.6796
366.28        104.9399
366.73        104.1099
367.18        103.2579
367.63        102.4858
368.08        101.8155
368.53        101.2012
368.98        100.6241
369.43        100.0529
369.88        99.48138
370.33        98.94994
370.78        98.40974
371.23        97.78159
371.68        97.05733
372.13        96.22684
372.58        95.44912
373.03        94.98447
373.48         94.8504
373.93        94.95789
374.38        95.00222
374.83        94.48618
375.28        93.34824
375.72        91.78176
376.17         90.2177
376.62        89.12315
377.07        88.59973
377.52        88.46254
377.97        88.56633
378.42        88.67487
378.87        88.66979
379.32        88.61551
379.77        88.42674
380.22        87.96872
380.67        87.23593
381.11        86.24993
381.56         85.1852
382.01        84.37252
382.46        83.91326
382.91        83.74605
383.36        83.69684
383.81        83.47752
384.26        83.01735
384.71        82.39629
385.15        81.75748
385.60        81.38156
386.05        81.29047
386.50         81.3791
386.95        81.45625
387.40        81.24207
387.85        80.69718
388.29        79.89455
388.74        79.11623
389.19        78.53177
389.64        78.17694
390.09        77.95998
390.54        77.80542
390.98        77.59173
391.43         77.3229
391.88          77.016
392.33        76.65625
392.78        76.33077
393.23        76.04108
393.67        75.51585
394.12        74.89474
394.57        74.96407
395.02        74.64576
395.47        74.70646
395.91        74.77876
396.36        74.79433
396.81        74.72636
397.26        74.60733
397.71        74.42503
398.15        74.10914
398.60        73.76402
399.05        73.34822
399.50        72.93242
399.95        72.76672
400.39        72.57951
400.84        72.68718
401.29        72.87819
401.74        72.91146
402.18        72.68922
402.63        72.13252
403.08        71.44419
403.53         71.0606
403.97        71.03584
404.42        71.15853
404.87        71.32155
405.32        71.37596
405.76        71.24997
406.21        71.14278
406.66        71.03416
407.11        70.63338
407.55        70.11639
408.00        70.05512
408.45         70.4173
408.90        70.66334
409.34        70.66917
409.79        70.50203
410.24        70.27626
410.68        70.26701
411.13        70.49864
411.58        70.77214
412.03         70.9878
412.47        71.08482
412.92        71.00005
413.37        70.78111
413.81        70.47264
414.26        70.22729
414.71        70.05025
415.15        69.91886
415.60        69.82427
416.05        69.79889
416.49        69.84693
416.94        69.96938
417.39        70.09767
417.83        70.09735
418.28        69.95634
418.73         69.7145
419.17        69.48978
419.62        69.48685
420.07        69.71472
420.51        70.07243
420.96        70.45998
421.41        70.60301
421.85        70.42426
422.30        70.30683
422.74        70.19772
423.19        69.64218
423.64        68.86806
424.08        68.96377
424.53         69.8492
424.98        70.33692
425.42        70.29153
425.87        70.65945
426.31        71.35048
426.76        70.85661
427.21        70.03613
427.65        69.99854
428.10         70.7781
428.54        70.62888
428.99        69.72784
429.44        69.48815
429.88        69.87626
430.33        70.07215
430.77        70.00457
431.22        70.21143
431.66         70.6155
432.11        70.68669
432.56        70.44526
433.00        70.31039
433.45        70.51909
433.89        70.67155
434.34        71.48951
434.78        72.58463
435.23        70.94186
435.67        70.44228
436.12        70.31639
436.57         70.4252
437.01        70.68574
437.46        70.84968
437.90        70.92525
438.35        71.22278
438.79        71.68401
439.24        71.90102
439.68        71.89011
440.13        72.01025
440.57        72.27644
441.02        72.43633
441.46         72.4433
441.91         72.5687
442.35        72.65623
442.80        72.52438
443.24        72.18398
443.69        71.97188
444.13        71.92107
444.58        71.86864
445.02        71.77271
445.47        71.84256
445.91        72.06481
446.36        72.18539
446.80        72.12703
447.24        72.68414
447.69        72.52714
448.13        72.64597
448.58         72.6668
449.02        72.60947
449.47        72.53231
449.91        72.51788
450.36        72.61089
450.80        72.76308
451.25        72.93522
451.69        73.02608
452.13        73.01821
452.58        72.96508
453.02        72.91207
453.47        72.91551
453.91        72.97038
454.36        73.23898
454.80        73.31848
455.24        73.44475
455.69          73.493
456.13        73.42464
456.58        73.28545
457.02        73.12137
457.46        72.97075
457.91        72.82605
458.35        72.68027
458.79        72.59281
459.24         72.5883
459.68        72.67348
460.13        72.85188
460.57        72.76534
461.01        72.92142
461.46        72.81723
461.90        72.64114
462.34        72.68776
462.79        72.84353
463.23        72.63032
463.68        72.11244
464.12        71.83581
464.56        71.85802
465.01        71.81277
465.45        71.66467
465.89        71.84531
466.34        72.24627
466.78        72.26073
467.22         72.0244
467.67        71.80686
468.11        71.70733
468.55        71.43649
468.99        71.06784
469.44        70.82447
469.88        70.73621
470.32        70.76932
470.77        70.85099
471.21        70.88113
471.65        70.81431
472.10        70.69414
472.54         70.5869
472.98        70.60332
473.42        70.74362
473.87        71.06079
474.31        71.39797
474.75        71.29499
475.20        70.85046
475.64         70.7439
476.08        70.98141
476.52        70.85725
476.97        70.33595
477.41         70.3932
477.85        70.13239
478.29        69.86201
478.74         70.9558
479.18        70.83202
479.62        70.16425
480.06        69.97721
480.50        70.33461
480.95         70.4362
481.39        70.85046
481.83        70.41531
482.27        71.08015
482.72        70.78595
483.16        71.04871
483.60        71.03541
484.04        71.04893
484.48        71.06328
484.93        71.08117
485.37        70.86058
485.81        70.55637
486.25        69.99535
486.69         71.1275
487.14         70.3516
487.58         69.7701
488.02        70.13799
488.46        70.77435
488.90        70.74564
489.34        70.27697
489.79        70.86942
490.23        70.25014
490.67        70.30383
491.11        70.27513
491.55        70.01863
491.99         69.6166
492.43        69.48211
492.88        69.66147
493.32        69.95854
493.76        70.26411
494.20        70.49377
494.64        70.59507
495.08         70.6056
495.52        70.55031
495.96        70.42514
496.41         70.3303
496.85        70.40371
497.29        70.49385
497.73        70.74766
498.17        70.32144
498.61        69.85921
499.05        69.34666
499.49         69.4772
499.93        70.07874
500.37        70.20599
500.82        69.89084
501.26        69.72386
501.70        69.93394
502.14        70.33211
502.58        70.05901
503.02        70.08545
503.46        70.14996
503.90         70.2043
504.34        70.24107
504.78        70.28164
505.22        70.32636
505.66        70.36362
506.10        70.38316
506.54        70.39882
506.98        70.41437
507.42        70.44833
507.86        70.14597
508.30        70.39962
508.74         69.8459
509.18        69.55386
509.62        69.26405
510.06        69.20546
510.50        69.40164
510.94        69.79939
511.38        70.24567
511.82        70.44656
512.26        70.33497
512.70        70.00383
513.14        69.60233
513.58        69.36282
514.02        69.35107
514.46        69.49364
514.90        69.71609
515.34         69.8997
515.78         69.9962
516.22        70.03915
516.66        70.04904
517.10        70.05129
517.54        70.05497
517.98        70.04711
518.42        70.00548
518.86        69.90454
519.30        69.74928
519.74        69.55942
520.18        69.39491
520.62        69.33871
521.06        69.41087
521.50        69.59767
521.93        69.83238
522.37        69.97945
522.81        70.01105
523.25        69.94574
523.69        69.87154
524.13        69.93062
524.57        70.14151
525.01          70.453
525.45        70.73194
525.89        70.76508
526.32        70.50571
526.76        70.05885
527.20        69.57732
527.64        69.29745
528.08        69.27557
528.52        69.43606
528.96        69.67768
529.40        69.83756
529.83        69.85914
530.27        69.80315
530.71        69.70322
531.15        69.61792
531.59        69.56778
532.03        69.52435
532.46        69.47687
532.90        69.44415
533.34        69.42056
533.78        69.41748
534.22        69.42229
534.66         69.4091
535.09        69.36897
535.53        69.31995
535.97        69.28115
536.41        69.30122
536.85        69.38219
537.28        69.49744
537.72        69.60146
538.16        69.61714
538.60        69.52848
539.04        69.36752
539.47        69.15871
539.91        68.99564
540.35        68.88604
540.79        68.82433
541.22        68.80228
541.66        68.81726
542.10        68.85941
542.54        68.93549
542.97        69.03469
543.41        69.15845
543.85        69.28983
544.29        69.43234
544.72         69.5372
545.16        69.57186
545.60        69.52749
546.04        69.38628
546.47        69.21951
546.91        69.25026
547.35         69.4567
547.79        69.58038
548.22        69.55734
548.66        69.65945
549.10        69.88562
549.53        69.87029
549.97        69.52856
550.41        70.16769
550.84        69.69188
551.28          69.666
551.72        69.45764
552.15        69.68516
552.59        69.48116
553.03         69.4549
553.46        69.37489
553.90        69.33434
554.34        69.32098
554.77        69.34692
555.21        69.39701
555.65        69.32848
556.08        69.17955
556.52        69.21348
556.96        69.40751
557.39        69.57455
557.83        69.68321
558.27         69.8299
558.70        69.78962
559.14         69.9266
559.57        70.11008
560.01        70.16832
560.45        70.10115
560.88        69.89905
561.32         69.9111
561.75        69.74798
562.19        69.55277
562.63        69.33946
563.06        69.17679
563.50         69.2834
563.93        69.56259
564.37        69.72343
564.80        69.71078
565.24        69.70144
565.68        69.70366
566.11        69.71153
566.55        69.73277
566.98        69.66322
567.42        69.60719
567.85        69.58103
568.29         69.5805
568.72        69.85643
569.16        70.48498
569.60        69.85531
570.03        70.07347
570.47        70.48145
570.90         70.2448
571.34        69.93857
571.77        70.22012
572.21        70.26662
572.64        70.31845
573.08        70.27548
573.51        70.20551
573.95        70.12613
574.38        70.50459
574.82        70.31193
