SpectraSmart Spectrum 2.9.0.0
--------- Device Information -----------
Spectrum Name :  反射率_0
Saving Time :  2024/04/30 00:35:30
Spectro-Module Model Name : SE2030-DUVN
Spectro-Module Serial Number : OS361AC55029948
Wavelength Start : 200
Wavelength End : 1025
Wavelength Unit : Wavelength(nm)
Spectrum Unit : Reflectance(%)
-----------Spectrum Setting ------------
Integration Time : 20ms
Average : 10
Boxcar : 0
Background removal :  enabled
linearity correction :  enabled
SC :  disabled
Intensity correction :  disabled
DWT denoise :  enabled
savitzky-golay :  disabled
FFT :  disabled
Running average :  disabled
Kalman :  disabled
High pass :  disabled
---------------BEGIN--------------------
Wavelength(nm)             Reflectance(%)
200.29               0
200.75        74.26007
201.21        55.81476
201.67        36.66566
202.13        25.81123
202.58        27.29828
203.04        39.62276
203.50        59.72549
203.96        79.85376
204.42        93.93573
204.88        101.2699
205.34        99.43369
205.80        88.17014
206.26        72.69463
206.72        57.55496
207.18        44.59346
207.64        33.44059
208.10         23.0345
208.55        12.24463
209.01        3.816371
209.47        4.809871
209.93        15.07705
210.39        29.82888
210.85        42.66495
211.31        49.00554
211.77        49.13281
212.23        43.37334
212.69        33.48928
213.14        29.52908
213.60         35.8991
214.06        47.07798
214.52         56.2974
214.98        59.30341
215.44        57.07912
215.90        51.58801
216.36        45.58652
216.81        44.24584
217.27        50.32882
217.73        63.88163
218.19        83.50006
218.65        98.22935
219.11        99.58783
219.57        91.19582
220.02        80.73138
220.48        73.81274
220.94        69.60242
221.40        66.07797
221.86         61.5669
222.32        54.86338
222.77        48.10667
223.23         43.9437
223.69        42.04409
224.15        41.48773
224.61        41.72612
225.06        42.49232
225.52        43.87646
225.98        45.40342
226.44        46.56298
226.90        47.32528
227.36        47.61211
227.81        47.41708
228.27        46.87904
228.73        45.96199
229.19        45.10636
229.65        45.19526
230.10        46.23447
230.56        47.74958
231.02        49.01206
231.48        49.45139
231.93        49.03878
232.39        48.03797
232.85        46.83092
233.31         46.2001
233.77        46.40753
234.22         47.4096
234.68        48.51039
235.14        48.49065
235.60        47.16054
236.05        44.96191
236.51        43.15715
236.97        43.37965
237.43        46.07016
237.88         51.4097
238.34        58.43815
238.80        63.74008
239.26        64.74401
239.71        62.05294
240.17        57.72433
240.63        55.03511
241.08        54.97869
241.54        57.21119
242.00        62.49806
242.46        69.79663
242.91        76.10233
243.37         79.9236
243.83        81.22622
244.28        81.60437
244.74        81.67822
245.20         80.3598
245.66         78.4028
246.11        78.10995
246.57        80.59243
247.03        86.55506
247.48        92.98605
247.94        92.44773
248.40        85.77528
248.85        77.25241
249.31        71.89441
249.77        71.84393
250.22        77.10526
250.68        88.59892
251.14        106.0965
251.59        115.6055
252.05         107.582
252.51        93.28366
252.96        82.14182
253.42        77.33338
253.88        76.58471
254.33         77.8351
254.79        80.06625
255.25        80.75344
255.70        79.31527
256.16        77.64917
256.62        76.25075
257.07        75.25423
257.53        74.93003
257.99        74.76066
258.44        74.25392
258.90        73.60906
259.35        72.47935
259.81        71.43172
260.27        70.45824
260.72        69.56783
261.18        68.92618
261.63        68.14601
262.09        67.25331
262.55        65.90562
263.00         64.1324
263.46        62.38054
263.91        60.64035
264.37        59.23451
264.83        58.06522
265.28        56.97645
265.74        56.11416
266.19        55.45372
266.65        55.04005
267.11        54.78659
267.56        54.49823
268.02        53.91374
268.47        52.93976
268.93        51.65124
269.38         50.1801
269.84        48.89467
270.30        47.90983
270.75        47.15595
271.21         46.4925
271.66        45.64674
272.12        44.56463
272.57        43.29192
273.03        42.03018
273.48        41.00158
273.94        40.31788
274.39        39.85146
274.85        39.44753
275.31        38.79568
275.76        37.84562
276.22        36.75677
276.67        35.70866
277.13        35.06689
277.58        34.81535
278.04        34.84489
278.49        34.89261
278.95        34.70063
279.40         34.1638
279.86        33.46096
280.31          32.665
280.77        32.01302
281.22         31.5234
281.68         31.1634
282.13        30.88862
282.59        30.70293
283.04         30.5574
283.50        30.45793
283.95        30.33755
284.41        30.10788
284.86        29.75051
285.32         29.3484
285.77        28.91824
286.22        28.56406
286.68        28.32691
287.13        28.13995
287.59          28.061
288.04        28.11482
288.50        28.29777
288.95        28.55049
289.41        28.78344
289.86        28.81661
290.32        28.65664
290.77        28.36994
291.22         28.0616
291.68         27.8952
292.13        27.92233
292.59        28.12994
293.04        28.55066
293.50        29.26198
293.95        30.25167
294.40         31.5123
294.86        32.89462
295.31        34.16805
295.77        35.27231
296.22        36.24514
296.68        37.24396
297.13        38.50217
297.58        40.06793
298.04        41.82055
298.49        43.59376
298.95        45.14368
299.40        46.40689
299.85        47.48411
300.31        48.50011
300.76        49.56599
301.21        50.76678
301.67        52.08758
302.12        53.49464
302.58        55.08381
303.03        56.81609
303.48        58.59915
303.94        60.39074
304.39        62.48087
304.84        64.17403
305.30        66.01372
305.75        67.75043
306.20        69.39229
306.66        70.94751
307.11        72.36953
307.57        73.73186
308.02        75.02547
308.47        76.31242
308.93        77.61795
309.38         78.9189
309.83        80.24998
310.29        81.60677
310.74        82.94691
311.19        84.24371
311.65        85.44574
312.10        86.51748
312.55        87.48675
313.00         88.3792
313.46        89.24285
313.91        90.07601
314.36        90.86578
314.82         91.6132
315.27        92.34949
315.72        93.05292
316.18        93.72857
316.63        94.30285
317.08        94.66762
317.53        94.83186
317.99        94.86957
318.44        94.89117
318.89        95.08487
319.35        95.49734
319.80        96.06538
320.25        96.75632
320.70        97.51521
321.16        98.26368
321.61        99.04405
322.06         99.7121
322.51        100.0551
322.97        100.0338
323.42        99.72197
323.87        99.29924
324.32        99.08246
324.78        99.14424
325.23        99.47279
325.68        99.93956
326.13        100.3137
326.59        100.5098
327.04        100.6392
327.49        100.7891
327.94        101.1485
328.39        101.7462
328.85        102.4406
329.30         103.178
329.75        103.6825
330.20        103.8751
330.66        103.8395
331.11        103.6797
331.56        103.4913
332.01        103.3616
332.46        103.2821
332.92        103.3269
333.37        103.7687
333.82        104.5868
334.27        105.7082
334.72        106.9428
335.17        107.9611
335.63        108.6181
336.08        109.0408
336.53        109.2325
336.98        109.2912
337.43        109.2873
337.88        109.1984
338.34        109.1537
338.79        109.3831
339.24        109.9243
339.69        110.7551
340.14        111.6831
340.59         112.356
341.05        112.6892
341.50        112.7759
341.95         112.807
342.40        113.1173
342.85        113.7725
343.30        114.6294
343.75        115.5164
344.20        116.1642
344.66        116.5123
345.11        116.6785
345.56        116.7108
346.01        116.6727
346.46        116.6286
346.91        116.5537
347.36        116.6143
347.81        117.0732
348.26        117.9347
348.72        119.0852
349.17         120.254
349.62        120.9031
350.07        120.9024
350.52        120.4468
350.97        119.7937
351.42        119.3431
351.87        119.2306
352.32        119.3297
352.77        119.6428
353.22        120.1761
353.67         120.852
354.13        121.6252
354.58        122.2772
355.03        122.4436
355.48        122.0425
355.93        121.1814
356.38         120.034
356.83        118.8842
357.28        117.8487
357.73        116.8846
358.18        116.0237
358.63        115.2995
359.08        114.7048
359.53        114.2474
359.98        113.8554
360.43        113.3926
360.88        112.8244
361.33        112.1806
361.78         111.497
362.23        110.8447
362.68        110.2457
363.13        109.6672
363.58         109.118
364.03        108.6154
364.48        108.1475
364.93        107.7056
365.38        107.2352
365.83        106.6495
366.28        105.9385
366.73        105.1363
367.18        104.3036
367.63        103.5336
368.08        102.8519
368.53        102.2348
368.98        101.6658
369.43        101.1095
369.88        100.5637
370.33        100.0634
370.78        99.59332
371.23        99.12949
371.68        98.66228
372.13        98.15698
372.58        97.68929
373.03        97.38874
373.48        97.24726
373.93        97.21591
374.38        97.07524
374.83        96.47611
375.28        95.39308
375.72        93.96198
376.17        92.56393
376.62        91.58819
377.07        91.11636
377.52        91.00665
377.97        91.09767
378.42        91.12324
378.87        90.97811
379.32        90.73306
379.77        90.39944
380.22        89.98953
380.67        89.51295
381.11        88.94685
381.56        88.32329
382.01        87.73376
382.46        87.22162
382.91         86.7968
383.36        86.43189
383.81        86.06461
384.26        85.67905
384.71        85.28889
385.15        84.92396
385.60        84.69015
386.05        84.56864
386.50        84.51658
386.95         84.4459
387.40           84.23
387.85        83.85747
388.29        83.33649
388.74        82.85365
389.19        82.44718
389.64        82.13267
390.09        81.86263
390.54        81.64407
390.98        81.47363
391.43        81.37268
391.88        81.30661
392.33        81.18933
392.78        80.88002
393.23        80.67465
393.67        79.89671
394.12        78.89353
394.57         78.7464
395.02        78.36057
395.47        78.42737
395.91        78.51842
396.36        78.53945
396.81        78.44035
397.26          78.267
397.71        78.04919
398.15        77.73414
398.60         77.4203
399.05        77.14754
399.50        76.91804
399.95        76.63165
400.39        76.10979
400.84        76.34332
401.29        77.03173
401.74        77.14375
402.18        76.57226
402.63        75.82928
403.08         75.2207
403.53        74.97695
403.97        75.16294
404.42        75.68581
404.87        76.26335
405.32         76.4226
405.76        76.04724
406.21        75.39039
406.66        74.66367
407.11        74.06602
407.55        73.80113
408.00        74.03902
408.45        74.61732
408.90        75.07761
409.34        75.20782
409.79        74.87308
410.24        74.33024
410.68        74.23782
411.13        74.66847
411.58         75.2691
412.03        75.80088
412.47        76.00117
412.92        75.74928
413.37        75.18178
413.81         74.4801
414.26        73.98721
414.71        73.75356
415.15        73.70133
415.60        73.75069
416.05        73.81595
416.49        73.86324
416.94        73.93407
417.39        74.00116
417.83        73.99175
418.28        73.91055
418.73        73.76535
419.17        73.64758
419.62        73.73987
420.07        74.04556
420.51        74.44371
420.96        74.83994
421.41        75.06239
421.85        74.99705
422.30        74.78751
422.74        74.45007
423.19          73.916
423.64        73.36066
424.08        73.44513
424.53         74.0567
424.98        74.36722
425.42        74.27575
425.87        74.39505
426.31         74.6712
426.76        74.37157
427.21        73.51566
427.65        73.53919
428.10        74.22417
428.54        74.12331
428.99        73.36246
429.44         73.0666
429.88        73.29546
430.33         73.5057
430.77        73.60637
431.22        74.11164
431.66        74.81714
432.11        74.69937
432.56        73.89725
433.00        73.63908
433.45        74.10178
433.89        74.53073
434.34        74.49832
434.78        75.62835
435.23        74.37147
435.67        73.75497
436.12        73.12395
436.57        73.14321
437.01        73.67268
437.46         74.4491
437.90        74.29367
438.35        74.63375
438.79        75.34524
439.24        75.57241
439.68        75.41911
440.13        75.34877
440.57        75.44574
441.02        75.45655
441.46        75.35316
441.91        75.45724
442.35        75.72491
442.80        75.35326
443.24        76.13966
443.69        75.79841
444.13        75.06832
444.58        74.77099
445.02        74.87955
445.47        75.07565
445.91        75.29472
446.36        75.31613
446.80        75.01079
447.24        75.95471
447.69        75.41505
448.13        75.51036
448.58        75.45895
449.02        75.32339
449.47        75.18671
449.91        75.19001
450.36        75.39286
450.80        75.71085
451.25        76.05494
451.69        76.23583
452.13        76.21454
452.58        76.08736
453.02        75.95144
453.47        75.84094
453.91        75.74514
454.36        76.01688
454.80        76.30881
455.24        75.93441
455.69        76.35178
456.13        76.36856
456.58        76.40587
457.02        76.09494
457.46        75.56817
457.91        75.29547
458.35        75.24802
458.79        75.17381
459.24        75.11175
459.68        75.19908
460.13        75.37608
460.57        75.56654
461.01        75.49355
461.46        75.28754
461.90        74.98415
462.34        75.08379
462.79        75.45385
463.23        75.42099
463.68        74.98152
464.12        74.69481
464.56         74.5989
465.01        74.34819
465.45        73.98375
465.89        73.92738
466.34        74.13963
466.78        74.38235
467.22        74.53207
467.67        74.40027
468.11        74.05929
468.55        73.83475
468.99        73.76862
469.44        73.59846
469.88        73.34161
470.32         73.2182
470.77        73.19281
471.21        73.11742
471.65        72.96767
472.10        72.81298
472.54        72.70757
472.98        72.74335
473.42        72.91576
473.87        73.26192
474.31        73.64122
474.75        73.65364
475.20         73.3615
475.64        73.36485
476.08         73.6574
476.52        73.48771
476.97        72.79691
477.41         72.9317
477.85        72.40867
478.29        71.94463
478.74        72.72868
479.18        72.62699
479.62        72.20669
480.06        72.13566
480.50        72.45845
480.95        72.35285
481.39         72.9297
481.83        72.44223
482.27        72.90623
482.72        72.92131
483.16        72.92592
483.60        72.97503
484.04        73.03558
484.48        73.19497
484.93        73.33037
485.37        73.10253
485.81        72.05277
486.25        71.81344
486.69        73.38956
487.14        72.93861
487.58        71.50758
488.02         72.5481
488.46        72.61954
488.90        72.28664
489.34        72.19495
489.79        73.10047
490.23        71.83225
490.67         71.9305
491.11        72.23821
491.55        72.05326
491.99        71.45367
492.43        71.27809
492.88        71.59254
493.32        71.98118
493.76        72.31821
494.20        72.56506
494.64        72.66776
495.08        72.68188
495.52        72.60777
495.96        72.38484
496.41        72.11967
496.85        71.98056
497.29        71.90666
497.73        72.14391
498.17        71.81431
498.61        71.61697
499.05        71.37433
499.49        71.28889
499.93        71.34454
500.37        71.35876
500.82        71.33322
501.26        71.39406
501.70        71.53125
502.14        71.66126
502.58        71.77351
503.02        71.88708
503.46        71.99683
503.90        72.09502
504.34        72.16844
504.78        72.19874
505.22        72.17149
505.66        72.10516
506.10        72.02995
506.54        71.96785
506.98        71.91016
507.42         72.1636
507.86        71.75069
508.30        72.07281
508.74        71.54531
509.18        71.26319
509.62        70.95657
510.06        70.87502
510.50        71.05425
510.94        71.43381
511.38        71.86723
511.82        72.07246
512.26        71.98342
512.70        71.68348
513.14        71.32787
513.58         71.1582
514.02        71.23398
514.46        71.47678
514.90        71.77057
515.34        71.92935
515.78        71.89856
516.22        71.73989
516.66         71.5379
517.10        71.41861
517.54        71.41553
517.98        71.48447
518.42        71.56172
518.86        71.55126
519.30        71.43178
519.74        71.24316
520.18        71.05021
520.62        70.94344
521.06         70.9507
521.50        71.05389
521.93        71.20415
522.37        71.29829
522.81        71.31761
523.25        71.27953
523.69        71.26024
524.13        71.35452
524.57        71.56754
525.01        71.90206
525.45        72.24991
525.89        72.19008
526.32        72.07184
526.76        71.67282
527.20        71.24103
527.64        70.97223
528.08        70.92064
528.52        71.01877
528.96        71.18439
529.40        71.29511
529.83        71.30299
530.27        71.25722
530.71        71.17698
531.15        71.09669
531.59        71.03063
532.03        70.96161
532.46        70.88337
532.90        70.82153
533.34        70.77464
533.78        70.75041
534.22        70.74544
534.66         70.7483
535.09        70.75086
535.53         70.7683
535.97        70.79907
536.41        70.85894
536.85        70.94125
537.28        71.02386
537.72        71.08749
538.16        71.09766
538.60         71.0461
539.04        70.95341
539.47        70.80672
539.91        70.64344
540.35         70.4642
540.79        70.28523
541.22        70.14621
541.66        70.12087
542.10        70.21344
542.54        70.40012
542.97        70.62375
543.41        70.81535
543.85        70.93739
544.29        71.01702
544.72        71.02576
545.16        70.96126
545.60        70.83031
546.04        70.61405
546.47        70.38977
546.91        70.38183
547.35        70.57397
547.79        70.72565
548.22        70.76149
548.66        70.91885
549.10        71.18771
549.53        71.21002
549.97        70.88784
550.41        71.52837
550.84        70.99331
551.28        70.89902
551.72        70.62336
552.15        70.80128
552.59        70.56464
553.03        70.62473
553.46        70.69754
553.90        70.73801
554.34        70.71765
554.77        70.71761
555.21        70.67728
555.65        70.67411
556.08          70.686
556.52        70.72039
556.96        70.76841
557.39        70.91158
557.83        71.12242
558.27        71.18681
558.70        71.14562
559.14        71.23911
559.57        71.40909
560.01        71.53609
560.45        71.57422
560.88        71.24305
561.32        70.99711
561.75        70.90283
562.19        71.04298
562.63        70.97795
563.06        70.72617
563.50        70.68745
563.93        70.81557
564.37         70.8643
564.80        70.80581
565.24        70.78167
565.68        70.77552
566.11        70.80328
566.55         70.8755
566.98        70.76809
567.42        70.62516
567.85        70.79368
568.29        71.16763
568.72        71.30824
569.16        71.59641
569.60        70.81792
570.03        71.20476
570.47        71.50871
570.90        71.57742
571.34        70.92148
571.77        71.41967
572.21        71.39465
572.64        71.39751
573.08        71.32605
573.51        71.31736
573.95        71.16346
574.38        71.82418
574.82        71.73811
