SpectraSmart Spectrum 2.9.0.0
--------- Device Information -----------
Spectrum Name :  反射率_0
Saving Time :  2024/04/30 00:23:23
Spectro-Module Model Name : SE2030-DUVN
Spectro-Module Serial Number : OS361AC55029948
Wavelength Start : 200
Wavelength End : 1025
Wavelength Unit : Wavelength(nm)
Spectrum Unit : Reflectance(%)
-----------Spectrum Setting ------------
Integration Time : 20ms
Average : 10
Boxcar : 0
Background removal :  enabled
linearity correction :  enabled
SC :  disabled
Intensity correction :  disabled
DWT denoise :  enabled
savitzky-golay :  disabled
FFT :  disabled
Running average :  disabled
Kalman :  disabled
High pass :  disabled
---------------BEGIN--------------------
Wavelength(nm)             Reflectance(%)
200.29               0
200.75        74.01537
201.21         65.0309
201.67        55.96685
202.13        47.15568
202.58        39.04183
203.04        31.55342
203.50        25.95328
203.96        25.31854
204.42        30.53234
204.88        40.45405
205.34        51.58511
205.80        58.13923
206.26        59.23323
206.72        57.53962
207.18        54.71007
207.64        51.69985
208.10        48.65271
208.55        45.16006
209.01        42.08231
209.47        42.16249
209.93        45.53616
210.39        50.63539
210.85        55.19592
211.31        57.60279
211.77        57.86023
212.23        55.87174
212.69        52.23379
213.14         50.6818
213.60        52.46217
214.06        56.38328
214.52        59.20002
214.98        58.39809
215.44        54.46772
215.90        48.27346
216.36        42.52069
216.81        42.61802
217.27         51.4049
217.73        69.52245
218.19        94.79318
218.65        112.1498
219.11        111.2032
219.57        97.70147
220.02        82.56919
220.48        73.39709
220.94          68.935
221.40        66.26085
221.86        63.69149
222.32         59.0979
222.77        53.44137
223.23        49.90286
223.69        47.66102
224.15        45.21804
224.61         42.1698
225.06        38.19317
225.52        34.93458
225.98        35.80173
226.44          40.502
226.90        46.35351
227.36         50.8642
227.81        52.51764
228.27        51.72069
228.73        49.06065
229.19        45.50418
229.65        43.32148
230.10         43.2262
230.56        44.26165
231.02        45.29718
231.48        45.30946
231.93        44.19445
232.39        42.46487
232.85        40.54891
233.31        39.29056
233.77         39.0486
234.22        39.67952
234.68        40.82245
235.14        41.82504
235.60        42.47518
236.05        42.92134
236.51        43.66553
236.97        45.45934
237.43        48.63472
237.88        53.49886
238.34        59.53056
238.80        64.74334
239.26        67.27821
239.71        67.23051
240.17        65.73201
240.63        65.11398
241.08        66.38358
241.54        69.57021
242.00         75.6683
242.46        83.94316
242.91        91.42102
243.37        95.78175
243.83        97.50478
244.28        99.34452
244.74        102.2444
245.20        105.2267
245.66        107.9364
246.11        109.5857
246.57        109.7003
247.03        109.9673
247.48        109.1985
247.94        104.8519
248.40        98.85773
248.85        92.58091
249.31        89.63432
249.77        91.51322
250.22        98.45023
250.68        112.2422
251.14        131.2873
251.59        136.6056
252.05        119.7192
252.51         97.3504
252.96        81.86231
253.42         76.4391
253.88        77.67855
254.33        83.04614
254.79        90.12455
255.25        93.10709
255.70        90.84518
256.16        87.08744
256.62        83.96595
257.07        82.70473
257.53        83.38409
257.99        84.88964
258.44        85.88993
258.90        85.52856
259.35        83.50641
259.81          81.152
260.27        79.11765
260.72        77.93845
261.18         77.6987
261.63        77.65857
262.09        77.44627
262.55        76.18253
263.00        73.90408
263.46        71.37511
263.91        68.91375
264.37        67.26782
264.83        66.32387
265.28        65.73679
265.74        65.39594
266.19        64.87276
266.65        64.15455
267.11        63.30326
267.56        62.34537
268.02        61.32932
268.47        60.21827
268.93        58.99837
269.38        57.64347
269.84        56.26797
270.30        54.92891
270.75        53.64524
271.21        52.46868
271.66        51.36978
272.12        50.33522
272.57        49.33104
273.03        48.34985
273.48        47.28668
273.94        46.21523
274.39        45.12468
274.85         44.1315
275.31        43.28791
275.76        42.56443
276.22        41.95663
276.67        41.38195
277.13        40.85205
277.58        40.29035
278.04        39.75756
278.49        39.15208
278.95        38.45056
279.40        37.61257
279.86        36.74464
280.31         35.8969
280.77        35.28751
281.22        34.89672
281.68        34.69161
282.13        34.56628
282.59         34.4411
283.04           34.25
283.50        34.02979
283.95        33.74271
284.41         33.3602
284.86        32.89023
285.32        32.41162
285.77        31.95646
286.22        31.65632
286.68        31.54623
287.13        31.53849
287.59        31.65667
288.04         31.8658
288.50        32.14118
288.95        32.42823
289.41        32.64548
289.86        32.61977
290.32        32.37625
290.77        31.99573
291.22        31.60046
291.68        31.37912
292.13        31.39851
292.59        31.64587
293.04        32.17832
293.50        33.11307
293.95        34.42601
294.40        36.08328
294.86        37.86229
295.31        39.41787
295.77        40.65651
296.22        41.63879
296.68        42.57495
297.13        43.78676
297.58        45.35482
298.04         47.1456
298.49        48.96574
298.95        50.53057
299.40        51.77244
299.85        52.81795
300.31         53.8399
300.76        55.00977
301.21         56.4176
301.67         58.0193
302.12        59.71855
302.58        61.52261
303.03        63.36798
303.48        65.20872
303.94        67.05055
304.39        69.17747
304.84        71.03274
305.30        73.04641
305.75        74.97861
306.20        76.80267
306.66        78.51699
307.11        80.07298
307.57        81.55756
308.02        82.97163
308.47        84.37819
308.93        85.78982
309.38        87.16217
309.83        88.50437
310.29         89.8161
310.74        91.07977
311.19        92.28474
311.65        93.39993
312.10        94.40301
312.55        95.31963
313.00         96.2174
313.46        97.20684
313.91        98.28555
314.36         99.4177
314.82        100.5127
315.27        101.4553
315.72        102.1861
316.18        102.7434
316.63         103.146
317.08        103.4404
317.53        103.6746
317.99          103.88
318.44        104.0822
318.89         104.336
319.35         104.658
319.80         105.032
320.25        105.5139
320.70         106.184
321.16        107.0006
321.61        107.9767
322.06        108.8793
322.51        109.3497
322.97        109.3072
323.42        108.8617
323.87        108.2989
324.32        108.1041
324.78        108.3816
325.23        109.0738
325.68        109.9067
326.13        110.4075
326.59        110.4263
327.04         110.143
327.49         109.825
327.94         109.957
328.39        110.6475
328.85        111.6864
329.30        112.8379
329.75        113.4807
330.20        113.4508
330.66        112.9438
331.11        112.3019
331.56        111.9941
332.01        112.1945
332.46        112.7658
332.92        113.5659
333.37          114.51
333.82        115.4451
334.27        116.4068
334.72        117.3185
335.17        118.0485
335.63        118.5318
336.08         118.834
336.53        118.9705
336.98        119.0686
337.43          119.19
337.88         119.327
338.34        119.5166
338.79        119.8265
339.24        120.2599
339.69        120.8222
340.14        121.4407
340.59        121.9719
341.05         122.386
341.50        122.7254
341.95        123.0399
342.40        123.4419
342.85        123.9503
343.30        124.4847
343.75         125.038
344.20        125.6044
344.66        126.1712
345.11        126.7602
345.56        127.2219
346.01        127.3063
346.46        127.0181
346.91        126.4594
347.36        125.9792
347.81         126.106
348.26        126.9147
348.72         128.202
349.17         129.624
349.62        130.5148
350.07        130.6808
350.52        130.3496
350.97        129.7672
351.42        129.3129
351.87        129.1289
352.32         129.092
352.77        129.2327
353.22        129.6142
353.67        130.1824
354.13        130.8842
354.58        131.5168
355.03        131.7313
355.48        131.4357
355.93        130.7253
356.38        129.7185
356.83        128.6155
357.28        127.5158
357.73        126.3973
358.18        125.3395
358.63        124.4562
359.08        123.7631
359.53        123.2481
359.98        122.8089
360.43        122.2604
360.88        121.5562
361.33         120.744
361.78        119.8881
362.23         119.101
362.68        118.4112
363.13        117.7685
363.58        117.1508
364.03        116.5273
364.48        115.8796
364.93        115.2254
365.38        114.5396
365.83        113.7809
366.28        112.9572
366.73        112.0889
367.18        111.2401
367.63        110.5092
368.08        109.9108
368.53         109.413
368.98        108.9579
369.43        108.4455
369.88        107.8546
370.33        107.2283
370.78        106.5902
371.23        105.9846
371.68        105.4262
372.13        104.8754
372.58        104.3709
373.03        103.9794
373.48        103.6825
373.93        103.4487
374.38        103.1325
374.83        102.5027
375.28        101.5463
375.72        100.3474
376.17        99.17424
376.62        98.24377
377.07        97.61097
377.52        97.19419
377.97        96.93893
378.42        96.76048
378.87        96.60442
379.32        96.47744
379.77        96.32162
380.22        96.04748
380.67        95.62963
381.11        95.07835
381.56        94.42796
382.01        93.77138
382.46        93.16431
382.91        92.61694
383.36        92.12774
383.81        91.67902
384.26        91.26356
384.71        90.88242
385.15        90.55186
385.60         90.3553
386.05         90.2597
386.50        90.22462
386.95        90.14376
387.40        89.86742
387.85        89.38382
388.29        88.70519
388.74        88.06068
389.19        87.53304
389.64        87.15533
390.09        86.87765
390.54        86.66695
390.98        86.50894
391.43        86.42822
391.88        86.25421
392.33        85.97103
392.78        85.96137
393.23        86.05434
393.67        85.36045
394.12        84.16302
394.57         83.9481
395.02        83.58688
395.47        83.75163
395.91        83.95149
396.36        83.98398
396.81        83.78462
397.26        83.48872
397.71        83.16177
398.15        82.74282
398.60        82.34926
399.05        82.05687
399.50        81.84088
399.95        81.50752
400.39        80.87966
400.84        81.11459
401.29        81.91577
401.74        82.12715
402.18        81.63108
402.63        81.01984
403.08        80.54124
403.53        80.29922
403.97        80.34466
404.42        80.61393
404.87        80.92913
405.32        80.97882
405.76        80.67934
406.21        80.26602
406.66        79.80857
407.11        79.23283
407.55         78.7365
408.00        78.65858
408.45        78.95437
408.90        79.34816
409.34        79.61897
409.79        79.37361
410.24        78.82616
410.68        78.77026
411.13        79.25735
411.58        79.82019
412.03        80.23256
412.47        80.33226
412.92        80.01719
413.37        79.39243
413.81        78.64102
414.26        78.11686
414.71        77.86681
415.15         77.8163
415.60        77.87619
416.05        77.94137
416.49        77.97229
416.94        78.01239
417.39        78.03491
417.83        77.97155
418.28        77.82391
418.73        77.59021
419.17        77.36954
419.62        77.35176
420.07        77.54521
420.51         77.8574
420.96        78.16776
421.41        78.22813
421.85        77.95213
422.30        77.56557
422.74        77.12727
423.19        76.62604
423.64        76.20906
424.08        76.40592
424.53        77.06391
424.98        77.43244
425.42        77.39119
425.87         77.4102
426.31        77.49212
426.76         77.1613
427.21        76.41072
427.65         76.4097
428.10        76.89325
428.54        76.63265
428.99        75.77752
429.44        75.13859
429.88        74.92612
430.33        75.34781
430.77         76.0735
431.22        76.55631
431.66        76.71077
432.11        76.37839
432.56        75.68195
433.00        75.69022
433.45        76.71587
433.89        75.97588
434.34        76.52254
434.78        78.25745
435.23        75.62157
435.67        75.05006
436.12        74.86545
436.57        75.04934
437.01        75.43653
437.46        75.72581
437.90        75.92709
438.35        76.22376
438.79        76.79604
439.24        76.92095
439.68        76.69507
440.13        76.54064
440.57        76.55502
441.02        76.50169
441.46        76.34542
441.91        76.57015
442.35        76.89378
442.80        76.46709
443.24        76.59283
443.69        76.38591
444.13        76.25928
444.58        76.09902
445.02        75.86806
445.47         75.7115
445.91         75.6648
446.36        75.60188
446.80        75.46372
447.24        76.06725
447.69        75.95494
448.13        76.11864
448.58        76.13924
449.02         76.0609
449.47        75.95674
449.91        75.93336
450.36        76.03965
450.80        76.20261
451.25        76.38393
451.69        76.48643
452.13        76.49195
452.58        76.46297
453.02        76.40994
453.47        76.34185
453.91        76.25278
454.36        76.29722
454.80        76.14071
455.24        76.23634
455.69        76.43536
456.13        76.49767
456.58         76.4091
457.02        76.22948
457.46        76.00098
457.91        75.74577
458.35        75.47356
458.79        75.29338
459.24        75.28367
459.68        75.31274
460.13        75.31381
460.57        75.50229
461.01        75.76952
461.46        75.01861
461.90        75.15034
462.34        75.24605
462.79        75.67482
463.23        75.42039
463.68        74.60354
464.12         74.2866
464.56        74.49206
465.01        74.22588
465.45        74.29761
465.89        74.12415
466.34        73.93641
466.78        74.45095
467.22        74.55872
467.67         74.2823
468.11        74.12759
468.55        73.79005
468.99        73.57152
469.44        73.34101
469.88        73.14097
470.32        73.06299
470.77        73.06747
471.21        73.07597
471.65        73.05421
472.10         73.0416
472.54        73.03802
472.98        73.07539
473.42        73.14595
473.87         73.2614
474.31         73.3543
474.75        73.27621
475.20        73.05428
475.64        72.94466
476.08        72.98675
476.52        72.77215
476.97        72.23072
477.41        72.46664
477.85        72.27109
478.29        71.75923
478.74        72.11629
479.18        72.61723
479.62        72.01625
480.06        72.03123
480.50        72.15408
480.95         72.3859
481.39        72.65469
481.83        72.27002
482.27        72.84432
482.72        72.51871
483.16        72.78324
483.60        72.62436
484.04         72.8316
484.48        73.08385
484.93        73.32314
485.37        72.99947
485.81        72.00806
486.25        71.23649
486.69        72.43555
487.14        72.06332
487.58        71.71486
488.02        72.26586
488.46        72.24041
488.90        71.85838
489.34        71.61532
489.79        72.62894
490.23        71.60551
490.67        71.75024
491.11         71.9403
491.55        71.74677
491.99        71.23569
492.43        71.02496
492.88        71.17406
493.32        71.36458
493.76        71.54805
494.20          71.759
494.64         71.9582
495.08        72.22253
495.52        72.45864
495.96        72.32401
496.41        71.94512
496.85        71.82498
497.29         71.8772
497.73        72.13482
498.17        71.71906
498.61         71.4378
499.05         71.1655
499.49        71.14229
499.93        71.30156
500.37        71.36857
500.82        71.35896
501.26        71.07484
501.70        71.34681
502.14        71.31554
502.58        71.25224
503.02        71.26862
503.46        71.37905
503.90        71.53313
504.34        71.67868
504.78        71.75562
505.22        71.73958
505.66        71.65731
506.10        71.54133
506.54        71.47156
506.98        71.47149
507.42        71.57335
507.86        71.33733
508.30        71.72571
508.74        71.30961
509.18        71.17703
509.62        71.01107
510.06        70.96346
510.50        71.04944
510.94        71.24187
511.38        71.45218
511.82        71.49969
512.26        71.35051
512.70        71.06206
513.14           70.75
513.58        70.59012
514.02        70.62404
514.46         70.7984
514.90        71.01933
515.34        71.13361
515.78        71.09817
516.22        70.96099
516.66        70.79615
517.10        70.71578
517.54        70.74432
517.98        70.84141
518.42        70.94588
518.86        70.94539
519.30        70.81487
519.74        70.65244
520.18        70.51258
520.62         70.3369
521.06        70.21687
521.50        70.44039
521.93        70.89774
522.37        71.11163
522.81        71.03268
523.25        70.87512
523.69        70.75928
524.13        70.79214
524.57        71.00084
525.01        71.33966
525.45        71.65965
525.89         71.7224
526.32        71.47289
526.76        71.02235
527.20        70.52787
527.64        70.23405
528.08        70.20072
528.52        70.34795
528.96        70.57813
529.40        70.73653
529.83        70.76589
530.27        70.72287
530.71        70.63437
531.15        70.54725
531.59        70.47993
532.03        70.41122
532.46        70.33079
532.90        70.25809
533.34        70.19281
533.78        70.14841
534.22         70.1278
534.66        70.12936
535.09        70.14365
535.53        70.17559
535.97        70.22242
536.41        70.29656
536.85        70.39075
537.28        70.49378
537.72        70.56338
538.16        70.52946
538.60        70.38483
539.04        70.15778
539.47        69.90356
539.91        69.76347
540.35        69.74753
540.79        69.83388
541.22        69.95308
541.66        70.01821
542.10        70.00291
542.54        69.91418
542.97        69.79833
543.41        69.88697
543.85        69.96442
544.29        70.18217
544.72        70.37443
545.16        70.43246
545.60        70.32859
546.04        70.07874
546.47        69.79741
546.91        69.77081
547.35        69.99091
547.79        70.16539
548.22        70.20748
548.66        70.36187
549.10        70.61719
549.53        70.61925
549.97        70.26487
550.41        70.85513
550.84        70.27462
551.28        70.09332
551.72        69.73995
552.15        69.97248
552.59        69.87311
553.03        70.07973
553.46        69.95858
553.90        70.00758
554.34        70.09556
554.77        70.11673
555.21        70.08733
555.65        70.07359
556.08        70.08219
556.52        70.10117
556.96        70.12231
557.39        70.22155
557.83        70.37514
558.27        70.38731
558.70        70.30458
559.14        70.36347
559.57        70.50798
560.01        70.62917
560.45        70.68895
560.88        70.38202
561.32        70.15331
561.75         70.1503
562.19        70.40105
562.63        70.24969
563.06        69.78853
563.50         69.7079
563.93        69.96958
564.37        70.20721
564.80        70.30231
565.24        70.21688
565.68        69.98726
566.11        69.89891
566.55        69.97377
566.98        69.89912
567.42        69.77752
567.85        69.80327
568.29        69.90359
568.72        70.20168
569.16        70.75501
569.60        70.20005
570.03        70.64308
570.47        70.83225
570.90        70.58718
571.34        70.35753
571.77        70.58021
572.21        70.74023
572.64        70.90578
573.08        70.79214
573.51        70.46979
573.95        70.45462
574.38        70.78176
574.82         70.8438
