SpectraSmart Spectrum 2.9.0.0
--------- Device Information -----------
Spectrum Name :  反射率_0
Saving Time :  2024/04/30 00:29:17
Spectro-Module Model Name : SE2030-DUVN
Spectro-Module Serial Number : OS361AC55029948
Wavelength Start : 200
Wavelength End : 1025
Wavelength Unit : Wavelength(nm)
Spectrum Unit : Reflectance(%)
-----------Spectrum Setting ------------
Integration Time : 20ms
Average : 10
Boxcar : 0
Background removal :  enabled
linearity correction :  enabled
SC :  disabled
Intensity correction :  disabled
DWT denoise :  enabled
savitzky-golay :  disabled
FFT :  disabled
Running average :  disabled
Kalman :  disabled
High pass :  disabled
---------------BEGIN--------------------
Wavelength(nm)             Reflectance(%)
200.29               0
200.75          99.895
201.21        85.44288
201.67        70.52505
202.13        59.63645
202.58        55.14833
203.04        56.09039
203.50        62.32532
203.96        72.97552
204.42        86.00126
204.88        100.2155
205.34        110.2229
205.80        109.6391
206.26        100.6404
206.72        88.35529
207.18         77.1098
207.64        68.96369
208.10        63.08436
208.55        58.30899
209.01        54.15768
209.47        51.38898
209.93        50.54707
210.39        51.51982
210.85         53.2261
211.31          54.777
211.77        56.19147
212.23        57.58421
212.69        59.71959
213.14        63.92044
213.60        68.32449
214.06        72.02591
214.52        73.80186
214.98        73.14088
215.44        70.65962
215.90        66.64745
216.36        62.98404
216.81        63.47056
217.27        70.11941
217.73        83.71803
218.19        102.6374
218.65        115.4647
219.11        114.4048
219.57        103.5908
220.02        91.68211
220.48        84.96189
220.94        82.30128
221.40        81.60297
221.86        80.46315
222.32        74.63452
222.77        65.43201
223.23        57.94048
223.69        53.09793
224.15        50.26007
224.61        48.62811
225.06        47.55234
225.52        47.76757
225.98        50.26498
226.44        54.10224
226.90        57.86204
227.36        60.38847
227.81        61.04947
228.27        60.17913
228.73         58.0112
229.19        55.03062
229.65        52.63301
230.10        51.53115
230.56        51.41269
231.02        51.66654
231.48         51.7193
231.93        51.41012
232.39        51.00623
232.85        50.69427
233.31        50.85701
233.77        51.60566
234.22        52.92356
234.68        54.32454
235.14        55.00334
235.60        54.81514
236.05        53.98866
236.51        53.44042
236.97        54.43137
237.43        57.38528
237.88        62.61839
238.34        69.45716
238.80        75.32753
239.26        78.01278
239.71        77.78574
240.17        76.05326
240.63        75.64819
241.08        77.81414
241.54        82.45892
242.00        91.03892
242.46        102.8545
242.91        113.8325
243.37        120.9726
243.83        123.2723
244.28        122.5016
244.74        119.7047
245.20        113.2107
245.66        105.7964
246.11        104.8246
246.57         113.446
247.03        131.9785
247.48        152.0939
247.94        153.9403
248.40        138.3382
248.85        117.4174
249.31        102.4168
249.77        97.78515
250.22        102.6504
250.68        116.6433
251.14        140.1375
251.59        156.2142
252.05        150.2821
252.51        135.1472
252.96        121.7235
253.42         114.012
253.88        109.5422
254.33        105.9654
254.79        103.3642
255.25        102.1301
255.70        101.8542
256.16        102.6772
256.62        103.5868
257.07        103.8201
257.53        103.9399
257.99        103.7534
258.44        102.8238
258.90        101.5831
259.35        99.72998
259.81        98.03212
260.27        96.49745
260.72        95.15538
261.18        94.24971
261.63        93.21326
262.09        92.10262
262.55        90.45693
263.00        88.26718
263.46        86.11861
263.91        83.91929
264.37        82.04883
264.83        80.37557
265.28         78.7364
265.74        77.36152
266.19        76.29213
266.65        75.61383
267.11        75.18452
267.56         74.7451
268.02        73.97294
268.47        72.73458
268.93        71.14008
269.38        69.31324
269.84        67.62275
270.30        66.21022
270.75        64.99683
271.21        63.93321
271.66        62.83765
272.12        61.66469
272.57        60.41495
273.03        59.15673
273.48        57.88593
273.94        56.70107
274.39        55.53539
274.85        54.43139
275.31          53.308
275.76         52.1366
276.22        51.01209
276.67         49.9375
277.13        49.07391
277.58        48.35626
278.04        47.78001
278.49        47.21501
278.95        46.62349
279.40        45.92185
279.86        45.23529
280.31        44.49125
280.77        43.74709
281.22        42.97903
281.68        42.23507
282.13        41.59614
282.59         41.2729
283.04        41.21841
283.50        41.36556
283.95        41.48607
284.41        41.27098
284.86        40.66451
285.32        39.86841
285.77        39.02246
286.22        38.42621
286.68        38.16109
287.13        38.06712
287.59        38.16813
288.04        38.42415
288.50        38.79642
288.95        39.23668
289.41        39.59242
289.86        39.56358
290.32        39.17119
290.77        38.53008
291.22        37.88255
291.68        37.61463
292.13        37.82508
292.59        38.43118
293.04        39.36263
293.50        40.56099
293.95        41.95603
294.40        43.57449
294.86        45.26444
295.31        46.79094
295.77        48.09778
296.22        49.21084
296.68        50.30847
297.13        51.66156
297.58        53.33854
298.04        55.22903
298.49        57.16097
298.95        58.88551
299.40        60.33031
299.85        61.59476
300.31        62.82626
300.76        64.15301
301.21        65.65802
301.67         67.3229
302.12        69.04757
302.58         70.8371
303.03        72.63427
303.48        74.42413
303.94        76.26765
304.39        78.42222
304.84        80.50172
305.30        82.77972
305.75        84.99146
306.20        86.99924
306.66        88.78299
307.11        90.32031
307.57        91.75262
308.02        93.14938
308.47        94.59561
308.93        96.07307
309.38        97.51945
309.83        98.92638
310.29         100.284
310.74         101.584
311.19        102.7952
311.65        103.8486
312.10        104.7224
312.55         105.463
313.00        106.1941
313.46        107.1145
313.91        108.2396
314.36        109.5072
314.82         110.778
315.27        111.8562
315.72        112.6543
316.18        113.2309
316.63        113.6226
317.08         113.908
317.53        114.1456
317.99        114.3522
318.44        114.5512
318.89         114.798
319.35         115.111
319.80        115.4855
320.25        115.9708
320.70        116.6333
321.16        117.4263
321.61        118.3622
322.06        119.2356
322.51         119.736
322.97        119.7877
323.42        119.4902
323.87        119.0593
324.32        118.8736
324.78        119.0185
325.23        119.4734
325.68        120.0605
326.13        120.4751
326.59        120.6082
327.04        120.5909
327.49        120.5858
327.94        120.9107
328.39         121.621
328.85         122.543
329.30        123.5082
329.75        123.9993
330.20        123.8903
330.66        123.3395
331.11        122.6621
331.56        122.2765
332.01        122.3488
332.46        122.7811
332.92        123.4437
333.37        124.2791
333.82        125.1468
334.27        126.0708
334.72        127.0128
335.17        127.9075
335.63        128.6837
336.08        129.3834
336.53        129.9113
336.98        130.2173
337.43        130.3155
337.88        130.2433
338.34        130.1404
338.79        130.2462
339.24        130.6153
339.69        131.2096
340.14         131.901
340.59         132.449
341.05        132.7979
341.50        133.0333
341.95        133.2352
342.40        133.5598
342.85         134.033
343.30        134.5408
343.75        135.0739
344.20         135.626
344.66        136.1844
345.11        136.7953
345.56        137.2569
346.01        137.2352
346.46         136.734
346.91        135.8734
347.36        135.1481
347.81        135.3077
348.26         136.449
348.72        138.2963
349.17        140.2794
349.62        141.3443
350.07        141.2099
350.52        140.2289
350.97        138.9073
351.42        138.0195
351.87        137.7992
352.32        138.0035
352.77        138.4701
353.22        138.9517
353.67         139.309
354.13        139.5918
354.58        139.7459
355.03        139.6522
355.48        139.2818
355.93         138.652
356.38        137.7667
356.83        136.6568
357.28        135.3905
357.73        134.0187
358.18        132.7167
358.63        131.7426
359.08        131.1368
359.53        130.8111
359.98        130.5967
360.43        130.2116
360.88        129.5672
361.33        128.7434
361.78        127.7793
362.23        126.7473
362.68        125.6947
363.13        124.5979
363.58        123.5385
364.03        122.6494
364.48        121.9505
364.93        121.4172
365.38        120.9373
365.83        120.3202
366.28        119.5205
366.73        118.5872
367.18        117.6195
367.63        116.7759
368.08        116.0877
368.53        115.5005
368.98        114.9303
369.43        114.2383
369.88         113.411
370.33        112.5317
370.78         111.672
371.23        110.9498
371.68        110.3893
372.13        109.8978
372.58        109.5058
373.03        109.2656
373.48        109.1321
373.93        109.0878
374.38        108.8559
374.83         107.996
375.28        106.4976
375.72        104.5357
376.17        102.6548
376.62        101.4667
377.07        101.0809
377.52        101.2781
377.97        101.7441
378.42        101.9527
378.87        101.7241
379.32        101.2108
379.77        100.5218
380.22        99.81531
380.67        99.14527
381.11        98.44204
381.56         97.7171
382.01        97.03616
382.46         96.4344
382.91        95.94564
383.36        95.53759
383.81        95.13033
384.26         94.7013
384.71        94.25488
385.15        93.83028
385.60        93.55986
386.05        93.42201
386.50        93.36246
386.95        93.25937
387.40        92.93758
387.85        92.38462
388.29        91.63005
388.74        90.91823
389.19        90.34029
389.64        89.92825
390.09        89.62263
390.54        89.39413
390.98        89.21889
391.43        89.11241
391.88        88.95055
392.33        88.68771
392.78        88.54317
393.23         88.4024
393.67        87.67497
394.12        86.60308
394.57        86.32661
395.02        85.73373
395.47        85.92243
395.91         86.3715
396.36        86.53474
396.81        86.32385
397.26        86.05077
397.71        85.77241
398.15        85.35792
398.60        84.92995
399.05        84.54433
399.50        84.20992
399.95        83.85606
400.39        83.26981
400.84        83.45364
401.29        84.09554
401.74        84.16424
402.18        83.55341
402.63        82.77895
403.08        82.12916
403.53        81.80872
403.97        81.86899
404.42        82.20825
404.87        82.60592
405.32        82.65222
405.76        82.24774
406.21         81.7541
406.66        81.24056
407.11        80.46645
407.55        79.73502
408.00         79.7198
408.45        80.36018
408.90        81.13211
409.34        81.67231
409.79         81.4192
410.24        80.61345
410.68        80.34321
411.13        80.68764
411.58        80.96579
412.03          81.036
412.47        81.01301
412.92        80.83248
413.37        80.51173
413.81        80.09844
414.26        79.74948
414.71        79.46582
415.15        79.23003
415.60        79.04154
416.05        78.94884
416.49        78.96068
416.94        79.07314
417.39        79.19687
417.83        79.16141
418.28        78.94567
418.73        78.59719
419.17        78.25697
419.62        78.16958
420.07        78.34763
420.51        78.67313
420.96        79.02352
421.41        79.07449
421.85        78.74194
422.30        78.47018
422.74         78.2126
423.19        77.46843
423.64        76.49397
424.08        76.50546
424.53        77.40797
424.98        77.86414
425.42        77.80759
425.87          78.153
426.31        78.75306
426.76        78.36108
427.21        77.06682
427.65        76.84032
428.10        77.50838
428.54        77.40603
428.99        76.59342
429.44        76.11915
429.88        76.09514
430.33        76.15549
430.77        76.23687
431.22        76.85365
431.66        77.70491
432.11        77.48972
432.56        76.37257
433.00        75.85624
433.45        76.21141
433.89        76.76169
434.34        76.91185
434.78        78.16145
435.23        76.28484
435.67        75.52991
436.12        75.03126
436.57        75.08504
437.01        75.53056
437.46        76.14231
437.90        75.92792
438.35        76.28719
438.79        76.85556
439.24        77.06072
439.68        76.91068
440.13        76.85438
440.57        76.96865
441.02         76.9889
441.46        76.87736
441.91        77.01841
442.35        77.26701
442.80        76.77959
443.24         76.8241
443.69        76.39561
444.13        75.99493
444.58        75.76553
445.02        75.69547
445.47        75.77973
445.91        75.94484
446.36        76.06762
446.80        76.07994
447.24        76.29413
447.69        76.23569
448.13        76.25262
448.58        76.22733
449.02         76.1487
449.47        76.07277
449.91         76.0628
450.36         76.1478
450.80        76.28461
451.25        76.43486
451.69        76.49687
452.13        76.45735
452.58        76.37737
453.02        76.28275
453.47        76.21412
453.91        76.16907
454.36        76.27793
454.80        76.18575
455.24        76.34196
455.69        76.57582
456.13        76.58601
456.58        76.38631
457.02        76.14558
457.46        75.94363
457.91        75.62775
458.35        75.25792
458.79         75.0501
459.24        75.05318
459.68        75.20084
460.13        75.43155
460.57        75.45145
461.01        75.52271
461.46        75.30561
461.90        74.96798
462.34        75.08195
462.79        75.33529
463.23        75.09441
463.68         74.4229
464.12        74.06719
464.56        74.05779
465.01        74.16298
465.45        74.24438
465.89        74.02596
466.34        73.58443
466.78        74.01797
467.22        74.21907
467.67        74.31323
468.11        73.97121
468.55         73.5674
468.99        73.21744
469.44        72.94604
469.88        72.80517
470.32        72.79495
470.77        72.84884
471.21        72.87719
471.65        72.83259
472.10        72.75275
472.54         72.6677
472.98        72.63863
473.42        72.66523
473.87        72.81342
474.31        72.98403
474.75        72.82955
475.20        72.43994
475.64        72.41971
476.08        72.75348
476.52        72.65064
476.97        72.04932
477.41        72.25341
477.85        71.92067
478.29        71.43671
478.74        72.10469
479.18        72.05112
479.62        71.82874
480.06        71.78258
480.50         71.9435
480.95        71.74681
481.39        72.36677
481.83        71.46841
482.27        72.40402
482.72        72.08372
483.16        72.23132
483.60        72.20662
484.04        72.25167
484.48        72.31135
484.93         72.3696
485.37        72.14558
485.81        71.66696
486.25        71.37016
486.69        72.25669
487.14        71.53559
487.58        71.04682
488.02        71.56876
488.46        72.03053
488.90        71.96335
489.34         71.4321
489.79        72.07636
490.23        71.08696
490.67        71.28469
491.11        71.63074
491.55        71.33005
491.99        70.51502
492.43        70.23013
492.88         70.5564
493.32        70.93633
493.76        71.23044
494.20        71.46209
494.64        71.54964
495.08         71.5727
495.52        71.58829
495.96        71.41073
496.41        71.01218
496.85        71.63203
497.29        70.97398
497.73        71.24492
498.17        71.02129
498.61        71.06189
499.05        70.52778
499.49        70.45367
499.93        70.62312
500.37        70.66679
500.82        70.56203
501.26        70.52328
501.70        70.55063
502.14        70.51572
502.58        70.45244
503.02        70.47193
503.46        70.58421
503.90        70.75187
504.34        70.93105
504.78        71.04688
505.22        71.06145
505.66        71.01604
506.10        70.93394
506.54        70.80888
506.98        70.64657
507.42        70.79575
507.86        70.31258
508.30        70.58147
508.74        70.05714
509.18        69.82838
509.62        69.60696
510.06        69.58557
510.50        69.78526
510.94        70.15471
511.38         70.5678
511.82        70.77872
512.26        70.72691
512.70        70.48064
513.14        70.16178
513.58        69.96296
514.02          69.937
514.46        70.02554
514.90        70.15592
515.34        70.21194
515.78        70.15943
516.22        70.04242
516.66        69.91212
517.10        69.83919
517.54        69.84299
517.98        69.89845
518.42        69.96265
518.86        69.97285
519.30        69.91413
519.74         69.8061
520.18        69.70083
520.62        69.67393
521.06        69.74422
521.50        69.89716
521.93         70.0716
522.37        70.14523
522.81        70.10047
523.25        69.96138
523.69         69.8251
524.13        69.84305
524.57         70.0358
525.01         70.3506
525.45        70.65105
525.89        70.71587
526.32        70.49297
526.76        70.08681
527.20        69.64124
527.64        69.38118
528.08        69.36096
528.52        69.50506
528.96        69.72533
529.40        69.88158
529.83        69.92075
530.27        69.89689
530.71        69.82604
531.15        69.73746
531.59        69.64851
532.03        69.54599
532.46        69.43875
532.90        69.37257
533.34        69.34315
533.78        69.36661
534.22        69.43236
534.66        69.45698
535.09        69.41313
535.53        69.56851
535.97         69.4931
536.41        69.53569
536.85        69.56946
537.28        69.59119
537.72        69.59858
538.16        69.59342
538.60        69.57677
539.04        69.54718
539.47        69.47886
539.91        69.40073
540.35         69.3041
540.79         69.1824
541.22        69.04585
541.66         69.0488
542.10         68.9951
542.54        69.03685
542.97        69.10298
543.41        69.19994
543.85        69.30627
544.29        69.43221
544.72        69.51695
545.16        69.49986
545.60        69.37128
546.04        69.12395
546.47         68.8534
546.91        68.82217
547.35        69.01733
547.79        69.16642
548.22        69.18729
548.66         69.3217
549.10        69.55753
549.53        69.53939
549.97        69.18099
550.41        69.77501
550.84        69.24192
551.28        69.15819
551.72        68.90913
552.15        69.10184
552.59        68.88256
553.03        68.94138
553.46        69.01923
553.90        69.07697
554.34        69.08102
554.77        69.14375
555.21        69.25621
555.65        69.06564
556.08        68.90321
556.52        68.88689
556.96        69.05882
557.39        69.18628
557.83        69.23895
558.27        69.18982
558.70        69.10117
559.14        69.16679
559.57        69.33112
560.01        69.48349
560.45        69.57663
560.88         69.3037
561.32        69.09252
561.75        69.09711
562.19        69.36156
562.63        69.19523
563.06        68.71426
563.50        68.78344
563.93         69.2821
564.37        69.46053
564.80        69.26088
565.24        69.09718
565.68        69.01843
566.11        68.98862
566.55        69.02519
566.98        69.02613
567.42        69.05888
567.85        69.09276
568.29        69.12147
568.72        69.36455
569.16        69.89765
569.60        69.28149
570.03        69.64138
570.47        69.77674
570.90        69.66696
571.34        69.48763
571.77        69.64123
572.21         69.7162
572.64         69.8343
573.08        69.79379
573.51        69.64702
573.95        69.84812
574.38        70.31024
574.82        70.02894
