SpectraSmart Spectrum 2.9.0.0
--------- Device Information -----------
Spectrum Name :  反射率_0
Saving Time :  2024/04/30 00:28:17
Spectro-Module Model Name : SE2030-DUVN
Spectro-Module Serial Number : OS361AC55029948
Wavelength Start : 200
Wavelength End : 1025
Wavelength Unit : Wavelength(nm)
Spectrum Unit : Reflectance(%)
-----------Spectrum Setting ------------
Integration Time : 20ms
Average : 10
Boxcar : 0
Background removal :  enabled
linearity correction :  enabled
SC :  disabled
Intensity correction :  disabled
DWT denoise :  enabled
savitzky-golay :  disabled
FFT :  disabled
Running average :  disabled
Kalman :  disabled
High pass :  disabled
---------------BEGIN--------------------
Wavelength(nm)             Reflectance(%)
200.29               0
200.75        69.47894
201.21        61.83654
201.67        55.40052
202.13        49.94097
202.58        45.55607
203.04        42.72177
203.50        42.66475
203.96        47.70518
204.42        57.61399
204.88        70.13631
205.34        79.87476
205.80        80.08562
206.26        72.47857
206.72        62.48671
207.18        53.18413
207.64        45.73413
208.10        39.55765
208.55        33.39429
209.01        28.52557
209.47         28.8801
209.93        34.35489
210.39        42.51945
210.85        49.49093
211.31        52.20252
211.77        50.64658
212.23        44.76347
212.69        35.94599
213.14         32.6192
213.60        38.28611
214.06        48.15467
214.52        56.55322
214.98        60.08445
215.44        59.54427
215.90        56.49426
216.36        52.71299
216.81         51.4541
217.27         54.5269
217.73        61.82151
218.19        72.60349
218.65        80.94342
219.11        82.08038
219.57         77.7698
220.02        72.23226
220.48        68.88865
220.94        67.13245
221.40        65.72905
221.86        62.97539
222.32        56.76294
222.77        49.06316
223.23        43.38836
223.69        39.91555
224.15        37.76105
224.61           36.35
225.06        35.39476
225.52        35.80989
225.98        38.69844
226.44        43.12057
226.90        47.49778
227.36        50.75603
227.81        52.53839
228.27        53.19633
228.73        52.90689
229.19        51.83815
229.65          50.497
230.10        49.30243
230.56        48.42289
231.02         47.6278
231.48        46.58917
231.93        45.18346
232.39        43.59372
232.85        42.14584
233.31        41.53595
233.77        42.00376
234.22        43.48731
234.68        45.39364
235.14        46.62484
235.60        46.87216
236.05        46.37394
236.51         46.0407
236.97        47.17737
237.43        50.24038
237.88        55.52137
238.34        62.29543
238.80        67.84922
239.26        69.96136
239.71        68.97262
240.17        66.65215
240.63        66.22325
241.08        69.06373
241.54         75.5127
242.00        86.99465
242.46        100.8629
242.91        110.5636
243.37         112.955
243.83         110.186
244.28        107.4266
244.74        105.9311
245.20        103.7536
245.66        101.4746
246.11        100.9714
246.57        103.0284
247.03        109.0607
247.48        115.5025
247.94        113.7013
248.40        104.9298
248.85        94.18009
249.31        87.39356
249.77        86.99593
250.22        92.96052
250.68        106.4662
251.14         127.263
251.59        138.7737
252.05        129.5541
252.51        112.6664
252.96        99.91469
253.42        95.67147
253.88        97.25829
254.33        102.3796
254.79        108.5029
255.25        109.9269
255.70        106.0941
256.16        101.1574
256.62         97.5216
257.07        96.56532
257.53        98.18159
257.99        100.9154
258.44        102.8824
258.90        102.5479
259.35        99.62618
259.81        96.07336
260.27        92.83856
260.72        90.65356
261.18         89.6741
261.63        89.01571
262.09        88.35445
262.55        86.82791
263.00        84.42533
263.46        81.89156
263.91        79.45385
264.37        77.83096
264.83         76.8604
265.28        76.19094
265.74        75.68722
266.19        74.85436
266.65        73.71156
267.11        72.36199
267.56        70.89622
268.02        69.45798
268.47        68.02577
268.93        66.56902
269.38        65.06718
269.84        63.63874
270.30        62.32829
270.75         61.1372
271.21        60.06841
271.66        59.01248
272.12        57.93782
272.57        56.80899
273.03         55.6452
273.48        54.38589
273.94        53.13119
274.39        51.86085
274.85        50.68555
275.31         49.6267
275.76        48.65619
276.22        47.79884
276.67        47.00629
277.13        46.35399
277.58        45.75954
278.04         45.2613
278.49        44.70114
278.95        43.99355
279.40        43.07771
279.86        42.08947
280.31        41.10207
280.77        40.38363
281.22        39.92197
281.68        39.67617
282.13        39.52729
282.59        39.39066
283.04        39.19396
283.50        38.99111
283.95        38.73486
284.41        38.39071
284.86        37.95871
285.32        37.51204
285.77        37.09829
286.22        36.88776
286.68        36.91065
287.13        37.05664
287.59        37.29674
288.04        37.50547
288.50         37.6594
288.95        37.74916
289.41        37.76531
289.86        37.62806
290.32        37.39363
290.77        37.11112
291.22        36.89494
291.68        36.91423
292.13        37.21077
292.59        37.77664
293.04        38.62019
293.50        39.79869
293.95        41.28127
294.40        43.05454
294.86        44.95472
295.31        46.73397
295.77        48.31849
296.22        49.73323
296.68        51.13744
297.13        52.76617
297.58        54.67578
298.04        56.76305
298.49        58.84889
298.95         60.6804
299.40        62.19834
299.85        63.51513
300.31        64.82272
300.76        66.31354
301.21        68.07598
301.67        70.06034
302.12        72.11994
302.58        74.19102
303.03        76.18537
303.48        78.10748
303.94        80.01907
304.39        82.13744
304.84        84.15182
305.30        86.28901
305.75        88.32171
306.20        90.14578
306.66        91.75692
307.11        93.12778
307.57        94.40343
308.02        95.64718
308.47        96.93927
308.93        98.26276
309.38        99.53996
309.83        100.7405
310.29        101.8554
310.74        102.8876
311.19        103.8269
311.65        104.6367
312.10        105.3039
312.55        105.8667
313.00        106.4421
313.46        107.2165
313.91        108.1979
314.36        109.3247
314.82          110.45
315.27        111.3681
315.72        111.9886
316.18        112.3705
316.63        112.5613
317.08        112.6557
317.53        112.7224
317.99        112.7873
318.44        112.8632
318.89        112.9869
319.35        113.1744
319.80        113.4192
320.25        113.8118
320.70        114.4851
321.16        115.3975
321.61        116.5407
322.06        117.6145
322.51        118.1517
322.97        118.0424
323.42        117.4286
323.87         116.653
324.32        116.2946
324.78        116.4863
325.23        117.1544
325.68        118.0026
326.13         118.518
326.59        118.5386
327.04        118.2668
327.49        117.9824
327.94        118.1911
328.39        118.9995
328.85        120.1686
329.30        121.4518
329.75        122.1993
330.20        122.2291
330.66        121.7424
331.11        121.0601
331.56         120.613
332.01        120.5816
332.46        120.8467
332.92        121.3351
333.37        122.0931
333.82        123.0024
334.27        124.0708
334.72         125.158
335.17        126.0148
335.63        126.5323
336.08        126.8107
336.53        126.8863
336.98        126.9305
337.43        127.0238
337.88        127.1382
338.34        127.3161
338.79        127.6396
339.24        128.1111
339.69        128.7363
340.14        129.4201
340.59         129.979
341.05        130.3687
341.50        130.6315
341.95        130.8374
342.40        131.1368
342.85        131.5538
343.30        131.9994
343.75        132.4355
344.20        132.8023
344.66        133.0959
345.11        133.3868
345.56        133.5819
346.01        133.5163
346.46        133.2168
346.91        132.7411
347.36        132.4383
347.81        132.8398
348.26        133.9926
348.72        135.6797
349.17        137.4385
349.62        138.4036
350.07        138.3457
350.52        137.5526
350.97        136.4434
351.42         135.664
351.87         135.419
352.32         135.518
352.77        135.8557
353.22        136.2691
353.67        136.6443
354.13        136.9966
354.58        137.2434
355.03        137.2254
355.48         136.894
355.93        136.2771
356.38        135.3758
356.83        134.2147
357.28        132.8656
357.73        131.3833
358.18         129.955
358.63        128.8584
359.08        128.1456
359.53        127.7321
359.98        127.4551
360.43        127.0386
360.88        126.3926
361.33        125.5907
361.78        124.6683
362.23        123.6901
362.68        122.6974
363.13        121.6686
363.58        120.6637
364.03         119.785
364.48        119.0489
364.93        118.4346
365.38        117.8774
365.83        117.2586
366.28        116.5382
366.73        115.7713
367.18        114.9934
367.63        114.1795
368.08        113.3219
368.53        112.7348
368.98        111.8386
369.43        111.0988
369.88        110.3591
370.33        109.6719
370.78        109.0171
371.23        108.3726
371.68        107.7362
372.13        107.0676
372.58        106.4684
373.03        106.1032
373.48        105.9612
373.93        105.9782
374.38        105.8676
374.83         105.175
375.28        103.8593
375.72        102.0922
376.17        100.3502
376.62        99.14586
377.07        98.58669
377.52        98.49753
377.97        98.65049
378.42        98.66891
378.87        98.42077
379.32        98.01264
379.77        97.51959
380.22        97.04631
380.67        96.61603
381.11         96.1683
381.56        95.66769
382.01        95.10085
382.46        94.48669
382.91        93.87393
383.36        93.29324
383.81        92.76923
384.26        92.30636
384.71        91.88596
385.15         91.5063
385.60        91.22858
386.05        91.01791
386.50        90.85112
386.95        90.64471
387.40        90.27827
387.85        89.75172
388.29        89.07364
388.74        88.45556
389.19        87.95157
389.64        87.58326
390.09        87.30577
390.54         87.1045
390.98        86.95897
391.43        86.88378
391.88        86.79944
392.33        86.64254
392.78        86.49191
393.23        86.29011
393.67        85.70395
394.12        84.89763
394.57        84.69109
395.02        83.97034
395.47         83.9459
395.91        84.15333
396.36        84.10785
396.81         83.7554
397.26        83.37838
397.71        83.04802
398.15        82.64791
398.60        82.28653
399.05        82.05743
399.50        81.90251
399.95        81.56522
400.39        80.87658
400.84         81.0324
401.29        81.75605
401.74        81.95296
402.18        81.48155
402.63        80.78422
403.08        80.14638
403.53        79.86071
403.97        79.98253
404.42         80.3476
404.87        80.72894
405.32        80.75837
405.76        80.33638
406.21        79.77966
406.66        79.20819
407.11        78.47651
407.55        77.86568
408.00        78.03387
408.45        78.82635
408.90        79.41612
409.34        79.53182
409.79        79.13646
410.24        78.49395
410.68        78.29466
411.13        78.61388
411.58        79.03397
412.03        79.35098
412.47        79.41693
412.92        79.13191
413.37        78.60018
413.81         77.9462
414.26        77.43197
414.71        77.09029
415.15        76.86962
415.60         76.7441
416.05        76.72206
416.49        76.79308
416.94        76.96303
417.39        77.14807
417.83        77.18667
418.28        77.05342
418.73        76.77956
419.17        76.48853
419.62         76.4041
420.07        76.54353
420.51        76.80665
420.96        77.08401
421.41        77.09446
421.85        76.76024
422.30        76.45146
422.74        76.16158
423.19         75.5427
423.64        74.81657
424.08        74.99868
424.53        75.93147
424.98        76.38108
425.42        76.19719
425.87        76.26537
426.31        76.52767
426.76        76.01035
427.21        74.83795
427.65        74.80489
428.10        75.64283
428.54        75.68256
428.99        74.92427
429.44        74.23424
429.88         73.8615
430.33        73.92412
430.77        74.29098
431.22        75.01215
431.66        75.83011
432.11        75.60516
432.56        74.52794
433.00        74.43282
433.45        75.53561
433.89        75.57551
434.34        75.71816
434.78        76.79497
435.23        75.04403
435.67        74.35519
436.12        73.80494
436.57        73.84624
437.01        74.33897
437.46        74.63916
437.90        74.62673
438.35        74.92218
438.79         75.4309
439.24        75.63107
439.68        75.53701
440.13          75.549
440.57        75.69935
441.02        75.75048
441.46        75.66444
441.91        75.74857
442.35        75.78865
442.80        75.59422
443.24        75.17522
443.69        74.93567
444.13         74.8829
444.58        74.74947
445.02        74.48768
445.47        74.35652
445.91        74.40224
446.36        74.43519
446.80        74.39164
447.24        75.01007
447.69        75.05206
448.13        75.12284
448.58        75.17146
449.02        75.03028
449.47        74.87978
449.91        74.82629
450.36        74.92541
450.80          75.111
451.25        75.32468
451.69        75.43773
452.13        75.42819
452.58        75.37036
453.02        75.28721
453.47        75.22503
453.91        75.18223
454.36         75.2448
454.80        75.09359
455.24        75.26112
455.69        75.51437
456.13        75.47235
456.58        75.17731
457.02        74.53511
457.46        74.48976
457.91        74.33476
458.35        74.25827
458.79        74.13055
459.24        73.98008
459.68        73.93009
460.13        74.00673
460.57        73.90085
461.01        74.14719
461.46        74.10236
461.90        73.92321
462.34         74.3812
462.79        74.57522
463.23        74.45817
463.68        73.86171
464.12        73.48542
464.56        73.39127
465.01        73.16425
465.45        72.85283
465.89        72.89125
466.34         73.1675
466.78        73.32263
467.22        73.49902
467.67         72.7293
468.11        73.09363
468.55        72.71037
468.99        72.28006
469.44        72.01077
469.88        71.95309
470.32        72.03298
470.77         72.1325
471.21        72.14533
471.65        72.01931
472.10        71.79117
472.54         71.5871
472.98         71.5281
473.42        71.63721
473.87        71.92139
474.31        72.22654
474.75        72.16531
475.20        71.77867
475.64         71.6216
476.08        71.74015
476.52        71.50041
476.97        70.84273
477.41        71.25108
477.85        70.72609
478.29        70.60886
478.74        71.59935
479.18        71.74303
479.62        71.01929
480.06        70.87154
480.50        71.23172
480.95        70.99171
481.39        71.24924
481.83        70.95379
482.27        71.39057
482.72        71.30515
483.16        71.55026
483.60        71.61919
484.04        71.71545
484.48        71.72331
484.93         71.4825
485.37        71.51419
485.81        70.80819
486.25        69.68698
486.69         70.9005
487.14        70.78428
487.58        70.38538
488.02        70.77062
488.46        71.31583
488.90         71.3125
489.34        70.74844
489.79        71.24028
490.23        70.27303
490.67        70.30479
491.11        70.48066
491.55        70.32427
491.99        69.88075
492.43        69.74261
492.88        69.94545
493.32        70.16128
493.76        70.33164
494.20        70.51427
494.64        70.67397
495.08        70.83522
495.52        70.96143
495.96         70.8475
496.41        70.56464
496.85        70.53826
497.29        70.69282
497.73        70.66297
498.17        69.99964
498.61        70.06651
499.05        69.89187
499.49        69.95444
499.93        69.93351
500.37        69.92034
500.82        69.93321
501.26        69.77753
501.70        69.85017
502.14        69.97109
502.58        69.86738
503.02        69.93468
503.46        70.05859
503.90        70.21651
504.34         70.3734
504.78         70.4805
505.22        70.49087
505.66        70.49294
506.10        70.54296
506.54         70.4139
506.98        70.04816
507.42        70.71822
507.86        70.20641
508.30        70.11491
508.74          69.898
509.18        69.56805
509.62        69.25227
510.06        69.13739
510.50        69.27614
510.94         69.5904
511.38        69.95323
511.82        70.15201
512.26        70.12665
512.70        69.93959
513.14        69.69933
513.58        69.57682
514.02        69.61429
514.46        69.75079
514.90        69.91518
515.34        69.99529
515.78        69.95824
516.22        69.85004
516.66        69.70791
517.10        69.58149
517.54        69.48823
517.98        69.40963
518.42        69.34666
518.86        69.28723
519.30        69.22482
519.74        69.21915
520.18        69.25301
520.62        69.16393
521.06        69.01333
521.50         69.1081
521.93        69.39548
522.37        69.50806
522.81        69.42592
523.25        69.32393
523.69        69.28768
524.13        69.37602
524.57        69.60056
525.01        69.93333
525.45        70.24043
525.89        70.30502
526.32        70.07751
526.76        69.65598
527.20        69.18783
527.64        68.90707
528.08        68.87348
528.52        69.00896
528.96        69.21758
529.40        69.36687
529.83        69.40788
530.27         69.3094
530.71        69.25663
531.15         69.1909
531.59        69.17451
532.03        69.17588
532.46        69.16669
532.90         69.1352
533.34        69.07178
533.78        68.99817
534.22        68.93298
534.66        68.89948
535.09        68.89614
535.53        68.92359
535.97        68.96648
536.41        69.01704
536.85        69.06461
537.28        69.10423
537.72        69.11655
538.16        69.06603
538.60        68.95074
539.04        68.78861
539.47         68.6002
539.91        68.47282
540.35        68.40816
540.79        68.40338
541.22         68.4352
541.66         68.4745
542.10        68.50745
542.54         68.5471
542.97        68.60124
543.41        68.70306
543.85         68.8387
544.29        68.99758
544.72        69.11874
545.16         69.1373
545.60        69.03807
546.04        68.85503
546.47        68.65131
546.91        68.55466
547.35        68.58824
547.79        68.67694
548.22        68.75084
548.66        68.91453
549.10        69.15535
549.53        69.20846
549.97        68.95525
550.41        69.58024
550.84        68.99133
551.28        68.80756
551.72        68.45923
552.15        68.56482
552.59        68.28356
553.03        68.48651
553.46        68.53008
553.90        68.63776
554.34        68.66457
554.77         68.6982
555.21        68.73644
555.65        68.63855
556.08        68.47946
556.52        68.46721
556.96        68.58743
557.39        68.71808
557.83         68.8285
558.27        68.83422
558.70        68.77764
559.14        68.84428
559.57        68.98132
560.01        69.06997
560.45        69.07386
560.88        68.78336
561.32        68.61572
561.75        68.51209
562.19        68.57321
562.63        68.53149
563.06        68.39103
563.50        68.38835
563.93        68.47489
564.37        68.51192
564.80        68.46801
565.24        68.41783
565.68        68.37548
566.11        68.39504
566.55        68.48074
566.98        68.50352
567.42        68.52923
567.85        68.54369
568.29         68.5506
568.72        68.71614
569.16        69.12936
569.60        68.50718
570.03        68.95765
570.47        68.88008
570.90         68.9099
571.34        68.63187
571.77         68.8953
572.21        69.02003
572.64        69.17156
573.08        69.13232
573.51        68.90497
573.95        68.82101
574.38        69.10625
574.82        68.54449
