SpectraSmart Spectrum 2.9.0.0
--------- Device Information -----------
Spectrum Name :  反射率_0
Saving Time :  2024/04/30 00:25:45
Spectro-Module Model Name : SE2030-DUVN
Spectro-Module Serial Number : OS361AC55029948
Wavelength Start : 200
Wavelength End : 1025
Wavelength Unit : Wavelength(nm)
Spectrum Unit : Reflectance(%)
-----------Spectrum Setting ------------
Integration Time : 20ms
Average : 10
Boxcar : 0
Background removal :  enabled
linearity correction :  enabled
SC :  disabled
Intensity correction :  disabled
DWT denoise :  enabled
savitzky-golay :  disabled
FFT :  disabled
Running average :  disabled
Kalman :  disabled
High pass :  disabled
---------------BEGIN--------------------
Wavelength(nm)             Reflectance(%)
200.29               0
200.75        76.33163
201.21        63.89148
201.67        51.52386
202.13        42.87688
202.58        40.00144
203.04        42.41107
203.50        51.22999
203.96        67.83467
204.42        90.13992
204.88        114.8557
205.34        132.1297
205.80        130.3477
206.26        113.8016
206.72        92.56278
207.18        73.66566
207.64        60.25982
208.10         50.9387
208.55        43.23308
209.01        37.75145
209.47        37.51976
209.93        42.22879
210.39        49.85677
210.85        56.43502
211.31        58.68867
211.77        56.38155
212.23        48.99585
212.69        37.71366
213.14        31.79449
213.60        35.96275
214.06        45.63408
214.52        53.99637
214.98        56.37171
215.44        53.54664
215.90        47.44251
216.36        40.86499
216.81        39.16927
217.27        45.30441
217.73        59.42645
218.19        80.42677
218.65        97.42428
219.11        101.2648
219.57        94.75488
220.02        85.73587
220.48        80.73011
220.94        79.17651
221.40        79.09586
221.86        77.96438
222.32        71.33485
222.77        60.95589
223.23        52.47945
223.69         46.9638
224.15        43.63797
224.61         41.5629
225.06        39.94678
225.52        39.79361
225.98        42.57706
226.44        47.26502
226.90        52.13516
227.36         55.3685
227.81        55.83165
228.27        53.93934
228.73        50.04367
229.19        45.39572
229.65        42.97683
230.10        43.55615
230.56        45.76955
231.02        47.92263
231.48        48.52303
231.93        47.47696
232.39        45.41181
232.85        42.99787
233.31        41.52535
233.77        41.46342
234.22         42.5487
234.68        44.00492
235.14        44.46585
235.60        43.62867
236.05        42.00689
236.51        40.71598
236.97        41.20045
237.43        43.89707
237.88        48.94403
238.34        55.63567
238.80        61.28036
239.26        63.58216
239.71        62.85987
240.17        60.53267
240.63        59.22714
241.08         59.9966
241.54        62.77768
242.00        68.63238
242.46        77.34361
242.91        86.25032
243.37        92.60262
243.83         96.5363
244.28        101.0588
244.74        107.4737
245.20        115.0394
245.66        122.2032
246.11        125.2242
246.57        122.1092
247.03         114.969
247.48        105.6232
247.94        98.52712
248.40        96.25434
248.85        96.15501
249.31        98.08741
249.77        101.5391
250.22        106.9485
250.68        115.9591
251.14         127.105
251.59        127.7993
252.05        113.9143
252.51        97.11939
252.96        85.28274
253.42        80.02673
253.88        78.59842
254.33        79.33744
254.79        81.07108
255.25        81.03452
255.70        78.89155
256.16        76.62605
256.62        74.90319
257.07        74.03112
257.53        74.11539
257.99        74.41063
258.44        74.25938
258.90        73.62358
259.35        72.17618
259.81        70.71081
260.27        69.19403
260.72        67.56197
261.18        66.04762
261.63        64.34342
262.09        62.72611
262.55        61.21053
263.00         59.7729
263.46        58.60957
263.91        57.42986
264.37        56.21433
264.83        54.85018
265.28        53.31787
265.74        51.90917
266.19        50.83404
266.65        50.20216
267.11        49.86403
267.56        49.55677
268.02        48.91169
268.47        47.82206
268.93        46.41272
269.38        44.88003
269.84         43.6887
270.30        42.95913
270.75        42.55402
271.21        42.25818
271.66        41.71568
272.12        40.84692
272.57        39.73428
273.03        38.56319
273.48         37.5377
273.94        36.78285
274.39        36.18123
274.85        35.66245
275.31        35.05056
275.76        34.29145
276.22        33.47421
276.67        32.66763
277.13        32.06051
277.58        31.62925
278.04         31.3618
278.49        31.07384
278.95        30.60259
279.40        29.89419
279.86        29.09224
280.31        28.33569
280.77         27.9479
281.22        27.92347
281.68        28.16249
282.13        28.47011
282.59        28.63244
283.04        28.57217
283.50        28.36435
283.95        28.05278
284.41        27.72159
284.86        27.40059
285.32        27.11155
285.77        26.82895
286.22        26.59329
286.68        26.42397
287.13        26.28233
287.59        26.22446
288.04          26.267
288.50        26.41208
288.95         26.6092
289.41        26.78464
289.86        26.78788
290.32        26.63539
290.77        26.39168
291.22        26.16824
291.68        26.13354
292.13         26.3328
292.59        26.74368
293.04        27.37569
293.50        28.27358
293.95        29.41842
294.40        30.80658
294.86        32.30419
295.31        33.70759
295.77        34.96226
296.22        36.09905
296.68        37.26129
297.13        38.65883
297.58        40.33991
298.04        42.20012
298.49        44.09235
298.95        45.80149
299.40        47.26977
299.85        48.58339
300.31        49.86562
300.76        51.22179
301.21        52.73235
301.67         54.3913
302.12        56.13348
302.58        58.00896
303.03        59.97283
303.48        61.94724
303.94        63.95935
304.39        66.36197
304.84        68.53387
305.30        70.92558
305.75        73.19558
306.20        75.17982
306.66        76.85834
307.11        78.23447
307.57        79.49791
308.02        80.80825
308.47         82.2579
308.93        83.80312
309.38        85.33319
309.83         86.7495
310.29        88.02047
310.74        89.17212
311.19        90.21273
311.65        91.13667
312.10        91.94159
312.55        92.64494
313.00        93.34466
313.46        94.20217
313.91        95.22105
314.36        96.35259
314.82        97.46586
315.27        98.37281
315.72        98.99914
316.18        99.41131
316.63        99.65515
317.08        99.82236
317.53        99.97559
317.99        100.1227
318.44        100.3004
318.89        100.5825
319.35        100.9765
319.80        101.4593
320.25        102.0227
320.70        102.6444
321.16         103.263
321.61        103.9153
322.06        104.4563
322.51        104.6808
322.97        104.5553
323.42         104.157
323.87        103.6874
324.32        103.4903
324.78        103.6373
325.23        104.1111
325.68        104.7228
326.13        105.1431
326.59        105.2574
327.04        105.1891
327.49        105.1125
327.94        105.3643
328.39        106.0092
328.85        106.8803
329.30           107.8
329.75        108.2645
330.20        108.1488
330.66        107.6086
331.11        106.9526
331.56        106.5977
332.01        106.7014
332.46        107.1609
332.92        107.8293
333.37        108.5987
333.82        109.3264
334.27        110.0436
334.72        110.7468
335.17         111.429
335.63        112.0465
336.08        112.6288
336.53        113.0587
336.98        113.2364
337.43        113.1653
337.88        112.8971
338.34        112.6225
338.79         112.655
339.24        113.0637
339.69        113.7947
340.14        114.6359
340.59        115.2125
341.05         115.435
341.50        115.4113
341.95        115.3495
342.40        115.6065
342.85        116.2424
343.30        117.0885
343.75        117.9457
344.20        118.5049
344.66        118.6964
345.11        118.6627
345.56        118.4498
346.01        118.1188
346.46        117.7572
346.91        117.3553
347.36        117.1488
347.81        117.4998
348.26         118.419
348.72        119.7549
349.17        121.1486
349.62        121.9092
350.07        121.8617
350.52        121.2469
350.97        120.3771
351.42        119.7403
351.87        119.5022
352.32        119.5072
352.77        119.7604
353.22        120.2744
353.67        120.9644
354.13        121.7883
354.58        122.4941
355.03         122.658
355.48        122.1857
355.93        121.1979
356.38         119.903
356.83        118.6419
357.28        117.5433
357.73        116.5452
358.18        115.6554
358.63        114.8697
359.08        114.1731
359.53        113.5926
359.98        113.0686
360.43        112.4834
360.88        111.8094
361.33        111.0646
361.78        110.2948
362.23        109.5879
362.68        108.9625
363.13        108.3825
363.58        107.8217
364.03        107.2385
364.48        106.6192
364.93        105.9861
365.38        105.3351
365.83        104.6605
366.28        103.9725
366.73        103.2687
367.18        102.5911
367.63        102.0059
368.08        101.5098
368.53        101.0747
368.98        100.6286
369.43        100.0488
369.88         99.3241
370.33         98.5238
370.78        97.70575
371.23        96.97073
371.68         96.3536
372.13        95.79272
372.58        95.34841
373.03        95.11506
373.48        95.06159
373.93        95.14876
374.38        95.11827
374.83        94.55441
375.28        93.42017
375.72        91.86654
376.17        90.32408
376.62        89.26459
377.07        88.78616
377.52        88.72192
377.97        88.87745
378.42        88.93031
378.87        88.75771
379.32        88.45071
379.77        88.03671
380.22        87.54853
380.67        87.00402
381.11        86.37498
381.56        85.69456
382.01         85.0564
382.46         84.5089
382.91        84.06881
383.36        83.71038
383.81        83.37289
384.26        83.03397
384.71        82.69163
385.15         82.3762
385.60         82.1957
386.05        82.12373
386.50        82.11702
386.95         82.0462
387.40        81.72221
387.85        81.14132
388.29        80.35181
388.74        79.61465
389.19        79.07397
389.64        78.75666
390.09        78.57664
390.54        78.48366
390.98        78.38055
391.43        78.26377
391.88        78.15349
392.33        77.96468
392.78        77.64744
393.23        77.22482
393.67        76.55566
394.12        75.84141
394.57        75.88147
395.02        75.60138
395.47        75.80934
395.91         76.0583
396.36        76.12052
396.81        75.93784
397.26         75.5974
397.71        75.18376
398.15        74.75047
398.60        74.41497
399.05        74.13187
399.50        73.89233
399.95        73.69297
400.39        73.30292
400.84        73.44498
401.29        73.87234
401.74        73.88721
402.18        73.42007
402.63        72.80356
403.08        72.28929
403.53        72.10584
403.97        72.29234
404.42        72.74606
404.87        73.23276
405.32        73.32707
405.76        72.92677
406.21        72.36577
406.66        71.76326
407.11        70.99038
407.55        70.33127
408.00         70.3898
408.45        71.05509
408.90        71.68056
409.34        71.97007
409.79        71.66883
410.24        71.01804
410.68        70.83289
411.13         71.1856
411.58        71.57917
412.03        71.82529
412.47          71.854
412.92        71.58517
413.37        71.09558
413.81        70.52201
414.26        70.14162
414.71        69.98107
415.15        69.97536
415.60        70.05507
416.05        70.14669
416.49        70.21687
416.94        70.29966
417.39        70.34338
417.83         70.2407
418.28        69.99673
418.73        69.64117
419.17        69.31487
419.62        69.26108
420.07        69.49162
420.51        69.89737
420.96        70.34566
421.41        70.49397
421.85        70.25017
422.30        70.05198
422.74        69.86537
423.19        69.18302
423.64        68.28037
424.08        68.41379
424.53        69.44317
424.98        69.95567
425.42        69.79595
425.87        69.95586
426.31        70.36035
426.76        69.98777
427.21        68.94708
427.65        68.95455
428.10        69.73064
428.54        69.85226
428.99        68.83661
429.44        68.34542
429.88        68.33293
430.33        68.51643
430.77        68.75798
431.22        69.14917
431.66        69.54417
432.11        69.48042
432.56        69.01746
433.00        68.81054
433.45        69.13028
433.89        69.49326
434.34        69.58736
434.78         71.5667
435.23        69.14853
435.67        68.42567
436.12        67.92326
436.57        68.06841
437.01        68.66225
437.46        69.26772
437.90        69.07043
438.35        69.37291
438.79        69.88593
439.24        70.04341
439.68        69.86361
440.13        69.77086
440.57        69.81664
441.02        69.81388
441.46        69.74712
441.91        69.80768
442.35        69.87797
442.80        69.85515
443.24        69.89414
443.69        69.71819
444.13        69.44154
444.58         69.2792
445.02        69.19662
445.47        69.17836
445.91        69.22186
446.36        69.19471
446.80        69.03431
447.24        69.48547
447.69        69.35868
448.13        69.35231
448.58        69.46461
449.02        69.44302
449.47        69.44022
449.91        69.51961
450.36        69.71279
450.80         69.9575
451.25        70.19553
451.69        70.31065
452.13        70.28226
452.58        70.17393
453.02        70.02853
453.47        69.90894
453.91        69.82313
454.36        69.90482
454.80        69.81629
455.24        69.91013
455.69        70.04482
456.13        70.04037
456.58        69.90919
457.02        69.73001
457.46        69.54636
457.91        69.36049
458.35        69.16176
458.79        69.04224
459.24        69.05226
459.68        69.09222
460.13        69.10313
460.57        69.37167
461.01        69.24575
461.46        69.07734
461.90        68.78689
462.34        69.04137
462.79        69.62891
463.23        69.50218
463.68        68.75952
464.12        68.42884
464.56         68.5726
465.01        68.60147
465.45        68.44012
465.89        68.45806
466.34        68.62197
466.78        68.56035
467.22        68.51817
467.67        68.41926
468.11        68.37227
468.55        68.26411
468.99        68.11327
469.44        67.96377
469.88        67.82371
470.32        67.70547
470.77        67.60804
471.21        67.55257
471.65        67.52641
472.10        67.53442
472.54        67.57259
472.98        67.65429
473.42        67.76254
473.87        67.94868
474.31        68.11943
474.75        68.01816
475.20        67.71275
475.64        67.58495
476.08        67.66712
476.52        67.54564
476.97        67.19644
477.41        67.25919
477.85        67.25481
478.29        66.85184
478.74        67.55046
479.18        67.42445
479.62        67.05289
480.06        66.97565
480.50        67.24129
480.95        67.18414
481.39        67.83047
481.83        67.28409
482.27        68.00819
482.72        67.72674
483.16        67.95944
483.60        67.89097
484.04        68.16061
484.48        68.28034
484.93        68.10519
485.37         68.3866
485.81        67.35792
486.25        66.33173
486.69        67.59801
487.14        67.31261
487.58        67.03032
488.02        67.18465
488.46        67.70745
488.90        68.04346
489.34        67.08802
489.79         67.9744
490.23        67.38974
490.67        67.58128
491.11        67.59636
491.55        67.36603
491.99        66.99239
492.43        66.89055
492.88        67.11447
493.32        67.42904
493.76        67.75038
494.20        68.02905
494.64        68.19572
495.08        68.37658
495.52         68.5729
495.96        68.34949
496.41        67.77557
496.85        68.14087
497.29        68.40392
497.73        68.05176
498.17        67.70625
498.61        67.57851
499.05        67.26664
499.49        67.31245
499.93        67.45082
500.37        67.51578
500.82        67.47302
501.26        67.50648
501.70        67.61025
502.14        67.63714
502.58        67.61124
503.02        67.65292
503.46        67.77113
503.90        67.91758
504.34        68.06804
504.78        68.17819
505.22        68.21261
505.66        68.23269
506.10        68.23909
506.54        68.09573
506.98        67.84724
507.42        68.03027
507.86        67.40206
508.30        67.68803
508.74        67.29842
509.18        67.25562
509.62         67.2225
510.06        67.29974
510.50        67.48888
510.94        67.76495
511.38        68.04049
511.82        68.14194
512.26        68.04374
512.70        67.76936
513.14        67.42931
513.58        67.28345
514.02        67.39751
514.46          67.369
514.90        67.71788
515.34        67.80762
515.78        67.77636
516.22        67.65093
516.66        67.51073
517.10        67.46386
517.54        67.52873
517.98        67.67265
518.42         67.8097
518.86        67.80891
519.30        67.64616
519.74        67.36985
520.18        67.08543
520.62        66.94875
521.06        66.99953
521.50        67.20024
521.93        67.45636
522.37        67.58947
522.81        67.56205
523.25         67.4147
523.69         67.2581
524.13        67.26439
524.57        67.46005
525.01        67.78143
525.45        68.08636
525.89        68.14811
526.32        67.91344
526.76        67.49114
527.20        67.02849
527.64        66.75307
528.08        66.72097
528.52        66.85658
528.96        67.07224
529.40        67.22832
529.83        67.27219
530.27        67.25793
530.71         67.2012
531.15        67.13017
531.59        67.06103
532.03        66.97854
532.46        66.89034
532.90        66.84367
533.34        66.83872
533.78        66.87114
534.22        66.92162
534.66        66.95527
535.09        66.95596
535.53        66.94511
535.97        66.92303
536.41        66.90691
536.85        66.89978
537.28        66.88989
537.72          66.871
538.16        66.82977
538.60        66.76275
539.04        66.67825
539.47          66.571
539.91         66.4855
540.35        66.41438
540.79        66.36772
541.22        66.33543
541.66        66.31239
542.10        66.29568
542.54        66.29122
542.97        66.31763
543.41        66.42444
543.85        66.60179
544.29        66.83503
544.72        67.03903
545.16        67.13011
545.60        67.08206
546.04        66.87587
546.47         66.6181
546.91        66.60783
547.35         66.8385
547.79        67.01933
548.22        67.07065
548.66        67.23627
549.10        67.50593
549.53        67.53626
549.97          67.224
550.41        67.80947
550.84        67.26773
551.28        67.09371
551.72         66.7384
552.15          66.953
552.59        66.85694
553.03        66.97208
553.46         66.8129
553.90        66.83529
554.34        66.95036
554.77        67.03385
555.21        67.07852
555.65        67.10929
556.08        67.12546
556.52        67.13728
556.96        67.16061
557.39        67.29449
557.83        67.52075
558.27        67.64176
558.70        67.66375
559.14        67.76055
559.57        67.87009
560.01        67.88418
560.45        67.80431
560.88        67.48951
561.32        67.37715
561.75        67.39337
562.19        67.54497
562.63        67.71231
563.06        67.26397
563.50        67.18267
563.93        67.27415
564.37        67.32382
564.80          67.306
565.24        67.39167
565.68        67.52834
566.11        67.56192
566.55        67.50069
566.98        67.37145
567.42        67.30153
567.85        67.27673
568.29        67.30994
568.72        67.62693
569.16        68.26634
569.60        67.73687
570.03        68.03412
570.47        68.17256
570.90        68.05185
571.34        67.66707
571.77        67.83622
572.21        67.78522
572.64        67.80084
573.08        67.74184
573.51        67.63683
573.95        67.95152
574.38        68.33239
574.82        68.03468
