SpectraSmart Spectrum 2.9.0.0
--------- Device Information -----------
Spectrum Name :  反射率_0
Saving Time :  2024/04/30 00:06:09
Spectro-Module Model Name : SE2030-DUVN
Spectro-Module Serial Number : OS361AC55029948
Wavelength Start : 200
Wavelength End : 1025
Wavelength Unit : Wavelength(nm)
Spectrum Unit : Reflectance(%)
-----------Spectrum Setting ------------
Integration Time : 20ms
Average : 10
Boxcar : 0
Background removal :  enabled
linearity correction :  enabled
SC :  disabled
Intensity correction :  disabled
DWT denoise :  enabled
savitzky-golay :  disabled
FFT :  disabled
Running average :  disabled
Kalman :  disabled
High pass :  disabled
---------------BEGIN--------------------
Wavelength(nm)             Reflectance(%)
200.29               0
200.75        77.87672
201.21        75.52867
201.67        73.20067
202.13        69.20464
202.58        63.10434
203.04        54.77815
203.50        47.12318
203.96        47.10357
204.42        56.70115
204.88        73.11475
205.34        88.54756
205.80        91.84525
206.26        84.03384
206.72        72.43844
207.18        61.50551
207.64        53.25032
208.10        47.08198
208.55        41.45893
209.01        37.20119
209.47        37.44736
209.93        42.06816
210.39        49.05839
210.85        55.31024
211.31        58.53817
211.77        58.80204
212.23        56.06589
212.69        51.01023
213.14        48.50039
213.60        50.44718
214.06        54.86084
214.52        58.22781
214.98        57.88303
215.44        54.31399
215.90        48.74187
216.36        43.18898
216.81        41.62672
217.27        46.35701
217.73        57.45702
218.19        74.72695
218.65        90.81873
219.11        97.73839
219.57        95.92137
220.02        90.23045
220.48        85.43652
220.94        81.19778
221.40        75.98533
221.86        67.97992
222.32        57.16353
222.77        47.70107
223.23        42.33365
223.69        40.23762
224.15        40.00508
224.61        40.82932
225.06        42.37858
225.52        44.69868
225.98        46.92843
226.44        48.25125
226.90        48.82316
227.36        48.32798
227.81        46.39269
228.27        43.12072
228.73        38.42794
229.19        33.67271
229.65        32.01332
230.10        33.92263
230.56        37.66639
231.02        41.02787
231.48        42.07466
231.93        40.81622
232.39        38.04211
232.85        34.76838
233.31        32.94587
233.77        33.26028
234.22         35.2606
234.68        37.95807
235.14         39.4917
235.60        39.35854
236.05        38.24975
236.51        37.33535
236.97        38.19285
237.43        41.36625
237.88        46.91488
238.34        54.41394
238.80        61.65047
239.26        66.24995
239.71        68.16811
240.17        68.04604
240.63        67.83021
241.08        68.47813
241.54        69.49968
242.00        71.70039
242.46         76.3996
242.91        83.76307
243.37        92.28316
243.83        99.77661
244.28        105.8278
244.74        111.2128
245.20        115.2666
245.66        119.0751
246.11        125.0016
246.57        133.1266
247.03        144.3639
247.48        152.0565
247.94        143.2562
248.40        122.7061
248.85        100.5631
249.31        85.69114
249.77        80.59438
250.22        83.82211
250.68        95.38158
251.14        115.0527
251.59        127.0124
252.05        119.5618
252.51        104.8849
252.96        93.01965
253.42        87.51168
253.88        86.01041
254.33        86.16269
254.79        87.31505
255.25        87.84856
255.70        87.02208
256.16        86.14532
256.62          85.163
257.07        83.80835
257.53        82.49239
257.99        80.92384
258.44        78.86282
258.90        76.98803
259.35        75.11036
259.81        73.65352
260.27        72.46163
260.72        71.40668
261.18        70.61177
261.63        69.69416
262.09        68.68782
262.55        67.24918
263.00        65.39842
263.46        63.57604
263.91        61.73777
264.37        60.17394
264.83        58.79038
265.28         57.4519
265.74        56.35342
266.19         55.5467
266.65        55.09036
267.11        54.86663
267.56        54.63892
268.02        54.08626
268.47        53.09871
268.93        51.76838
269.38        50.23227
269.84        48.87352
270.30         47.8107
270.75        46.95795
271.21        46.19304
271.66        45.26684
272.12         44.1319
272.57        42.85187
273.03        41.57767
273.48        40.45093
273.94        39.58525
274.39        38.87757
274.85        38.29594
275.31        37.70644
275.76        37.05133
276.22        36.39809
276.67        35.74573
277.13        35.20245
277.58        34.72221
278.04        34.30841
278.49        33.85423
278.95        33.31638
279.40        32.65066
279.86        31.97565
280.31        31.30205
280.77        30.77258
281.22        30.37181
281.68        30.08156
282.13        29.89465
282.59        29.86053
283.04           29.93
283.50        30.08901
283.95         30.1851
284.41        30.00372
284.86        29.52608
285.32        28.89555
285.77        28.26832
286.22        27.94811
286.68        27.99811
287.13        28.26715
287.59        28.68674
288.04        29.08542
288.50        29.40542
288.95        29.65166
289.41        29.79208
289.86        29.72992
290.32        29.50898
290.77        29.17533
291.22        28.85193
291.68        28.73051
292.13        28.87022
292.59        29.26689
293.04        29.92787
293.50        30.88843
293.95        32.12521
294.40        33.63113
294.86        35.28302
295.31        36.89474
295.77        38.40187
296.22        39.81466
296.68         41.2279
297.13        42.77957
297.58        44.50347
298.04        46.31806
298.49         48.1227
298.95        49.77934
299.40        51.25412
299.85        52.62009
300.31        53.97758
300.76        55.39041
301.21        56.92733
301.67        58.59084
302.12        60.33517
302.58        62.24088
303.03        64.25661
303.48        66.29742
303.94        68.34762
304.39        70.64652
304.84        72.64581
305.30        74.76935
305.75         76.7571
306.20        78.53636
306.66        80.11781
307.11        81.48251
307.57        82.78623
308.02        84.12977
308.47         85.5911
308.93        87.13998
309.38        88.68891
309.83        90.17806
310.29        91.57612
310.74        92.88353
311.19        94.06556
311.65        95.05501
312.10        95.83847
312.55        96.45982
313.00         97.0582
313.46        97.85926
313.91        98.88578
314.36        100.0703
314.82        101.2657
315.27        102.2577
315.72        102.9569
316.18        103.4349
316.63        103.7312
317.08        103.9253
317.53        104.0828
317.99        104.2229
318.44        104.3876
318.89        104.6609
319.35        105.0602
319.80        105.5596
320.25        106.1826
320.70        106.9561
321.16        107.8173
321.61         108.783
322.06        109.6381
322.51        110.0569
322.97        109.9759
323.42        109.5115
323.87        108.9239
324.32         108.658
324.78        108.8152
325.23        109.3446
325.68        110.0534
326.13        110.6045
326.59        110.8641
327.04        110.9652
327.49        111.0202
327.94         111.263
328.39         111.745
328.85        112.3273
329.30        112.9345
329.75        113.2398
330.20        113.1728
330.66         112.839
331.11         112.472
331.56        112.3585
332.01        112.6111
332.46        113.1637
332.92        113.8766
333.37        114.6646
333.82        115.3963
334.27        116.0878
334.72        116.7631
335.17        117.4716
335.63        118.1776
336.08        118.9017
336.53        119.4887
336.98        119.7682
337.43         119.725
337.88        119.4371
338.34          119.11
338.79        119.0829
339.24        119.4396
339.69        120.1146
340.14        120.9312
340.59        121.5708
341.05        121.9506
341.50          122.17
341.95         122.359
342.40        122.7506
342.85         123.382
343.30        124.1131
343.75        124.8462
344.20        125.4413
344.66        125.8568
345.11        126.1715
345.56         126.307
346.01        126.1263
346.46        125.6735
346.91        125.0139
347.36        124.4884
347.81        124.6099
348.26        125.4378
348.72        126.7826
349.17          128.25
349.62        129.0858
350.07        129.0869
350.52        128.5051
350.97        127.6751
351.42        127.1182
351.87        126.9941
352.32        127.1225
352.77        127.4439
353.22        127.8737
353.67        128.3206
354.13        128.7933
354.58        129.1299
355.03         129.048
355.48        128.4968
355.93        127.5545
356.38        126.3953
356.83        125.3027
357.28        124.3715
357.73        123.5476
358.18        122.7953
358.63        122.0445
359.08        121.2695
359.53        120.5066
359.98        119.7543
360.43        118.9975
360.88        118.2332
361.33        117.4552
361.78         116.661
362.23        115.8549
362.68        115.0422
363.13        114.2285
363.58        113.4295
364.03        112.6668
364.48        111.9436
364.93        111.2506
365.38        110.5801
365.83        109.9229
366.28        109.2749
366.73         108.638
367.18        107.9994
367.63        107.3359
368.08        106.6401
368.53         105.917
368.98        105.1892
369.43        104.4914
369.88         103.846
370.33        103.2649
370.78        102.7264
371.23        102.1973
371.68        101.6617
372.13        101.0946
372.58        100.5616
373.03        100.1693
373.48        99.90677
373.93        99.73183
374.38        99.44254
374.83        98.72264
375.28        97.55727
375.72        96.07199
376.17        94.63899
376.62         93.6293
377.07        93.11586
377.52        92.95973
377.97        92.99609
378.42        92.95475
378.87        92.73264
379.32        92.40278
379.77        91.98197
380.22         91.4907
380.67        90.93887
381.11        90.29939
381.56        89.60675
382.01        88.95572
382.46        88.39137
382.91        87.92744
383.36        87.51947
383.81        87.08047
384.26        86.58799
384.71        86.05298
385.15        85.54239
385.60        85.22062
386.05        85.07752
386.50        85.06016
386.95        85.00907
387.40        84.68741
387.85        84.07858
388.29        83.23779
388.74        82.46481
389.19        81.95286
389.64        81.73878
390.09        81.72029
390.54        81.78609
390.98        81.77217
391.43        81.66193
391.88        81.40343
392.33        81.01009
392.78        80.77416
393.23        80.61029
393.67         79.9128
394.12        78.93331
394.57        78.81483
395.02        78.42511
395.47          78.835
395.91         78.7866
396.36        78.83821
396.81        78.70583
397.26        78.46234
397.71         78.1596
398.15        77.84141
398.60        77.63087
399.05        77.39777
399.50        77.16417
399.95        77.16655
400.39        77.06917
400.84        77.15104
401.29        77.21317
401.74        77.07054
402.18         76.6988
402.63        76.14632
403.08        75.61063
403.53        75.35608
403.97         75.4149
404.42        75.69533
404.87        76.00489
405.32        75.98557
405.76        75.54756
406.21        74.98838
406.66        74.42854
407.11        73.72581
407.55        73.13463
408.00        73.33202
408.45        74.14663
408.90        74.59319
409.34         74.4984
409.79        74.23563
410.24        73.99944
410.68        74.01056
411.13        74.31581
411.58         74.7639
412.03        75.17051
412.47        75.29098
412.92        75.03207
413.37        74.52185
413.81        73.90154
414.26        73.45809
414.71        73.22753
415.15        73.14268
415.60        73.15575
416.05        73.23483
416.49        73.35603
416.94        73.54025
417.39        73.70668
417.83        73.70541
418.28        73.51977
418.73        73.17223
419.17        72.82823
419.62          72.778
420.07         73.0569
420.51        73.55348
420.96        74.07179
421.41        74.25503
421.85        74.01909
422.30        73.57433
422.74        73.04221
423.19        72.70736
423.64        72.60191
424.08        72.65143
424.53        72.80765
424.98        73.03324
425.42        73.27953
425.87         73.6703
426.31         74.0536
426.76        73.83702
427.21        73.01028
427.65        72.80853
428.10        73.12372
428.54        73.00561
428.99        72.53783
429.44        72.18713
429.88        72.05289
430.33        72.34077
430.77        72.92245
431.22        73.07588
431.66         73.8195
432.11        73.55144
432.56        72.77941
433.00        72.27791
433.45        72.37164
433.89        72.88476
434.34        73.44939
434.78         74.8216
435.23         72.5942
435.67        71.76768
436.12        71.43143
436.57        71.71329
437.01        72.37163
437.46        73.14137
437.90        72.88526
438.35        73.12124
438.79        73.60406
439.24        73.73935
439.68        73.56647
440.13        73.60715
440.57        73.91036
441.02        73.97379
441.46        73.70889
441.91        74.44032
442.35        74.03014
442.80        74.27848
443.24        74.54746
443.69        74.33324
444.13        73.75387
444.58        73.45727
445.02        73.44042
445.47         73.4596
445.91        73.47756
446.36        73.42043
446.80        73.22142
447.24        73.55524
447.69        73.32071
448.13        73.36085
448.58        73.38563
449.02         73.4846
449.47        73.65495
449.91        73.80257
450.36        73.93515
450.80        74.06242
451.25        74.18898
451.69        74.26254
452.13        74.28915
452.58        74.32046
453.02        74.32593
453.47        74.27679
453.91        74.15594
454.36        74.06142
454.80        73.77776
455.24         73.9348
455.69        74.28419
456.13        74.48512
456.58        74.57684
457.02        73.56902
457.46        73.70997
457.91        73.45602
458.35        73.37581
458.79        73.27264
459.24        73.22258
459.68        73.19845
460.13        73.11777
460.57        73.49748
461.01        73.56602
461.46        73.06835
461.90        72.98071
462.34        73.37309
462.79        73.62468
463.23        73.43969
463.68        72.69157
464.12        72.25816
464.56        72.18908
465.01         72.0601
465.45        71.83571
465.89        71.76267
466.34        71.84711
466.78        72.07698
467.22        72.31491
467.67        72.36926
468.11        72.20949
468.55        71.89152
468.99        71.52923
469.44        71.26875
469.88        71.15775
470.32         71.1722
470.77        71.24091
471.21        71.27032
471.65        71.21132
472.10        71.10782
472.54        71.00616
472.98        70.97225
473.42        71.00545
473.87        71.21049
474.31        71.45467
474.75        71.25166
475.20        70.75471
475.64        70.73983
476.08         71.1487
476.52         71.1776
476.97        70.79118
477.41        70.56657
477.85        70.44949
478.29        70.14498
478.74        70.77737
479.18        70.66547
479.62        70.24815
480.06        70.09571
480.50        70.23911
480.95        70.06019
481.39        70.68842
481.83         69.8948
482.27        70.45771
482.72        70.49305
483.16        70.58977
483.60        70.45008
484.04         70.8598
484.48        71.32144
484.93        71.72867
485.37        71.25011
485.81        69.83346
486.25         68.8708
486.69        69.84362
487.14        69.73397
487.58        70.04189
488.02        69.77243
488.46        69.76863
488.90        70.21534
489.34        69.80238
489.79         70.2271
490.23        69.19292
490.67        69.20613
491.11        69.58638
491.55        69.45167
491.99        68.89887
492.43        68.78194
492.88        69.14608
493.32        69.54749
493.76        69.86489
494.20        70.11342
494.64        70.24296
495.08        70.26234
495.52        70.19628
495.96        70.03877
496.41        69.87349
496.85        69.85361
497.29        69.84401
497.73        69.93783
498.17         69.7662
498.61        69.39466
499.05        68.90741
499.49        69.08256
499.93        69.72171
500.37        69.70229
500.82        69.09042
501.26        68.84098
501.70        68.96794
502.14        69.31759
502.58        69.08635
503.02        69.15142
503.46        69.27856
503.90         69.4159
504.34         69.5373
504.78        69.61707
505.22        69.64442
505.66        69.62733
506.10         69.5736
506.54         69.5156
506.98        69.46494
507.42        69.48917
507.86        69.14566
508.30         69.4191
508.74        68.93275
509.18        68.74561
509.62        68.55302
510.06        68.50323
510.50        68.61089
510.94        68.84391
511.38        69.13046
511.82        69.31553
512.26        69.35616
512.70        69.29037
513.14        69.17093
513.58        69.08259
514.02         69.0522
514.46        69.05326
514.90        69.06364
515.34        69.05241
515.78        69.01036
516.22        68.95213
516.66        68.89744
517.10        68.86906
517.54        68.87057
517.98        68.89542
518.42        68.91381
518.86        68.87555
519.30        68.77363
519.74        68.63906
520.18        68.52057
520.62         68.4548
521.06        68.47696
521.50        68.65376
521.93        68.91293
522.37        69.03899
522.81        69.00527
523.25        68.88692
523.69        68.77753
524.13        68.80286
524.57        68.98482
525.01        69.27566
525.45        69.55708
525.89        69.63902
526.32        69.47208
526.76        69.14598
527.20         68.7766
527.64        68.54784
528.08          68.507
528.52        68.59039
528.96         68.7285
529.40        68.82573
529.83        68.83399
530.27        68.76501
530.71        68.65076
531.15        68.57307
531.59        68.54853
532.03        68.53903
532.46        68.51494
532.90        68.47122
533.34        68.40041
533.78        68.31907
534.22        68.25302
534.66        68.23711
535.09        68.27089
535.53        68.35246
535.97        68.45139
536.41        68.53586
536.85        68.58911
537.28        68.60944
537.72         68.5977
538.16        68.55178
538.60        68.47405
539.04        68.37089
539.47        68.23264
539.91        68.10005
540.35        67.96922
540.79        67.85629
541.22        67.77179
541.66        67.74182
542.10        67.76452
542.54        67.83025
542.97        67.92785
543.41        68.05951
543.85        68.20422
544.29        68.36956
544.72        68.48286
545.16        68.47162
545.60         68.3257
546.04        68.04208
546.47        67.73991
546.91        67.71739
547.35         67.9678
547.79        68.20908
548.22        68.32474
548.66        68.50287
549.10        68.72185
549.53        68.63914
549.97        68.20148
550.41        68.75369
550.84        68.25272
551.28        68.19199
551.72        67.95077
552.15        68.15262
552.59        67.94264
553.03        67.95557
553.46        67.95155
553.90        67.97482
554.34         68.0047
554.77        68.08364
555.21        68.19573
555.65        68.15665
556.08        68.01736
556.52        68.10754
556.96        68.37649
557.39        68.52499
557.83        68.52856
558.27        68.49166
558.70        68.47213
559.14        68.37406
559.57        68.51791
560.01        68.50286
560.45        68.44463
560.88        68.21093
561.32        68.17339
561.75        68.18711
562.19        68.29269
562.63        68.08696
563.06        67.67425
563.50        67.64873
563.93        67.94191
564.37        68.11672
564.80        68.08308
565.24        67.96388
565.68        67.80148
566.11        67.73956
566.55        67.80947
566.98        67.82476
567.42        67.85862
567.85         67.9571
568.29        68.08833
568.72        68.32719
569.16        68.76518
569.60        68.10974
570.03        68.45522
570.47        68.37053
570.90        68.52453
571.34        67.82545
571.77        68.29893
572.21        68.33503
572.64        68.43472
573.08        68.40487
573.51        68.30761
573.95        68.11393
574.38        68.61981
574.82        68.23242
