SpectraSmart Spectrum 2.9.0.0
--------- Device Information -----------
Spectrum Name :  反射率_0
Saving Time :  2024/04/30 00:24:23
Spectro-Module Model Name : SE2030-DUVN
Spectro-Module Serial Number : OS361AC55029948
Wavelength Start : 200
Wavelength End : 1025
Wavelength Unit : Wavelength(nm)
Spectrum Unit : Reflectance(%)
-----------Spectrum Setting ------------
Integration Time : 20ms
Average : 10
Boxcar : 0
Background removal :  enabled
linearity correction :  enabled
SC :  disabled
Intensity correction :  disabled
DWT denoise :  enabled
savitzky-golay :  disabled
FFT :  disabled
Running average :  disabled
Kalman :  disabled
High pass :  disabled
---------------BEGIN--------------------
Wavelength(nm)             Reflectance(%)
200.29               0
200.75        62.01345
201.21        54.05753
201.67        46.40205
202.13         40.2698
202.58        36.46792
203.04        34.68597
203.50        36.81997
203.96        46.58537
204.42        63.63991
204.88        85.18411
205.34        101.6081
205.80        100.6992
206.26        86.07996
206.72        67.37408
207.18        51.47387
207.64        41.98402
208.10        37.60477
208.55        35.77652
209.01        36.26381
209.47        39.30334
209.93        43.64571
210.39        48.73548
210.85        52.23803
211.31        52.02765
211.77        47.85286
212.23        38.75316
212.69        26.06501
213.14        20.05066
213.60        25.77225
214.06        37.67448
214.52        48.31538
214.98        52.90886
215.44        52.38545
215.90        48.81054
216.36        44.35345
216.81        43.06382
217.27        47.16195
217.73        56.25855
218.19        69.91333
218.65        81.86699
219.11        85.92203
219.57        83.29704
220.02        77.90627
220.48        73.12844
220.94        68.50613
221.40        62.65739
221.86        54.67752
222.32        46.40671
222.77        41.15657
223.23        39.53484
223.69        39.79633
224.15        40.42689
224.61        41.13072
225.06        42.10703
225.52        43.54527
225.98        45.06177
226.44        46.20241
226.90        46.80524
227.36        47.01157
227.81        47.05495
228.27        47.02195
228.73        46.82408
229.19        46.48662
229.65        46.10343
230.10         45.7703
230.56        45.62267
231.02        45.47042
231.48        45.11583
231.93        44.48407
232.39        43.69209
232.85        42.97144
233.31        42.84048
233.77        43.45152
234.22        44.79562
234.68        46.34301
235.14         47.1208
235.60        46.93999
236.05        46.10405
236.51        45.52485
236.97        46.46846
237.43        49.36747
237.88        54.45273
238.34        61.19669
238.80        67.35099
239.26        70.72366
239.71        71.34173
240.17        70.19245
240.63        69.53403
241.08        70.33058
241.54         72.2934
242.00        75.93237
242.46        80.50778
242.91         84.2216
243.37        86.04458
243.83        86.88763
244.28        88.63458
244.74        91.71506
245.20        95.44056
245.66        99.17275
246.11         101.334
246.57        100.9445
247.03        99.32584
247.48        95.58115
247.94        88.72027
248.40        81.65018
248.85         75.6904
249.31         73.1757
249.77        74.72702
250.22        80.51432
250.68        92.22122
251.14        109.8417
251.59        119.7574
252.05        112.4332
252.51        98.42541
252.96        87.64755
253.42        83.94128
253.88        84.98248
254.33        88.63762
254.79        93.05765
255.25        93.90276
255.70        90.76099
256.16        87.01561
256.62         84.0624
257.07         82.5294
257.53        82.55453
257.99        83.23678
258.44         83.8116
258.90        84.10485
259.35        83.53432
259.81         82.8315
260.27        82.03143
260.72        81.18705
261.18        80.56477
261.63        79.73283
262.09        78.74039
262.55        77.21106
263.00        75.18504
263.46        73.17802
263.91        71.22449
264.37         69.7695
264.83        68.68546
265.28        67.77122
265.74        67.08109
266.19        66.41396
266.65        65.80888
267.11        65.23261
267.56        64.60624
268.02        63.84841
268.47        62.88665
268.93        61.74612
269.38        60.44629
269.84        59.16956
270.30        57.98117
270.75        56.86007
271.21        55.79966
271.66        54.69257
272.12        53.52129
272.57        52.28285
273.03        51.03941
273.48        49.79185
273.94        48.64025
274.39        47.53529
274.85        46.54508
275.31        45.64119
275.76        44.78648
276.22        44.02806
276.67        43.30431
277.13        42.66178
277.58        42.03261
278.04        41.45318
278.49        40.85307
278.95        40.26244
279.40        39.62683
279.86        39.03318
280.31        38.42471
280.77        37.86534
281.22        37.32184
281.68        36.82819
282.13        36.40818
282.59         36.1727
283.04        36.07979
283.50        36.09551
283.95        36.07423
284.41        35.82855
284.86        35.32232
285.32        34.68999
285.77        34.02407
286.22        33.54356
286.68        33.30988
287.13         33.2132
287.59        33.24993
288.04        33.34319
288.50        33.47123
288.95        33.60622
289.41        33.71244
289.86        33.67712
290.32        33.52649
290.77        33.30186
291.22        33.07566
291.68        32.95955
292.13        32.99259
292.59        33.18712
293.04        33.60113
293.50        34.35818
293.95        35.44672
294.40        36.83289
294.86        38.34766
295.31        39.73071
295.77        40.90908
296.22        41.93406
296.68        42.94392
297.13        44.13917
297.58        45.57716
298.04        47.15604
298.49        48.77632
298.95        50.30161
299.40         51.6815
299.85         52.9786
300.31        54.24772
300.76        55.48398
301.21        56.74632
301.67         58.0617
302.12        59.42707
302.58        60.99012
303.03        62.72511
303.48        64.53308
303.94        66.38873
304.39        68.53709
304.84        70.38947
305.30        72.40833
305.75        74.32481
306.20        76.06781
306.66        77.63787
307.11        78.99895
307.57            80.3
308.02         81.6397
308.47        83.09018
308.93        84.62791
309.38        86.13835
309.83        87.51794
310.29        88.74213
310.74        89.83589
311.19        90.84113
311.65        91.80696
312.10        92.73849
312.55        93.63791
313.00        94.55958
313.46        95.59357
313.91        96.72694
314.36        97.93099
314.82        99.10896
315.27        100.1318
315.72        100.9345
316.18        101.5529
316.63        102.0054
317.08        102.3429
317.53        102.6157
317.99        102.8547
318.44        103.0899
318.89         103.384
319.35        103.7536
319.80        104.1779
320.25        104.7066
320.70        105.4109
321.16         106.242
321.61        107.2098
322.06        108.0772
322.51        108.4797
322.97        108.3418
323.42        107.7878
323.87        107.1058
324.32        106.7822
324.78        106.9282
325.23        107.4869
325.68        108.2249
326.13        108.7343
326.59        108.8748
327.04        108.8073
327.49        108.7189
327.94         108.965
328.39        109.6175
328.85        110.4852
329.30        111.4171
329.75        111.9531
330.20        111.9709
330.66        111.6221
331.11        111.1346
331.56         110.793
332.01        110.7316
332.46        110.8752
332.92        111.2098
333.37        111.8672
333.82        112.7659
334.27        113.8825
334.72        115.0379
335.17        115.9225
335.63        116.4144
336.08        116.6348
336.53        116.6566
336.98        116.7035
337.43        116.8674
337.88        117.0921
338.34        117.3949
338.79        117.8243
339.24        118.3647
339.69        119.0283
340.14         119.709
340.59        120.2051
341.05        120.4813
341.50        120.6024
341.95        120.6709
342.40        120.8834
342.85        121.2845
343.30        121.7773
343.75         122.334
344.20        122.9073
344.66        123.4729
345.11        124.0707
345.56        124.5492
346.01         124.657
346.46        124.3919
346.91        123.8324
347.36        123.3451
347.81        123.4924
348.26        124.3471
348.72        125.7037
349.17        127.1449
349.62        127.8845
350.07        127.7249
350.52        126.9497
350.97        125.9435
351.42        125.2902
351.87        125.1678
352.32        125.3848
352.77        125.8481
353.22        126.4182
353.67        126.9794
354.13        127.5373
354.58        127.9543
355.03        127.9908
355.48        127.5954
355.93        126.8294
356.38        125.7976
356.83        124.6824
357.28        123.5764
357.73        122.4721
358.18        121.4488
358.63        120.6131
359.08        119.9742
359.53        119.5094
359.98        119.1138
360.43        118.6017
360.88        117.9255
361.33        117.1369
361.78        116.2867
362.23        115.4664
362.68        114.7083
363.13        113.9743
363.58        113.2842
364.03        112.6725
364.48        112.1302
364.93        111.6496
365.38        111.1532
365.83        110.5157
366.28        109.7178
366.73        108.7976
367.18        107.8479
367.63        107.0156
368.08        106.3308
368.53        105.7487
368.98         105.202
369.43        104.5729
369.88        103.8479
370.33        103.1019
370.78        102.3733
371.23        101.7249
371.68        101.1762
372.13         100.662
372.58        100.2546
373.03        100.0744
373.48        100.0951
373.93        100.2707
374.38        100.3132
374.83        99.76138
375.28         98.5724
375.72         96.9103
376.17        95.26228
376.62        94.17547
377.07        93.75587
377.52         93.8096
377.97        94.07929
378.42        94.13592
378.87         93.8402
379.32        93.33505
379.77        92.70774
380.22        92.07645
380.67        91.48343
381.11        90.86745
381.56         90.2599
382.01        89.75305
382.46        89.37151
382.91        89.12045
383.36        88.91376
383.81         88.5985
384.26        88.14362
384.71          87.586
385.15        87.01717
385.60        86.64676
386.05        86.48376
386.50        86.45695
386.95        86.43466
387.40        86.22343
387.85        85.78977
388.29        85.15588
388.74        84.54485
389.19         84.0369
389.64         83.6573
390.09        83.35142
390.54        83.07072
390.98        82.76476
391.43        82.46857
391.88        82.10136
392.33        81.67998
392.78        81.50449
393.23        81.48033
393.67        80.95405
394.12        80.10822
394.57        80.10683
395.02        79.80596
395.47        79.83934
395.91        79.81056
396.36        79.73623
396.81        79.59867
397.26        79.41583
397.71        79.18976
398.15        78.85416
398.60        78.51118
399.05        78.13841
399.50        77.78823
399.95        77.61057
400.39        77.34494
400.84        77.54092
401.29         77.9268
401.74         77.9502
402.18        77.51373
402.63        76.78062
403.08        76.03976
403.53        75.69411
403.97        75.81196
404.42        76.23002
404.87         76.6794
405.32        76.75552
405.76        76.36066
406.21        75.67348
406.66        74.90009
407.11        74.40971
407.55        74.32845
408.00        74.38744
408.45        74.52438
408.90        74.96377
409.34        75.46413
409.79         75.2514
410.24        74.53703
410.68        74.33296
411.13        74.70631
411.58        75.10255
412.03        75.34113
412.47        75.36797
412.92         75.1014
413.37        74.62241
413.81         74.0477
414.26         73.6216
414.71        73.36896
415.15        73.24168
415.60        73.20244
416.05        73.23266
416.49        73.31506
416.94        73.46636
417.39        73.60735
417.83        73.58517
418.28        73.38696
418.73        73.04984
419.17         72.7205
419.62        72.65536
420.07         72.8692
420.51        73.24458
420.96        73.64588
421.41         73.7298
421.85        73.40924
422.30        73.12506
422.74        72.84597
423.19        72.09603
423.64        71.13345
424.08        71.14536
424.53        72.02416
424.98        72.45302
425.42        72.27538
425.87        72.51423
426.31         73.0462
426.76         72.5034
427.21        71.05652
427.65        71.13773
428.10         72.3923
428.54        72.19529
428.99        70.77817
429.44        70.26122
429.88        70.70338
430.33        71.06089
430.77        71.15724
431.22        71.48961
431.66        71.92245
432.11        71.64702
432.56        70.76948
433.00        70.52298
433.45         71.2159
433.89        70.91253
434.34        71.27344
434.78        72.98381
435.23        70.98138
435.67        70.36958
436.12        69.84905
436.57        69.89516
437.01        70.33615
437.46        70.67242
437.90        70.85807
438.35         70.5413
438.79        71.39446
439.24        71.47272
439.68        71.32237
440.13        71.30914
440.57        71.45197
441.02        71.54056
441.46        71.53546
441.91        71.51784
442.35        71.41772
442.80        71.57812
443.24        71.82293
443.69        71.47411
444.13        70.68939
444.58         70.3342
445.02        70.40857
445.47        70.52085
445.91        70.57327
446.36        70.61329
446.80        70.59229
447.24        70.52726
447.69        70.44775
448.13         70.3736
448.58        70.33521
449.02        70.29876
449.47        70.30309
449.91        70.37289
450.36        70.51667
450.80        70.70585
451.25        70.88809
451.69        70.94501
452.13        70.85989
452.58        70.69548
453.02        70.51646
453.47        70.37688
453.91        70.27523
454.36        70.42516
454.80        70.50748
455.24         70.3702
455.69        70.58112
456.13        70.46217
456.58        70.36807
457.02         69.5914
457.46         69.8133
457.91        69.78248
458.35        69.84908
458.79        69.78493
459.24        69.60574
459.68        69.42897
460.13        69.30914
460.57        69.08221
461.01        69.28357
461.46         69.1449
461.90        68.94228
462.34        69.45876
462.79        69.36332
463.23         69.1625
463.68        68.58767
464.12        68.25912
464.56        68.22259
465.01        68.18575
465.45        68.07393
465.89        68.01942
466.34        68.03609
466.78        68.02464
467.22        68.16775
467.67        68.05329
468.11        67.77118
468.55        67.42014
468.99         67.0882
469.44        66.82096
469.88         66.6478
470.32        66.59805
470.77        66.60426
471.21        66.56152
471.65        66.43278
472.10        66.26506
472.54        66.12652
472.98        66.13357
473.42        66.28962
473.87        66.62675
474.31        66.99088
474.75        66.97115
475.20        66.62672
475.64        66.51707
476.08        66.68092
476.52        66.49223
476.97        65.90781
477.41        66.00156
477.85         65.9036
478.29        65.17982
478.74        65.84649
479.18        65.75883
479.62        65.60643
480.06        65.59609
480.50        65.75925
480.95        65.53966
481.39        65.99537
481.83        65.49498
482.27         66.1568
482.72        66.07973
483.16        66.14409
483.60        66.14433
484.04        66.13663
484.48        66.25113
484.93        66.51395
485.37        66.02219
485.81        65.14684
486.25        65.52767
486.69         67.5519
487.14        66.56371
487.58        65.49999
488.02        65.19832
488.46        65.97097
488.90        65.81583
489.34        65.14133
489.79        65.51591
490.23        64.73126
490.67        64.91792
491.11        65.22002
491.55         65.0222
491.99         64.4093
492.43         64.2009
492.88        64.46169
493.32        64.76075
493.76        64.98241
494.20        65.15361
494.64        65.23356
495.08        65.20113
495.52        65.10762
495.96        65.05158
496.41        65.05821
496.85        65.09776
497.29        65.09219
497.73        65.03107
498.17        64.68261
498.61        64.41319
499.05        64.24142
499.49        64.11646
499.93        64.00719
500.37        64.06266
500.82        64.32442
501.26        64.02119
501.70        64.32531
502.14        64.65501
502.58        64.59278
503.02         64.6822
503.46        64.70248
503.90        64.66038
504.34        64.57611
504.78        64.54049
505.22        64.56681
505.66        64.63374
506.10        64.70514
506.54        64.71105
506.98        64.63343
507.42         64.6887
507.86        64.26106
508.30        64.46966
508.74        63.98123
509.18        63.76726
509.62        63.55953
510.06        63.52743
510.50        63.68538
510.94        63.99459
511.38        64.34024
511.82        64.49546
512.26        64.40718
512.70        64.14134
513.14        63.81248
513.58        63.60005
514.02        63.55552
514.46        63.62727
514.90        63.75148
515.34        63.82612
515.78        63.81678
516.22        63.75399
516.66        63.68049
517.10        63.65675
517.54        63.69389
517.98        63.76745
518.42        63.81986
518.86         63.7655
519.30        63.59352
519.74        63.34044
520.18        63.08971
520.62          62.964
521.06        62.99476
521.50        63.15353
521.93        63.37037
522.37        63.50653
522.81        63.53114
523.25        63.47181
523.69        63.40233
524.13        63.43979
524.57        63.60118
525.01        63.83983
525.45        64.05729
525.89        64.09808
526.32        63.92437
526.76        63.61817
527.20        63.28053
527.64        63.06895
528.08         63.0233
528.52        63.09117
528.96        63.21875
529.40        63.31947
529.83        63.35684
530.27        63.36842
530.71        63.34889
531.15        63.29427
531.59        63.21159
532.03        63.09624
532.46        62.97425
532.90        62.91758
533.34        62.93233
533.78        63.00624
534.22        63.09813
534.66        63.14067
535.09        63.11404
535.53        63.05108
535.97        62.98258
536.41        62.97096
536.85        63.02267
537.28        63.12066
537.72        63.23013
538.16        63.24795
538.60        63.14847
539.04        63.13906
539.47        62.91974
539.91        62.80669
540.35        62.71112
540.79        62.64085
541.22         62.5905
541.66        62.56948
542.10        62.57494
542.54         62.6048
542.97        62.65755
543.41        62.74533
543.85        62.85478
544.29        62.99232
544.72        63.09382
545.16        63.09677
545.60        62.99112
546.04        62.77111
546.47        62.54087
546.91        62.56681
547.35        62.83516
547.79        63.08088
548.22        63.19424
548.66        63.34553
549.10        63.51616
549.53        63.40186
549.97        62.94955
550.41         63.3798
550.84        62.82028
551.28        62.68302
551.72        62.41952
552.15        62.60912
552.59        62.46752
553.03        62.58143
553.46        62.68308
553.90        62.74141
554.34        62.72542
554.77        62.66424
555.21        62.58921
555.65        62.49324
556.08        62.40811
556.52        62.42156
556.96        62.50636
557.39        62.62474
557.83        62.74866
558.27        62.75747
558.70        62.69534
559.14        62.77166
559.57         62.9394
560.01        63.05373
560.45        63.09389
560.88        62.90955
561.32        62.85664
561.75        62.84701
562.19        62.94498
562.63        62.81784
563.06        62.52251
563.50        62.49335
563.93        62.67562
564.37        62.73436
564.80        62.63869
565.24        62.59249
565.68        62.59529
566.11        62.62163
566.55        62.67768
566.98        62.63354
567.42        62.58287
567.85        62.65628
568.29        62.82102
568.72        62.98048
569.16        63.34199
569.60        62.78552
570.03        63.26967
570.47        63.39782
570.90        63.58688
571.34        63.25707
571.77        63.61719
572.21         63.7065
572.64        63.80989
573.08        63.83084
573.51        63.34999
573.95        63.58263
574.38        64.12836
574.82        63.92726
