SpectraSmart Spectrum 2.9.0.0
--------- Device Information -----------
Spectrum Name :  反射率_0
Saving Time :  2024/04/30 00:26:54
Spectro-Module Model Name : SE2030-DUVN
Spectro-Module Serial Number : OS361AC55029948
Wavelength Start : 200
Wavelength End : 1025
Wavelength Unit : Wavelength(nm)
Spectrum Unit : Reflectance(%)
-----------Spectrum Setting ------------
Integration Time : 20ms
Average : 10
Boxcar : 0
Background removal :  enabled
linearity correction :  enabled
SC :  disabled
Intensity correction :  disabled
DWT denoise :  enabled
savitzky-golay :  disabled
FFT :  disabled
Running average :  disabled
Kalman :  disabled
High pass :  disabled
---------------BEGIN--------------------
Wavelength(nm)             Reflectance(%)
200.29               0
200.75        87.24254
201.21        74.82586
201.67        61.97729
202.13        51.97739
202.58        46.59455
203.04        44.75399
203.50        47.61737
203.96        57.27893
204.42        72.80875
204.88        92.47404
205.34        107.4598
205.80        106.4115
206.26        92.72416
206.72        74.99793
207.18        60.16164
207.64        52.14036
208.10        49.63264
208.55        50.24771
209.01        52.74245
209.47        55.17659
209.93        56.37534
210.39         57.2504
210.85        57.26955
211.31        55.63921
211.77        52.11982
212.23          45.804
212.69        37.79148
213.14        35.31299
213.60        41.06415
214.06        50.94266
214.52        59.63357
214.98        64.04573
215.44        65.03358
215.90        63.92205
216.36        62.39613
216.81        63.60991
217.27        69.20993
217.73        79.30275
218.19        92.74141
218.65        101.7837
219.11        101.0517
219.57        93.62669
220.02         85.1204
220.48        79.49947
220.94        75.81897
221.40        72.39444
221.86        68.16859
222.32        62.99875
222.77        58.38091
223.23        55.88821
223.69         54.3885
224.15         52.4573
224.61        49.76052
225.06         46.3448
225.52        43.17399
225.98        42.43284
226.44        44.38208
226.90        47.38138
227.36        50.17529
227.81        52.13961
228.27        53.46168
228.73        54.39751
229.19         54.8992
229.65        54.76817
230.10        54.07475
230.56        53.17846
231.02        52.19345
231.48        51.18118
231.93        50.04805
232.39        48.84499
232.85        47.73856
233.31        47.15583
233.77         47.2338
234.22        47.99545
234.68        48.96883
235.14        49.29973
235.60        48.83702
236.05        47.85716
236.51           47.13
236.97        47.69072
237.43         49.8471
237.88        53.72121
238.34        58.84113
238.80        63.51012
239.26        66.07227
239.71        66.72038
240.17        65.89484
240.63        64.85968
241.08        64.15891
241.54        63.10623
242.00        62.64657
242.46        66.23487
242.91        76.13273
243.37        89.81331
243.83        101.7428
244.28        108.5476
244.74        110.5697
245.20         107.435
245.66        100.5401
246.11        94.25099
246.57        91.13374
247.03        91.73569
247.48         93.0216
247.94        88.42442
248.40         79.7388
248.85        71.33206
249.31        67.31198
249.77        69.39768
250.22        77.95264
250.68        94.84134
251.14        120.4073
251.59        136.2984
252.05        127.9343
252.51        109.2688
252.96        93.95518
253.42         86.9048
253.88        85.18412
254.33        86.16607
254.79        87.91956
255.25        86.75357
255.70        82.72548
256.16        78.76382
256.62        76.16319
257.07        75.51903
257.53        76.72515
257.99        78.77792
258.44        80.29614
258.90        80.25895
259.35        78.36028
259.81        75.96396
260.27         73.7407
260.72        72.24397
261.18        71.57768
261.63        71.05486
262.09        70.43743
262.55        69.06123
263.00        66.94733
263.46        64.72067
263.91        62.53403
264.37        60.89432
264.83        59.69962
265.28        58.70792
265.74        57.95161
266.19        57.23958
266.65        56.60197
267.11        56.03153
267.56         55.4352
268.02        54.68879
268.47        53.72282
268.93        52.55658
269.38        51.26744
269.84        50.13417
270.30        49.22473
270.75        48.48379
271.21        47.77522
271.66        46.82705
272.12        45.60184
272.57         44.1637
273.03        42.71978
273.48        41.50731
273.94        40.65873
274.39        40.04197
274.85        39.56963
275.31        39.02115
275.76        38.32727
276.22        37.59545
276.67        36.86195
277.13        36.29029
277.58        35.84509
278.04        35.50573
278.49        35.15111
278.95        34.72582
279.40        34.17065
279.86        33.60253
280.31        33.01416
280.77        32.52435
281.22        32.11357
281.68        31.77835
282.13         31.5194
282.59        31.40344
283.04         31.3873
283.50        31.45351
283.95        31.46443
284.41         31.2327
284.86        30.73436
285.32        30.09829
285.77        29.44726
286.22        29.03659
286.68        28.92566
287.13        28.99096
287.59        29.18715
288.04        29.37675
288.50        29.52535
288.95        29.63644
289.41        29.69957
289.86        29.64803
290.32        29.51957
290.77        29.33945
291.22        29.18914
291.68        29.19345
292.13        29.38469
292.59        29.76812
293.04        30.35738
293.50        31.20412
293.95        32.29424
294.40        33.61816
294.86        35.06991
295.31        36.49155
295.77        37.83268
296.22        39.11251
296.68        40.41771
297.13        41.86522
297.58        43.48913
298.04        45.21708
298.49        46.97357
298.95        48.65766
299.40        50.23304
299.85        51.74519
300.31        53.25264
300.76        54.76053
301.21        56.32128
301.67        57.95608
302.12         59.6352
302.58        61.46443
303.03         63.4085
303.48        65.37818
303.94        67.37126
304.39         69.6597
304.84        71.67726
305.30        73.85065
305.75        75.89684
306.20        77.71348
306.66        79.29837
307.11        80.63863
307.57        81.88608
308.02        83.13804
308.47         84.4782
308.93         85.8837
309.38        87.28688
309.83         88.6583
310.29        89.97723
310.74        91.23961
311.19        92.40543
311.65         93.3968
312.10        94.19285
312.55         94.8358
313.00        95.45627
313.46        96.26601
313.91         97.2857
314.36        98.45304
314.82        99.62132
315.27          100.58
315.72        101.2426
316.18        101.6741
316.63        101.9327
317.08        102.1284
317.53        102.3242
317.99        102.5249
318.44        102.7263
318.89        102.9388
319.35        103.1695
319.80        103.4255
320.25        103.7797
320.70        104.3379
321.16        105.0685
321.61        105.9712
322.06        106.8269
322.51        107.2981
322.97         107.305
323.42        106.9575
323.87        106.4913
324.32        106.3115
324.78        106.5078
325.23        107.0351
325.68        107.6983
326.13        108.1648
326.59        108.3118
327.04        108.2713
327.49        108.1958
327.94        108.3829
328.39        108.8919
328.85        109.5666
329.30        110.2729
329.75         110.579
330.20        110.3917
330.66        109.8642
331.11        109.2694
331.56        108.9606
332.01        109.0752
332.46        109.5128
332.92        110.1826
333.37         111.075
333.82        112.0611
334.27        113.1473
334.72        114.1965
335.17        114.9848
335.63        115.4218
336.08        115.5922
336.53        115.5794
336.98        115.6266
337.43        115.8166
337.88        116.0955
338.34        116.4172
338.79        116.7183
339.24        116.9744
339.69        117.2468
340.14        117.5191
340.59        117.7445
341.05        117.9326
341.50        118.0902
341.95        118.2888
342.40        118.6712
342.85        119.2444
343.30        119.9283
343.75        120.6127
344.20         121.119
344.66        121.4141
345.11        121.5773
345.56        121.6119
346.01        121.5221
346.46        121.3575
346.91        121.1135
347.36        121.0044
347.81        121.3579
348.26        122.1875
348.72        123.3593
349.17        124.5424
349.62        125.0983
350.07        124.8834
350.52        124.1354
350.97        123.1941
351.42        122.5821
351.87        122.4554
352.32        122.6389
352.77        123.0734
353.22        123.6641
353.67        124.3027
354.13        124.9838
354.58        125.4982
355.03         125.498
355.48        124.9204
355.93        123.8616
356.38        122.5513
356.83        121.3622
357.28        120.4114
357.73        119.6229
358.18        118.9286
358.63        118.2011
359.08        117.4062
359.53        116.6133
359.98        115.8429
360.43        115.1086
360.88        114.4203
361.33        113.7569
361.78         113.127
362.23        112.5568
362.68        112.0392
363.13        111.5569
363.58        111.0745
364.03        110.5351
364.48        109.9225
364.93        109.2518
365.38        108.5411
365.83        107.8286
366.28        107.1341
366.73          106.45
367.18        105.7864
367.63        105.1558
368.08        104.5487
368.53        103.9576
368.98        103.3593
369.43        102.7079
369.88        102.0103
370.33        101.3134
370.78        100.6255
371.23        99.96585
371.68         99.3457
372.13        98.72392
372.58         98.1991
373.03        97.93082
373.48        97.89986
373.93        98.03645
374.38          98.049
374.83        97.46903
375.28        96.25085
375.72         94.5807
376.17        92.90375
376.62         91.7017
377.07        91.08649
377.52        90.88674
377.97        90.95754
378.42         91.0583
378.87        91.06693
379.32        91.03573
379.77        90.89835
380.22        90.54945
380.67        89.98037
381.11        89.20589
381.56        88.32282
382.01        87.53861
382.46        86.93656
382.91         86.4912
383.36        86.15804
383.81        85.84736
384.26        85.52074
384.71        85.19547
385.15        84.86758
385.60        84.58688
386.05        84.32862
386.50        84.07156
386.95        83.76625
387.40        83.35098
387.85        82.84311
388.29        82.24331
388.74        81.72968
389.19        81.32764
389.64        81.03706
390.09        80.80032
390.54        80.61514
390.98        80.46647
391.43        80.36819
391.88        80.30435
392.33        80.14214
392.78        79.76884
393.23        79.20523
393.67        78.34557
394.12        77.43283
394.57        77.32972
395.02        76.95528
395.47        77.11539
395.91        77.36081
396.36        77.47076
396.81        77.37794
397.26        77.16291
397.71        76.86993
398.15        76.50242
398.60        76.18152
399.05        75.84634
399.50        75.52245
399.95        75.37039
400.39        75.12072
400.84        75.20228
401.29        75.41199
401.74        75.48162
402.18        75.32816
402.63        74.74376
403.08        74.20653
403.53        73.91377
403.97        73.99714
404.42        74.17042
404.87        74.29833
405.32        74.37524
405.76        74.26345
406.21        73.74815
406.66         72.9647
407.11        72.41632
407.55        72.26887
408.00        72.23761
408.45        72.31405
408.90         72.9052
409.34        73.68204
409.79        73.47018
410.24        72.51221
410.68        72.21761
411.13        72.67022
411.58        73.07494
412.03         73.2532
412.47        73.28179
412.92        73.08401
413.37        72.69585
413.81        72.21605
414.26        71.86411
414.71        71.65723
415.15         71.5573
415.60        71.52477
416.05        71.53499
416.49        71.57278
416.94        71.65561
417.39        71.72266
417.83        71.65196
418.28        71.43648
418.73        71.10726
419.17        70.78938
419.62        70.70274
420.07        70.86299
420.51        71.16867
420.96        71.50472
421.41        71.59365
421.85        71.34924
422.30        71.10146
422.74        70.84443
423.19        70.27238
423.64        69.59333
424.08        69.73154
424.53        70.55486
424.98        70.94794
425.42        70.90312
425.87        70.99418
426.31        71.24488
426.76        71.06128
427.21        70.41935
427.65        70.46895
428.10        70.98933
428.54        70.75495
428.99        69.92286
429.44        69.53286
429.88        69.66429
430.33        69.84978
430.77        69.98167
431.22        70.48045
431.66        71.14841
432.11        71.01512
432.56        70.19975
433.00        69.89728
433.45        70.32363
433.89        70.37646
434.34        70.67719
434.78        71.47189
435.23        70.10805
435.67        69.46677
436.12        69.00506
436.57        69.06078
437.01         69.4924
437.46        70.08213
437.90        69.97178
438.35        70.30439
438.79        70.77431
439.24        71.04002
439.68        71.05555
440.13        70.90897
440.57        70.70506
441.02        70.64648
441.46        70.74072
441.91        70.92136
442.35        71.03954
442.80        71.15355
443.24        71.31827
443.69        71.07349
444.13        70.57363
444.58        70.31117
445.02        70.28486
445.47        70.29835
445.91        70.31825
446.36        70.38889
446.80        70.47013
447.24        70.60738
447.69        70.78882
448.13        70.75803
448.58        70.85732
449.02         70.8134
449.47        70.77673
449.91        70.78765
450.36        70.87212
450.80        70.98727
451.25        71.11425
451.69        71.19887
452.13        71.23389
452.58        71.26494
453.02        71.27771
453.47        71.26397
453.91        71.21551
454.36        71.22639
454.80        71.01102
455.24        71.18276
455.69         71.5422
456.13        71.51469
456.58        71.15696
457.02        70.94593
457.46        70.91599
457.91        70.79997
458.35        70.58108
458.79        70.42868
459.24        70.37362
459.68        70.37988
460.13        70.45656
460.57         70.3643
461.01        70.43472
461.46         70.3306
461.90        70.18843
462.34        70.26176
462.79        70.44458
463.23        70.34503
463.68        69.98363
464.12        69.72522
464.56        69.60699
465.01        69.44901
465.45        69.24107
465.89        69.14688
466.34        69.19716
466.78        69.39956
467.22        69.84892
467.67        69.70956
468.11        69.13407
468.55         68.7551
468.99        68.65791
469.44        68.46857
469.88        68.21272
470.32        68.16183
470.77        68.27171
471.21        68.35439
471.65        68.36591
472.10        68.37127
472.54        68.38531
472.98        68.45131
473.42        68.56049
473.87        68.74531
474.31        68.92289
474.75        68.82993
475.20        68.52367
475.64        68.50625
476.08        68.77831
476.52        68.62183
476.97        67.94499
477.41        68.38848
477.85        67.76588
478.29        67.56477
478.74         68.3699
479.18         68.5733
479.62        67.71423
480.06        67.56849
480.50        67.90839
480.95        68.17551
481.39        68.31583
481.83        68.25764
482.27         68.8089
482.72        68.48402
483.16        68.53288
483.60        68.44984
484.04        68.54052
484.48        68.73157
484.93         68.9124
485.37        68.65738
485.81        68.20856
486.25        67.68179
486.69          68.621
487.14        68.52643
487.58        67.41149
488.02        67.95185
488.46        68.83834
488.90        68.50935
489.34        67.86988
489.79        68.74538
490.23        68.13512
490.67        68.26754
491.11        68.12679
491.55        67.84897
491.99        67.51867
492.43         67.4361
492.88        67.65602
493.32        68.02737
493.76         68.4363
494.20        68.75988
494.64        68.92893
495.08        69.02209
495.52        69.06055
495.96        68.92519
496.41        68.67371
496.85        68.91836
497.29        68.71221
497.73        68.92615
498.17        68.50133
498.61        68.25045
499.05        67.98873
499.49        68.00107
499.93        68.19917
500.37        68.26875
500.82        68.23628
501.26        68.07272
501.70        68.33728
502.14        68.49379
502.58        68.46541
503.02        68.54655
503.46        68.67072
503.90        68.80312
504.34        68.91333
504.78        68.97657
505.22        68.97565
505.66        68.92913
506.10        68.86537
506.54        68.81691
506.98        68.78792
507.42        68.98782
507.86        68.64966
508.30        68.96413
508.74        68.46822
509.18         68.1543
509.62        67.87817
510.06        67.77171
510.50        67.90079
510.94        68.20747
511.38        68.56522
511.82        68.72474
512.26        68.62675
512.70        68.35017
513.14         68.0199
513.58         67.8284
514.02        67.82941
514.46        67.96314
514.90        68.15626
515.34        68.29312
515.78        68.33231
516.22        68.30557
516.66        68.25692
517.10        68.24934
517.54        68.29688
517.98        68.37686
518.42        68.43082
518.86        68.37282
519.30        68.19249
519.74        67.92393
520.18         67.6621
520.62        67.54696
521.06        67.60979
521.50        67.81731
521.93        68.07089
522.37        68.18289
522.81        68.11793
523.25        67.92456
523.69        67.71934
524.13        67.68374
524.57        67.85016
525.01        68.15213
525.45        68.46336
525.89        68.58122
526.32        68.44861
526.76        68.15932
527.20        67.82169
527.64        67.60556
528.08        67.55573
528.52        67.61491
528.96        67.72573
529.40        67.79907
529.83        67.79942
530.27        67.76796
530.71         67.7116
531.15         67.6436
531.59        67.57323
532.03        67.49129
532.46        67.40331
532.90        67.35045
533.34        67.33333
533.78        67.35078
534.22        67.38492
534.66        67.40458
535.09        67.39662
535.53        67.38102
535.97        67.36875
536.41         67.3941
536.85        67.45876
537.28        67.54215
537.72         67.6143
538.16        67.62363
538.60        67.56004
539.04        67.44704
539.47        67.29795
539.91        67.18759
540.35        67.11745
540.79         67.0853
541.22        67.08298
541.66        67.10866
542.10        67.15231
542.54        67.21732
542.97        67.29544
543.41        67.39245
543.85        67.49413
544.29        67.60725
544.72        67.68027
545.16        67.67387
545.60        67.58087
546.04        67.38752
546.47        67.17928
546.91        67.19874
547.35        67.42695
547.79        67.60026
548.22        67.63335
548.66        67.76024
549.10         67.9744
549.53        67.91992
549.97        67.52718
550.41        68.11918
550.84        67.64404
551.28        67.55883
551.72        67.29552
552.15        67.50889
552.59        67.33879
553.03        67.69574
553.46        67.65904
553.90        67.75282
554.34        67.77179
554.77        67.65593
555.21        67.48376
555.65        67.54716
556.08        67.78719
556.52        67.80032
556.96        67.62019
557.39        67.68739
557.83        67.99137
558.27        68.14977
558.70        68.14285
559.14        68.19364
559.57         68.2666
560.01        68.22951
560.45        68.12052
560.88        67.95632
561.32          68.052
561.75        67.96548
562.19        67.81898
562.63        67.63287
563.06        67.48203
563.50        67.61436
563.93        67.92641
564.37        68.07976
564.80        68.02319
565.24        67.97047
565.68        67.93797
566.11        67.92034
566.55        67.93253
566.98        67.85286
567.42        67.78783
567.85        67.81808
568.29        67.92416
568.72         68.1766
569.16        68.76725
569.60        68.15486
570.03        68.43224
570.47        68.73186
570.90        68.64754
571.34        68.19704
571.77        68.58003
572.21        68.64702
572.64        68.76192
573.08         68.7249
573.51        68.56303
573.95        68.62567
574.38        68.72375
574.82        68.50869
