SpectraSmart Spectrum 2.9.0.0
--------- Device Information -----------
Spectrum Name :  反射率_0
Saving Time :  2024/04/30 00:11:44
Spectro-Module Model Name : SE2030-DUVN
Spectro-Module Serial Number : OS361AC55029948
Wavelength Start : 200
Wavelength End : 1025
Wavelength Unit : Wavelength(nm)
Spectrum Unit : Reflectance(%)
-----------Spectrum Setting ------------
Integration Time : 20ms
Average : 10
Boxcar : 0
Background removal :  enabled
linearity correction :  enabled
SC :  disabled
Intensity correction :  disabled
DWT denoise :  enabled
savitzky-golay :  disabled
FFT :  disabled
Running average :  disabled
Kalman :  disabled
High pass :  disabled
---------------BEGIN--------------------
Wavelength(nm)             Reflectance(%)
200.29               0
200.75        92.75396
201.21         79.1471
201.67        63.35081
202.13        51.47185
202.58        46.58799
203.04        47.09857
203.50        53.69776
203.96        67.21502
204.42        85.70229
204.88        107.2765
205.34        123.0952
205.80        122.0153
206.26        107.5744
206.72         88.5872
207.18        71.72105
207.64        60.24749
208.10        52.84202
208.55        47.23579
209.01        43.26869
209.47        42.27638
209.93        44.18031
210.39        48.30921
210.85        52.08791
211.31        53.24963
211.77        51.61065
212.23        46.67385
212.69        40.01682
213.14        39.45384
213.60        47.11908
214.06        58.33391
214.52        66.98169
214.98        69.35745
215.44        66.62149
215.90         60.4166
216.36        53.88909
216.81        53.20903
217.27        61.57384
217.73        79.38506
218.19        104.9657
218.65        124.2415
219.11        126.3099
219.57        115.7109
220.02        102.3693
220.48        93.68478
220.94        88.65667
221.40        84.73026
221.86        79.98538
222.32         72.8261
222.77        65.42871
223.23        61.00452
223.69        59.12736
224.15        58.74902
224.61        59.33162
225.06        60.62093
225.52        62.80135
225.98         65.4224
226.44        67.64345
226.90        69.19909
227.36        69.99319
227.81        70.08942
228.27        69.75389
228.73        68.87677
229.19        67.81814
229.65        67.36443
230.10        67.64793
230.56        68.54583
231.02        69.32733
231.48        69.37246
231.93        68.63988
232.39        67.40046
232.85        66.24801
233.31        66.37366
233.77        68.08045
234.22        71.19265
234.68        74.49339
235.14        75.81475
235.60        74.67038
236.05        71.76842
236.51        68.92178
236.97         68.5188
237.43          71.231
237.88        77.17824
238.34        85.35501
238.80        92.19936
239.26        94.78413
239.71        93.64648
240.17         90.6729
240.63        89.25092
241.08        90.78271
241.54        95.00595
242.00        103.1478
242.46        113.9215
242.91        123.1549
243.37          128.14
243.83        129.7343
244.28        131.5294
244.74        134.6917
245.20        137.5082
245.66        139.9387
246.11        142.1735
246.57        143.6468
247.03        146.2579
247.48         146.147
247.94         136.214
248.40        120.8587
248.85        105.8812
249.31        97.10129
249.77        96.13753
250.22        102.5056
250.68        117.5325
251.14        141.2661
251.59        155.5108
252.05        146.8118
252.51        129.1611
252.96        115.3079
253.42         110.237
253.88        111.1396
254.33        115.3917
254.79        121.0387
255.25        123.3678
255.70        121.3011
256.16        118.2861
256.62        115.9377
257.07        115.1068
257.53        116.1509
257.99         118.091
258.44        119.4659
258.90        119.3799
259.35        117.3842
259.81        115.0107
260.27        113.0776
260.72        112.3258
261.18        112.8992
261.63        113.7117
262.09         114.142
262.55        112.7642
263.00        109.6232
263.46        105.9382
263.91        102.2686
264.37        99.85146
264.83        98.54308
265.28        97.83141
265.74        97.49115
266.19        96.82331
266.65        95.80496
267.11        94.55608
267.56        93.19966
268.02        91.96394
268.47        90.80631
268.93        89.66561
269.38        88.37305
269.84        86.81551
270.30        85.02128
270.75         83.0868
271.21        81.28375
271.66        79.83718
272.12        78.78043
272.57         77.9418
273.03        77.13319
273.48        75.93877
273.94        74.39368
274.39        72.57879
274.85        70.78102
275.31        69.20261
275.76        67.85931
276.22        66.75117
276.67        65.74551
277.13        64.86345
277.58        63.98727
278.04        63.20888
278.49        62.41344
278.95         61.6275
279.40        60.75766
279.86        59.89597
280.31         58.9846
280.77        58.15198
281.22        57.34538
281.68        56.61525
282.13        55.91029
282.59        55.28589
283.04        54.68533
283.50        54.14572
283.95         53.5955
284.41        52.99664
284.86        52.33079
285.32        51.69687
285.77        51.11555
286.22        50.73948
286.68        50.59676
287.13        50.57045
287.59        50.64938
288.04        50.71843
288.50        50.76957
288.95        50.77615
289.41        50.73277
289.86        50.54226
290.32        50.25822
290.77        49.91263
291.22        49.61514
291.68        49.53172
292.13        49.68883
292.59        50.07775
293.04         50.6766
293.50        51.51921
293.95        52.56182
294.40         53.8065
294.86        55.12052
295.31        56.30454
295.77        57.31499
296.22        58.18732
296.68        59.06664
297.13        60.15687
297.58        61.51176
298.04         63.0298
298.49        64.58901
298.95        66.02775
299.40        67.27552
299.85        68.39632
300.31        69.44786
300.76        70.41923
301.21         71.3768
301.67        72.35741
302.12        73.36082
302.58        74.54326
303.03        75.88022
303.48        77.32086
303.94          78.848
304.39        80.57325
304.84        82.12216
305.30        83.77228
305.75        85.33582
306.20         86.7811
306.66        88.10787
307.11        89.25558
307.57        90.28941
308.02        91.16299
308.47        91.94638
308.93        92.67775
309.38        93.37335
309.83        94.14613
310.29        95.02312
310.74        95.95465
311.19        96.88621
311.65        97.71201
312.10        98.38403
312.55         98.9542
313.00        99.49749
313.46        100.1343
313.91        100.8716
314.36        101.6678
314.82        102.4529
315.27         103.152
315.72        103.7103
316.18        104.1509
316.63        104.4684
317.08        104.6651
317.53        104.7759
317.99        104.8497
318.44        104.9051
318.89        104.9893
319.35        105.1231
319.80         105.284
320.25        105.5736
320.70        106.1498
321.16        106.9775
321.61        108.0453
322.06        109.0369
322.51        109.4485
322.97        109.1745
323.42        108.3854
323.87        107.4563
324.32         107.011
324.78         107.194
325.23        107.8984
325.68        108.8339
326.13        109.4961
326.59         109.702
327.04        109.6367
327.49        109.4936
327.94        109.6376
328.39        110.1544
328.85        110.8534
329.30        111.6017
329.75        111.9789
330.20        111.8799
330.66        111.4475
331.11        110.9269
331.56        110.6195
332.01        110.6529
332.46        110.9523
332.92        111.4276
333.37         112.079
333.82        112.7996
334.27        113.5988
334.72        114.4231
335.17        115.1807
335.63        115.8024
336.08        116.3403
336.53        116.7363
336.98        116.9895
337.43        117.1163
337.88        117.1218
338.34        117.1008
338.79        117.2227
339.24        117.5242
339.69        117.9985
340.14        118.5207
340.59        118.8607
341.05         118.983
341.50        118.9685
341.95        118.9787
342.40        119.2907
342.85        119.9445
343.30        120.7987
343.75         121.694
344.20        122.3823
344.66        122.7932
345.11        123.0229
345.56         123.055
346.01        122.8609
346.46        122.5034
346.91        122.0078
347.36        121.6404
347.81        121.8035
348.26        122.5385
348.72        123.6988
349.17        124.9563
349.62        125.6728
350.07        125.6708
350.52        125.1456
350.97        124.3919
351.42        123.8688
351.87         123.716
352.32        123.7953
352.77        124.0064
353.22        124.1969
353.67         124.287
354.13        124.3037
354.58        124.2441
355.03        124.0838
355.48        123.8029
355.93        123.3865
356.38        122.7786
356.83        121.9085
357.28        120.8008
357.73        119.5206
358.18        118.2209
358.63          117.13
359.08        116.3066
359.53        115.6933
359.98          115.19
360.43        114.6248
360.88        113.9439
361.33        113.1988
361.78        112.4196
362.23        111.6552
362.68        110.9207
363.13        110.1824
363.58         109.445
364.03        108.7265
364.48        108.0229
364.93         107.335
365.38        106.6343
365.83         105.872
366.28        105.0529
366.73        104.2084
367.18        103.3829
367.63        102.6418
368.08        101.9942
368.53         101.407
368.98        100.8719
369.43        100.3691
369.88        99.89195
370.33        99.46804
370.78        99.02814
371.23         98.4664
371.68        97.76485
372.13        96.91593
372.58        96.09776
373.03        95.60138
373.48        95.45534
373.93        95.57059
374.38        95.61597
374.83         95.0524
375.28        93.81174
375.72        92.09579
376.17        90.39391
376.62        89.25443
377.07        88.78833
377.52        88.79351
377.97        89.03061
378.42        89.10835
378.87        88.88847
379.32        88.49371
379.77        87.98186
380.22        87.42853
380.67        86.86326
381.11        86.23633
381.56        85.58415
382.01        85.00716
382.46        84.54333
382.91         84.2045
383.36        83.91984
383.81        83.56074
384.26        83.09629
384.71        82.54546
385.15        82.00144
385.60        81.67094
386.05        81.55534
386.50        81.59203
386.95        81.59862
387.40        81.29931
387.85        80.67313
388.29        79.79681
388.74        78.99068
389.19        78.48129
389.64        78.30609
390.09         78.3502
390.54        78.48535
390.98        78.48702
391.43        78.31982
391.88        78.04361
392.33        77.66747
392.78        77.25776
393.23        76.85307
393.67        76.31745
394.12        75.75909
394.57        75.73631
395.02        75.20911
395.47        75.27161
395.91        75.51402
396.36        75.55538
396.81        75.34573
397.26         75.0729
397.71        74.81197
398.15        74.51501
398.60        74.28187
399.05        74.17437
399.50        74.12344
399.95        73.87898
400.39         73.2859
400.84        73.42476
401.29        74.04566
401.74        74.19764
402.18         73.7387
402.63        72.97475
403.08        72.20827
403.53        71.86084
403.97        71.98962
404.42        72.36576
404.87        72.76056
405.32        72.79372
405.76        72.35776
406.21         71.8595
406.66        71.38379
407.11        70.53286
407.55        69.67399
408.00        69.92252
408.45        71.09504
408.90        71.89632
409.34        72.00979
409.79        71.66185
410.24        71.10065
410.68        70.87991
411.13        71.07959
411.58        71.32203
412.03        71.46692
412.47        71.48033
412.92        71.29462
413.37         70.9699
413.81         70.5723
414.26        70.27647
414.71        70.08897
415.15        69.97063
415.60        69.90694
416.05        69.92436
416.49        70.01614
416.94        70.17965
417.39        70.32066
417.83        70.26682
418.28        70.00302
418.73        69.58437
419.17        69.17237
419.62        69.04082
420.07        69.22477
420.51        69.60989
420.96        70.06558
421.41        70.29678
421.85        70.21204
422.30        70.10569
422.74        69.95709
423.19        69.55926
423.64        69.04951
424.08        69.04869
424.53        69.50919
424.98        69.78898
425.42        69.82468
425.87        70.14561
426.31        70.60518
426.76        70.39803
427.21        69.52682
427.65        69.31452
428.10        69.68427
428.54        69.65908
428.99        69.26653
429.44        69.06143
429.88        69.07796
430.33        69.09488
430.77         69.0855
431.22        69.48444
431.66        70.14263
432.11        70.09447
432.56        69.39944
433.00        69.26275
433.45        69.97124
433.89        69.78312
434.34        70.53844
434.78        71.60202
435.23        69.79901
435.67        69.05784
436.12        68.62137
436.57        68.80017
437.01         69.3776
437.46        70.00158
437.90        69.75672
438.35        69.97274
438.79        70.37363
439.24        70.48837
439.68        70.35615
440.13        70.37891
440.57        70.55502
441.02        70.64823
441.46        70.62999
441.91        70.60121
442.35         70.5173
442.80        70.68604
443.24        70.96809
443.69        70.82354
444.13        70.31548
444.58        70.06667
445.02        70.06165
445.47        70.02389
445.91        69.94923
446.36        69.93719
446.80        69.95447
447.24        70.12128
447.69        70.32958
448.13        70.20673
448.58        70.38879
449.02        70.34297
449.47        70.31286
449.91        70.32023
450.36        70.39417
450.80        70.49767
451.25        70.60268
451.69        70.64889
452.13        70.62859
452.58        70.58872
453.02         70.5528
453.47         70.5471
453.91        70.56272
454.36        70.74851
454.80        70.74905
455.24        70.88512
455.69        71.01861
456.13         71.0028
456.58        70.86322
457.02        70.67246
457.46        70.47741
457.91        70.29301
458.35        70.08759
458.79        69.91359
459.24        69.82518
459.68        69.73502
460.13        69.59298
460.57        69.79825
461.01        69.76907
461.46        69.56119
461.90        69.03049
462.34        69.89596
462.79        70.09898
463.23        69.98666
463.68        69.13568
464.12        68.72195
464.56        68.78063
465.01        68.74825
465.45        68.61436
465.89        68.58243
466.34        68.53316
466.78        69.13689
467.22        68.59811
467.67         68.4539
468.11        68.36063
468.55        68.07356
468.99         67.7014
469.44        67.43355
469.88        67.32011
470.32        67.31344
470.77        67.35312
471.21        67.36065
471.65        67.29612
472.10        67.19935
472.54        67.11884
472.98        67.14407
473.42        67.27267
473.87        67.54129
474.31        67.84301
474.75        67.77831
475.20        67.39813
475.64        67.32815
476.08        67.63236
476.52         66.9838
476.97        67.02389
477.41        66.72382
477.85         66.6944
478.29        66.29962
478.74        66.65619
479.18        66.80634
479.62        66.09474
480.06         66.0257
480.50         66.2802
480.95        66.29446
481.39        67.07955
481.83        66.47069
482.27        66.76234
482.72        67.27402
483.16        66.80738
483.60        66.91803
484.04        67.13258
484.48         67.1731
484.93        66.79768
485.37        67.31407
485.81        66.44632
486.25        65.53495
486.69        66.91327
487.14         66.9538
487.58         65.4976
488.02        65.95993
488.46        66.49358
488.90        66.43208
489.34         66.0197
489.79        66.76469
490.23        65.85721
490.67        65.91574
491.11        65.99877
491.55        65.80586
491.99        65.39102
492.43        65.23447
492.88        65.38964
493.32        65.63313
493.76        65.87394
494.20        66.06774
494.64        66.17027
495.08        66.18349
495.52        66.13458
495.96        66.06792
496.41        66.02837
496.85        66.05778
497.29        66.03963
497.73        66.07668
498.17        65.48818
498.61        65.22085
499.05        65.14537
499.49        65.22434
499.93        65.35607
500.37        65.32587
500.82         65.1814
501.26         65.0183
501.70        65.22823
502.14        65.35491
502.58        65.31997
503.02        65.36824
503.46        65.44956
503.90        65.53081
504.34        65.58028
504.78        65.59312
505.22        65.56927
505.66        65.43523
506.10        65.23705
506.54        65.27565
506.98        65.50849
507.42        65.42263
507.86        64.97698
508.30        65.15562
508.74         64.7834
509.18        64.63078
509.62        64.42165
510.06        64.40173
510.50        64.58157
510.94        64.90804
511.38        65.25921
511.82        65.40047
512.26        65.28148
512.70        64.97251
513.14        64.61162
513.58        64.42934
514.02        64.48222
514.46        64.66877
514.90        64.87276
515.34        65.07757
515.78        64.95956
516.22        64.80189
516.66        64.60236
517.10        64.48621
517.54        64.48492
517.98         64.5583
518.42        64.66006
518.86        64.71417
519.30        64.69815
519.74        64.63777
520.18        64.56675
520.62        64.53043
521.06        64.54581
521.50        64.60715
521.93        64.68781
522.37        64.72533
522.81         64.7165
523.25        64.67001
523.69        64.64618
524.13        64.73964
524.57        64.95479
525.01        65.24926
525.45        65.51617
525.89        65.58418
526.32        65.41022
526.76        65.07788
527.20        64.68943
527.64        64.41069
528.08        64.29138
528.52        64.27545
528.96        64.32453
529.40         64.4034
529.83        64.46632
530.27        64.47643
530.71        64.44373
531.15        64.44201
531.59        64.47462
532.03         64.4926
532.46        64.47141
532.90        64.42307
533.34        64.34425
533.78        64.24386
534.22        64.14828
534.66        64.09531
535.09        64.08561
535.53         64.1191
535.97        64.16727
536.41        64.19738
536.85        64.19621
537.28        64.16916
537.72        64.11839
538.16        64.04282
538.60        63.94755
539.04        63.83796
539.47        63.71511
539.91        63.63338
540.35        63.58636
540.79        63.57824
541.22        63.59577
541.66        63.62671
542.10        63.66101
542.54        63.70334
542.97        63.75684
543.41        63.84621
543.85        63.96093
544.29        64.09937
544.72        64.20321
545.16        64.21984
545.60        64.13814
546.04        63.95125
546.47        63.73665
546.91        63.72886
547.35        63.91464
547.79        64.02562
548.22         63.9919
548.66        64.14556
549.10        64.32111
549.53        64.31476
549.97        63.99281
550.41        64.54248
550.84        64.03342
551.28        63.93387
551.72        63.68921
552.15         63.8549
552.59        63.63921
553.03        63.76632
553.46        63.81521
553.90        63.85652
554.34        63.81435
554.77        63.78153
555.21        63.76968
555.65        63.64397
556.08        63.47365
556.52        63.54254
556.96        63.80066
557.39        64.01518
557.83        64.14342
558.27        64.16785
558.70        64.12955
559.14          64.177
559.57        64.25805
560.01        64.27937
560.45        64.23738
560.88        63.90742
561.32        63.69738
561.75        63.74479
562.19        64.05279
562.63        63.90646
563.06        63.40782
563.50        63.40718
563.93        63.82823
564.37        64.00404
564.80         63.8886
565.24        63.85934
565.68        63.91293
566.11        63.93749
566.55        63.93558
566.98        63.83278
567.42        63.74121
567.85        63.72447
568.29         63.7783
568.72        64.05872
569.16        64.62755
569.60         64.0859
570.03        64.36822
570.47        64.65706
570.90        64.51808
571.34        64.22669
571.77        64.50381
572.21        64.58381
572.64        64.66941
573.08        64.58574
573.51        64.43565
573.95        64.20136
574.38        64.86308
574.82        64.53545
