SpectraSmart Spectrum 2.9.0.0
--------- Device Information -----------
Spectrum Name :  反射率_0
Saving Time :  2024/04/30 00:31:51
Spectro-Module Model Name : SE2030-DUVN
Spectro-Module Serial Number : OS361AC55029948
Wavelength Start : 200
Wavelength End : 1025
Wavelength Unit : Wavelength(nm)
Spectrum Unit : Reflectance(%)
-----------Spectrum Setting ------------
Integration Time : 20ms
Average : 10
Boxcar : 0
Background removal :  enabled
linearity correction :  enabled
SC :  disabled
Intensity correction :  disabled
DWT denoise :  enabled
savitzky-golay :  disabled
FFT :  disabled
Running average :  disabled
Kalman :  disabled
High pass :  disabled
---------------BEGIN--------------------
Wavelength(nm)             Reflectance(%)
200.29               0
200.75        70.18861
201.21        63.97137
201.67        58.67476
202.13        54.56815
202.58        52.12138
203.04        51.07416
203.50         53.5404
203.96        64.01791
204.42        82.33778
204.88        104.9464
205.34        122.0313
205.80        121.3789
206.26        106.4842
206.72        87.16456
207.18         70.1031
207.64        58.38344
208.10        50.70113
208.55        44.64014
209.01         40.4885
209.47        40.45635
209.93        44.20971
210.39        50.37614
210.85        55.61134
211.31        57.03111
211.77        54.45154
212.23        47.42104
212.69        37.55538
213.14        34.36161
213.60        41.66455
214.06        53.97495
214.52        64.39607
214.98        68.85985
215.44        68.39825
215.90        64.66124
216.36         60.2976
216.81         60.3093
217.27        67.18792
217.73        81.20425
218.19        99.94675
218.65        110.5424
219.11        105.5712
219.57        91.25848
220.02        77.20554
220.48         69.3897
220.94        66.42532
221.40        66.01193
221.86        66.37592
222.32        63.93336
222.77        58.58504
223.23        53.99089
223.69        50.67544
224.15        48.11742
224.61        45.84092
225.06        43.36444
225.52        41.55258
225.98        42.13214
226.44        44.88388
226.90        48.33154
227.36        51.11926
227.81        52.48791
228.27         52.6645
228.73        51.85668
229.19        50.45422
229.65        49.36742
230.10        48.93436
230.56        48.97136
231.02        48.84267
231.48        47.89951
231.93        46.04108
232.39        43.53065
232.85        40.94174
233.31        39.46818
233.77         39.4907
234.22        40.79873
234.68        42.48395
235.14        42.86759
235.60        41.60932
236.05        39.38254
236.51        37.38692
236.97        37.16111
237.43        39.14019
237.88        43.26424
238.34        49.20708
238.80        55.29431
239.26        59.59794
239.71        62.09524
240.17        62.78722
240.63        62.64181
241.08        62.19392
241.54        60.51442
242.00        58.24957
242.46        59.22681
242.91         66.9222
243.37        79.99082
243.83        92.37546
244.28        99.14552
244.74         100.351
245.20        95.86412
245.66        88.66458
246.11        86.43392
246.57        92.76836
247.03        107.4233
247.48        122.3228
247.94        119.9459
248.40        102.3173
248.85        81.05633
249.31        66.50653
249.77        62.71919
250.22        68.81201
250.68        85.45256
251.14         112.257
251.59        127.8079
252.05         116.865
252.51         96.1953
252.96        80.36504
253.42        74.28374
253.88        74.82008
254.33        78.81281
254.79        83.98698
255.25        85.42612
255.70        82.34898
256.16        78.23865
256.62         74.7123
257.07        72.45715
257.53        71.51628
257.99        71.05384
258.44        70.20783
258.90        68.78228
259.35        66.61924
259.81        64.55672
260.27        62.89576
260.72         61.8784
261.18         61.5085
261.63        61.23516
262.09        60.81109
262.55          59.608
263.00        57.66268
263.46        55.54942
263.91         53.4432
264.37        51.82029
264.83        50.60887
265.28        49.58775
265.74        48.81752
266.19        48.17889
266.65        47.69096
267.11        47.32141
267.56        46.93703
268.02        46.34106
268.47        45.46201
268.93         44.3482
269.38        43.08878
269.84        41.98322
270.30        41.11224
270.75        40.41215
271.21         39.7813
271.66        39.01524
272.12         38.0725
272.57          37.005
273.03        35.93119
273.48        34.95165
273.94        34.16848
274.39        33.50385
274.85        32.96027
275.31        32.46553
275.76         31.9708
276.22         31.5111
276.67        31.05151
277.13        30.63684
277.58         30.2167
278.04        29.81147
278.49        29.34937
278.95        28.82085
279.40        28.20035
279.86        27.59551
280.31        27.00851
280.77        26.55684
281.22        26.22721
281.68        26.00375
282.13        25.90303
282.59        25.99713
283.04        26.23722
283.50        26.58255
283.95        26.84932
284.41        26.77148
284.86        26.31675
285.32        25.63733
285.77        24.90881
286.22        24.45642
286.68        24.35486
287.13        24.45987
287.59        24.70616
288.04        24.93068
288.50        25.08719
288.95        25.19994
289.41        25.24766
289.86        25.15211
290.32        24.95189
290.77        24.67704
291.22         24.4416
291.68        24.42537
292.13        24.66794
292.59         25.1479
293.04          25.834
293.50        26.70447
293.95        27.73075
294.40        28.92109
294.86         30.2007
295.31        31.46319
295.77        32.67619
296.22        33.84997
296.68        35.05324
297.13        36.37697
297.58         37.8504
298.04        39.41112
298.49        41.01548
298.95        42.60204
299.40        44.14273
299.85        45.66966
300.31        47.19205
300.76        48.64845
301.21        50.07972
301.67        51.52624
302.12        53.02586
302.58        54.78173
303.03        56.78272
303.48        58.89647
303.94        61.04342
304.39        63.45145
304.84        65.42462
305.30        67.51298
305.75        69.49081
306.20        71.38904
306.66        73.21735
307.11        74.90872
307.57        76.51389
308.02         77.9968
308.47         79.4108
308.93        80.77975
309.38        82.10144
309.83        83.44346
310.29        84.81263
310.74        86.17462
311.19        87.45818
311.65        88.53985
312.10        89.38731
312.55        90.06086
313.00        90.70344
313.46         91.5424
313.91        92.60311
314.36        93.81383
314.82        95.02437
315.27        96.01851
315.72        96.71233
316.18        97.18352
316.63        97.48816
317.08        97.73141
317.53        97.97729
317.99        98.22424
318.44        98.49699
318.89        98.85257
319.35        99.29593
319.80        99.81252
320.25        100.4039
320.70        101.0628
321.16        101.7345
321.61        102.4512
322.06        103.0728
322.51        103.3975
322.97        103.3921
323.42         103.138
323.87        102.8173
324.32         102.747
324.78        102.9913
325.23        103.5254
325.68        104.1998
326.13         104.753
326.59        105.0772
327.04        105.2799
327.49        105.4414
327.94        105.7456
328.39        106.2329
328.85        106.7829
329.30        107.3607
329.75        107.7154
330.20        107.7891
330.66        107.6568
331.11        107.4817
331.56        107.4432
332.01        107.6292
332.46        108.0091
332.92        108.5041
333.37         109.129
333.82        109.7956
334.27        110.4957
334.72        111.2359
335.17        112.0311
335.63        112.8314
336.08         113.671
336.53         114.382
336.98        114.7643
337.43        114.7967
337.88        114.5562
338.34        114.2751
338.79        114.3456
339.24        114.8584
339.69        115.7241
340.14        116.7305
340.59        117.5013
341.05        117.9317
341.50        118.1389
341.95        118.2686
342.40        118.5727
342.85        119.1137
343.30        119.7725
343.75        120.4642
344.20        121.0694
344.66        121.5499
345.11        121.9587
345.56        122.2596
346.01        122.3767
346.46        122.3354
346.91        122.1715
347.36        122.0597
347.81        122.2718
348.26        122.8386
348.72        123.6402
349.17        124.5172
349.62        125.1196
350.07        125.3404
350.52        125.3083
350.97        125.1032
351.42        124.8506
351.87        124.6278
352.32         124.393
352.77        124.2827
353.22        124.5274
353.67        125.1202
354.13        125.9469
354.58         126.728
355.03         127.001
355.48        126.6454
355.93         125.804
356.38        124.6585
356.83        123.4956
357.28        122.4383
357.73        121.4383
358.18        120.5285
358.63        119.7542
359.08        119.1123
359.53        118.6054
359.98        118.1775
360.43        117.7152
360.88          117.18
361.33        116.5895
361.78        115.9347
362.23        115.2166
362.68        114.4467
363.13        113.6198
363.58        112.7965
364.03        112.0755
364.48        111.4729
364.93        110.9648
365.38        110.4748
365.83        109.8773
366.28        109.1482
366.73        108.3311
367.18        107.4977
367.63        106.7586
368.08        106.1354
368.53        105.5867
368.98        105.0691
369.43        104.5084
369.88        103.8973
370.33        103.2935
370.78        102.7015
371.23        102.1307
371.68        101.5867
372.13        101.0213
372.58        100.5343
373.03        100.2907
373.48        100.2777
373.93        100.4348
374.38         100.464
374.83         99.8866
375.28        98.65535
375.72        96.94791
376.17        95.25026
376.62        94.10184
377.07        93.61326
377.52        93.59612
377.97        93.81308
378.42        93.86964
378.87        93.62989
379.32        93.21597
379.77        92.69373
380.22        92.15323
380.67        91.62141
381.11        91.03867
381.56        90.42522
382.01        89.85498
382.46        89.36266
382.91        88.97916
383.36        88.64019
383.81        88.22425
384.26        87.71323
384.71        87.12843
385.15        86.59229
385.60        86.36141
386.05        86.42898
386.50        86.69328
386.95         86.9186
387.40        86.74772
387.85        86.13397
388.29        85.18168
388.74        84.22388
389.19        83.48723
389.64         83.0329
390.09        82.76138
390.54        82.61234
390.98        82.48647
391.43        82.37221
391.88        82.24628
392.33        82.05781
392.78        81.84795
393.23        81.58162
393.67        81.02753
394.12        80.33603
394.57        80.16357
395.02        79.49257
395.47        79.66145
395.91        80.17215
396.36         80.3282
396.81        80.06082
397.26        79.66304
397.71        79.25893
398.15        79.04697
398.60        79.03126
399.05         78.6665
399.50        78.04867
399.95        77.79269
400.39        77.63995
400.84        77.87475
401.29        78.21208
401.74        78.18507
402.18        77.72304
402.63        77.04774
403.08        76.42178
403.53        76.13223
403.97        76.23144
404.42        76.61153
404.87         77.0502
405.32        77.15156
405.76        76.82131
406.21        76.34573
406.66        75.83424
407.11        75.26167
407.55        74.85693
408.00        74.93162
408.45        75.42413
408.90        76.11018
409.34        76.66644
409.79        76.41908
410.24        75.60563
410.68        75.32752
411.13        75.66597
411.58         75.9683
412.03        76.08881
412.47         76.1032
412.92        75.94147
413.37        75.63544
413.81        75.23572
414.26        74.89531
414.71         74.6209
415.15        74.39639
415.60        74.22934
416.05        74.18007
416.49        74.25754
416.94        74.45139
417.39        74.66898
417.83        74.73351
418.28        74.62148
418.73        74.38702
419.17        74.15303
419.62        74.13483
420.07        74.34416
420.51        74.67033
420.96        75.03483
421.41         75.1777
421.85        75.01425
422.30        74.97646
422.74        74.95723
423.19        74.30123
423.64        73.29036
424.08        73.32423
424.53        74.28902
424.98        74.74976
425.42        74.57672
425.87        74.72532
426.31        75.12187
426.76        74.89805
427.21        74.05847
427.65        73.91312
428.10        74.30083
428.54        74.22617
428.99        73.71398
429.44        73.16242
429.88        72.80672
430.33        73.01808
430.77        73.64344
431.22        74.45832
431.66        75.37956
432.11        75.20753
432.56        74.17175
433.00        73.70978
433.45        74.22707
433.89        74.37621
434.34        75.52303
434.78        76.52538
435.23        74.44502
435.67        73.60899
436.12        73.33893
436.57        73.46973
437.01         73.8329
437.46        74.38828
437.90        74.28777
438.35        74.71225
438.79        75.32847
439.24        75.57724
439.68         75.4629
440.13        75.42859
440.57        75.55123
441.02        75.61616
441.46          75.594
441.91        75.81977
442.35        75.95854
442.80        75.82195
443.24        75.67583
443.69        75.29388
444.13        74.90114
444.58        74.69086
445.02        74.65892
445.47        74.77772
445.91        74.97276
446.36        75.15942
446.80        75.28083
447.24        75.39438
447.69        75.49027
448.13        75.49084
448.58        75.43539
449.02        75.38526
449.47        75.39223
449.91        75.43164
450.36        75.52617
450.80        75.69176
451.25        75.88599
451.69        75.97758
452.13        75.95049
452.58        75.87103
453.02        75.78383
453.47        75.74014
453.91        75.72861
454.36        75.92376
454.80        75.93226
455.24        75.97312
455.69        75.92485
456.13        75.92047
456.58        75.92837
457.02        75.55011
457.46        74.95465
457.91        74.81412
458.35        75.04507
458.79        75.07703
459.24        74.93687
459.68        74.92889
460.13        75.02905
460.57        75.01485
461.01        75.48209
461.46        74.99996
461.90         74.5694
462.34        75.65163
462.79        75.09843
463.23        75.04097
463.68         74.5509
464.12        74.26824
464.56        74.22208
465.01        73.94871
465.45        73.99319
465.89        73.90434
466.34        73.85388
466.78        74.35535
467.22        74.62041
467.67        74.60689
468.11        74.33963
468.55        73.86784
468.99        73.40102
469.44        73.02951
469.88        72.82293
470.32        72.78626
470.77        72.85798
471.21        72.94203
471.65         72.9848
472.10        73.02879
472.54        73.07539
472.98        73.13964
473.42        73.20922
473.87        73.34788
474.31        73.47729
474.75        73.31305
475.20        72.95836
475.64        72.93156
476.08        73.18539
476.52        73.08632
476.97        72.59386
477.41        72.47843
477.85        72.05618
478.29        71.84726
478.74        72.33759
479.18         72.3382
479.62        72.09789
480.06        72.11115
480.50        72.40685
480.95         72.2487
481.39        72.79964
481.83        72.30251
482.27        73.13283
482.72        72.91431
483.16        72.84467
483.60        72.79379
484.04        72.93941
484.48        73.16148
484.93        73.29892
485.37        72.94328
485.81        72.34535
486.25        71.49432
486.69          72.472
487.14        72.16034
487.58        71.44071
488.02        72.12327
488.46        72.64657
488.90        72.79934
489.34         72.2869
489.79        72.87227
490.23        72.04793
490.67        71.95918
491.11        71.86027
491.55        71.70202
491.99        71.50401
492.43        71.44717
492.88        71.55179
493.32        71.73988
493.76        71.95821
494.20        72.16268
494.64         72.3022
495.08         72.4258
495.52        72.53844
495.96        72.47263
496.41        72.20002
496.85        72.59313
497.29        72.09355
497.73        72.24938
498.17        71.73856
498.61        71.84992
499.05        71.30197
499.49        71.45562
499.93        71.81035
500.37        72.01238
500.82        72.09927
501.26         71.4474
501.70        71.43442
502.14        71.99266
502.58        71.70956
503.02        71.84097
503.46         71.8576
503.90        71.93548
504.34        72.03171
504.78        72.06439
505.22         72.0387
505.66         71.9518
506.10         71.8415
506.54        71.84126
506.98        71.97927
507.42        72.07837
507.86        72.00365
508.30         72.3566
508.74        71.79615
509.18         71.4395
509.62        71.05831
510.06        70.94357
510.50        71.13622
510.94        71.56849
511.38        72.06736
511.82        72.30653
512.26        72.20775
512.70        71.87301
513.14        71.46625
513.58        71.24127
514.02        71.26455
514.46        71.45016
514.90        71.69851
515.34        71.85223
515.78        71.85863
516.22        71.77221
516.66        71.64191
517.10        71.53516
517.54        71.47652
517.98        71.44261
518.42        71.41054
518.86        71.35154
519.30        71.26109
519.74        71.15412
520.18        71.06817
520.62        71.05191
521.06        71.11501
521.50        71.25224
521.93        71.42025
522.37        71.48683
522.81        71.43183
523.25        71.34704
523.69        71.33204
524.13        71.18523
524.57        71.49779
525.01        71.75749
525.45        72.02013
525.89        72.08565
526.32        71.90917
526.76        71.57808
527.20        71.19051
527.64        70.91704
528.08        70.80408
528.52        70.79986
528.96        70.86818
529.40        70.94929
529.83        71.01167
530.27        71.08778
530.71        71.15063
531.15        71.16167
531.59        71.11546
532.03        71.00968
532.46        70.88416
532.90        70.83841
533.34        70.88157
533.78        70.99332
534.22        71.10661
534.66        71.11575
535.09        70.99783
535.53        70.80357
535.97        70.60413
536.41        70.52935
536.85        70.60464
537.28        70.77905
537.72        70.97466
538.16        71.06082
538.60        71.00622
539.04        70.86272
539.47        70.66695
539.91        70.53233
540.35        70.46906
540.79        70.45288
541.22        70.47588
541.66        70.54057
542.10        70.63081
542.54        70.75323
542.97        70.86703
543.41        70.92654
543.85        70.91494
544.29         70.8597
544.72        70.76509
545.16        70.68108
545.60        70.61889
546.04        70.53548
546.47        70.46596
546.91        70.57471
547.35        70.81654
547.79        70.94334
548.22        70.89923
548.66        70.97636
549.10        71.18028
549.53        71.13267
549.97        70.74852
550.41        71.36432
550.84        70.85251
551.28        70.80634
551.72        70.58959
552.15        70.84602
552.59        70.67754
553.03        70.71558
553.46         70.7112
553.90        70.72067
554.34        70.72115
554.77        70.77203
555.21        70.87947
555.65        70.69685
556.08         70.6742
556.52         70.6793
556.96        70.81271
557.39        70.96109
557.83         71.0949
558.27        71.11813
558.70        71.06585
559.14        71.11199
559.57        71.21158
560.01        71.29553
560.45        71.33307
560.88         71.0472
561.32        70.87032
561.75        70.83737
562.19         71.0115
562.63        70.91895
563.06        70.60426
563.50        70.56638
563.93        70.75951
564.37        70.84677
564.80        70.79038
565.24         70.7959
565.68        70.84258
566.11        70.84513
566.55        70.81393
566.98        70.72128
567.42        70.67033
567.85        70.62592
568.29        70.59673
568.72        70.83854
569.16        71.43262
569.60        70.82928
570.03        71.17714
570.47        71.42368
570.90        71.40832
571.34        71.03722
571.77         71.3642
572.21        71.40313
572.64        71.44733
573.08        71.34079
573.51        71.21864
573.95         70.9533
574.38        71.93269
574.82        71.53989
