SpectraSmart Spectrum 2.9.0.0
--------- Device Information -----------
Spectrum Name :  反射率_0
Saving Time :  2024/04/30 00:29:31
Spectro-Module Model Name : SE2030-DUVN
Spectro-Module Serial Number : OS361AC55029948
Wavelength Start : 200
Wavelength End : 1025
Wavelength Unit : Wavelength(nm)
Spectrum Unit : Reflectance(%)
-----------Spectrum Setting ------------
Integration Time : 20ms
Average : 10
Boxcar : 0
Background removal :  enabled
linearity correction :  enabled
SC :  disabled
Intensity correction :  disabled
DWT denoise :  enabled
savitzky-golay :  disabled
FFT :  disabled
Running average :  disabled
Kalman :  disabled
High pass :  disabled
---------------BEGIN--------------------
Wavelength(nm)             Reflectance(%)
200.29               0
200.75        92.96647
201.21        81.20409
201.67        70.43264
202.13        64.39455
202.58        64.92022
203.04        71.45985
203.50        82.60298
203.96        94.92995
204.42        105.0537
204.88        111.4399
205.34        111.8702
205.80        105.4202
206.26        95.24614
206.72        84.90837
207.18        75.34341
207.64        65.76215
208.10        55.48843
208.55        43.77217
209.01        33.31129
209.47        31.63533
209.93        39.36995
210.39        51.97546
210.85        63.20165
211.31        68.27555
211.77        67.16901
212.23        60.09436
212.69        48.78201
213.14        43.76107
213.60        49.94192
214.06        61.62428
214.52        71.49514
214.98        74.93613
215.44        72.92248
215.90        67.46132
216.36        61.49375
216.81        60.56055
217.27        67.55094
217.73        82.71687
218.19        104.2397
218.65        119.5055
219.11        119.4055
219.57        108.4532
220.02        95.97028
220.48        88.71366
220.94         85.5863
221.40        84.34196
221.86        82.32098
222.32        75.24888
222.77        64.88832
223.23        56.51203
223.69        51.24741
224.15        48.47768
224.61        47.23783
225.06        46.84704
225.52         47.5699
225.98        49.43581
226.44         51.7436
226.90        53.93617
227.36         55.3851
227.81        55.77574
228.27        55.34282
228.73        54.08955
229.19        52.59603
229.65        52.12378
230.10         52.8368
230.56        54.22604
231.02        55.32493
231.48        55.27742
231.93        54.06881
232.39        52.10842
232.85        50.05101
233.31        49.20452
233.77        49.99611
234.22        52.20189
234.68        54.92411
235.14        56.49373
235.60         56.4704
236.05        55.38303
236.51        54.44034
236.97        55.30152
237.43        58.54609
237.88        64.39494
238.34        72.24925
238.80        79.54334
239.26        83.75607
239.71        84.89327
240.17        84.22652
240.63         84.6727
241.08        87.70577
241.54        93.49506
242.00        103.1786
242.46        114.2546
242.91        121.4997
243.37         122.806
243.83        121.2689
244.28        122.5128
244.74        127.9339
245.20        135.6501
245.66        145.5407
246.11        156.5083
246.57          166.39
247.03         177.588
247.48        183.0249
247.94        169.7969
248.40        144.6528
248.85        118.2929
249.31        101.0571
249.77        96.09703
250.22         101.913
250.68        119.4534
251.14        148.1889
251.59        164.3574
252.05        151.5754
252.51        128.3381
252.96        110.6736
253.42        104.1805
253.88        105.3212
254.33        110.8665
254.79        117.9482
255.25        120.2937
255.70        116.8515
256.16        111.9419
256.62        108.1076
257.07        106.7959
257.53         107.918
257.99        109.9662
258.44        110.9103
258.90        109.1786
259.35         104.803
259.81        100.0835
260.27        96.08191
260.72        93.59899
261.18        92.68883
261.63        92.25352
262.09        91.98167
262.55        91.00652
263.00        89.19475
263.46        87.25822
263.91        85.15196
264.37        83.30679
264.83        81.60548
265.28        79.85756
265.74        78.28918
266.19        76.94685
266.65         75.9547
267.11        75.22378
267.56        74.53345
268.02         73.5998
268.47        72.29713
268.93        70.70662
269.38         68.9903
269.84        67.57088
270.30        66.55619
270.75         65.8195
271.21        65.14349
271.66        64.11604
272.12        62.67664
272.57        60.91195
273.03        59.08661
273.48        57.51395
273.94        56.36632
274.39        55.46732
274.85        54.71905
275.31        53.84117
275.76         52.7546
276.22        51.62601
276.67        50.50024
277.13        49.59285
277.58        48.86156
278.04        48.28149
278.49        47.72161
278.95        47.15614
279.40        46.49363
279.86         45.8443
280.31        45.13809
280.77        44.43439
281.22        43.69878
281.68        42.98321
282.13        42.32055
282.59        41.85016
283.04        41.53979
283.50        41.37345
283.95        41.21604
284.41        40.90311
284.86        40.39687
285.32        39.82103
285.77        39.25766
286.22        38.92586
286.68         38.8676
287.13        38.94688
287.59        39.12273
288.04        39.25454
288.50        39.31944
288.95        39.32108
289.41        39.25516
289.86        39.04268
290.32        38.73959
290.77        38.38358
291.22        38.09873
291.68        38.07333
292.13        38.34252
292.59        38.88578
293.04        39.66931
293.50        40.68995
293.95        41.90767
294.40         43.3327
294.86        44.84961
295.31        46.28722
295.77        47.60284
296.22        48.81514
296.68        50.05582
297.13        51.51422
297.58         53.2314
298.04        55.10526
298.49        57.00025
298.95         58.7281
299.40        60.22789
299.85        61.58397
300.31        62.88569
300.76        64.17439
301.21        65.53103
301.67        66.97677
302.12        68.50734
302.58        70.27045
303.03        72.22384
303.48        74.28611
303.94        76.41867
304.39        78.72639
304.84        80.78859
305.30        82.92649
305.75        84.92373
306.20        86.71513
306.66        88.31873
307.11        89.70339
307.57        91.02242
308.02        92.36369
308.47        93.80936
308.93        95.33162
309.38        96.85995
309.83        98.36762
310.29         99.8263
310.74        101.2225
311.19         102.489
311.65        103.5045
312.10        104.2502
312.55        104.8029
313.00        105.3399
313.46        106.1451
313.91        107.2575
314.36        108.5834
314.82        109.9733
315.27        111.2115
315.72        112.1841
316.18        112.9457
316.63        113.4728
317.08         113.749
317.53        113.8248
317.99        113.7551
318.44        113.6446
318.89        113.6815
319.35        113.9256
319.80        114.3397
320.25         114.943
320.70        115.7465
321.16        116.6762
321.61        117.7574
322.06        118.7634
322.51        119.3471
322.97        119.4217
323.42        119.0835
323.87        118.5758
324.32        118.3288
324.78        118.4451
325.23        118.9003
325.68         119.496
326.13        119.8877
326.59        119.9599
327.04        119.8569
327.49        119.7823
327.94        120.1175
328.39        120.9282
328.85        122.0199
329.30        123.1626
329.75         123.732
330.20        123.5749
330.66        122.8866
331.11         122.044
331.56        121.5675
332.01         121.653
332.46         122.167
332.92        122.9603
333.37        123.9382
333.82        124.9364
334.27        125.9928
334.72        127.0312
335.17        127.9205
335.63        128.5835
336.08        129.0767
336.53        129.3829
336.98        129.5903
337.43        129.7462
337.88        129.8463
338.34        129.9556
338.79        130.1888
339.24         130.566
339.69        131.0928
340.14         131.671
340.59        132.1117
341.05        132.3842
341.50        132.5533
341.95        132.7251
342.40        133.0975
342.85        133.6987
343.30        134.4109
343.75        135.1557
344.20        135.8138
344.66         136.343
345.11        136.8036
345.56        137.0864
346.01          137.01
346.46         136.607
346.91        135.9573
347.36        135.4213
347.81        135.5442
348.26        136.3939
348.72         137.763
349.17         139.262
349.62        140.1382
350.07        140.1806
350.52        139.6409
350.97        138.8246
351.42        138.2047
351.87        137.9421
352.32        137.8826
352.77        138.0128
353.22        138.3238
353.67        138.7439
354.13        139.2502
354.58        139.6661
355.03        139.6831
355.48        139.2258
355.93        138.3745
356.38        137.2544
356.83        136.0759
357.28        134.9329
357.73        133.8015
358.18         132.728
358.63        131.7716
359.08        130.9418
359.53        130.2452
359.98         129.623
360.43        128.9623
360.88        128.2309
361.33        127.4475
361.78        126.6454
362.23        125.8871
362.68        125.1839
363.13        124.5066
363.58        123.8244
364.03        123.0937
364.48         122.301
364.93        121.4601
365.38        120.5954
365.83        119.7495
366.28        118.9397
366.73        118.1587
367.18        117.3894
367.63        116.5979
368.08        115.7753
368.53        114.9391
368.98        114.1134
369.43        113.3294
369.88        112.6119
370.33        111.9734
370.78        111.4002
371.23        110.8751
371.68        110.3794
372.13        109.8721
372.58        109.4033
373.03        109.0578
373.48        108.8125
373.93         108.628
374.38          108.29
374.83        107.4645
375.28        106.1474
375.72        104.4825
376.17        102.8844
376.62        101.7701
377.07        101.2223
377.52        101.0849
377.97        101.1849
378.42        101.2339
378.87        101.1115
379.32        100.8895
379.77        100.5515
380.22        100.0724
380.67        99.45665
381.11        98.68591
381.56        97.84088
382.01        97.09872
382.46        96.52652
382.91        96.12114
383.36        95.78905
383.81        95.36263
384.26        94.80892
384.71        94.17292
385.15        93.57151
385.60        93.25271
386.05         93.2131
386.50        93.34915
386.95        93.46424
387.40        93.26401
387.85        92.71045
388.29        91.88548
388.74        91.06583
389.19         90.3881
389.64        89.89548
390.09        89.49538
390.54        89.20396
390.98        89.06017
391.43        89.08063
391.88        89.16734
392.33        89.13579
392.78        88.94528
393.23        88.52502
393.67        87.46091
394.12        86.12898
394.57        85.88995
395.02        85.57637
395.47        85.89326
395.91         86.2664
396.36        86.40482
396.81        86.20506
397.26        85.77505
397.71        85.26826
398.15        84.80387
398.60        84.52257
399.05        84.40565
399.50        84.34212
399.95        84.08493
400.39        83.40267
400.84        83.36526
401.29           83.77
401.74        83.80611
402.18         83.3791
402.63        82.79839
403.08        82.27379
403.53        82.02544
403.97         82.0846
404.42        82.31561
404.87        82.54218
405.32        82.49323
405.76        82.09637
406.21        81.58636
406.66        81.05537
407.11        80.44517
407.55        79.96547
408.00        79.99665
408.45        80.46619
408.90        80.96828
409.34        81.27165
409.79        81.09798
410.24        80.63245
410.68        80.54787
411.13        80.89341
411.58        81.25773
412.03        81.47001
412.47        81.44627
412.92        81.11304
413.37        80.55865
413.81        79.90891
414.26         79.4297
414.71        79.14742
415.15        79.01166
415.60        78.97582
416.05        79.00835
416.49        79.08727
416.94        79.22783
417.39        79.35808
417.83        79.33877
418.28        79.15502
418.73         78.8336
419.17        78.50639
419.62        78.40859
420.07        78.55478
420.51        78.84428
420.96        79.15257
421.41        79.15303
421.85        78.76604
422.30        78.42324
422.74        78.11747
423.19        77.42197
423.64        76.58817
424.08         76.7828
424.53        77.84195
424.98        78.32132
425.42        78.18936
425.87         78.2747
426.31        78.57226
426.76        78.09561
427.21        76.93668
427.65         76.9221
428.10         77.7635
428.54        77.60661
428.99        76.61313
429.44        76.12952
429.88        76.22601
430.33        76.63586
430.77        76.75967
431.22        77.08498
431.66        77.35214
432.11         77.1209
432.56        76.51836
433.00        76.22838
433.45        76.48428
433.89         76.8702
434.34        77.12579
434.78        78.61169
435.23        76.49141
435.67        75.76122
436.12        75.37218
436.57        75.40361
437.01        75.63802
437.46        76.55905
437.90        76.31777
438.35        76.26604
438.79        77.06925
439.24        77.16529
439.68        76.95367
440.13        76.85894
440.57        76.94585
441.02        76.99931
441.46         76.9867
441.91        77.05231
442.35        77.06794
442.80        77.16693
443.24         77.2289
443.69        76.94339
444.13        76.40262
444.58        76.09335
445.02        76.00646
445.47         75.9479
445.91        75.90765
446.36        75.98109
446.80        76.13364
447.24        76.35782
447.69        76.58039
448.13        76.65871
448.58        76.58822
449.02        76.38141
449.47        76.16238
449.91         76.0902
450.36        76.21304
450.80        76.46053
451.25        76.73103
451.69        76.82721
452.13        76.71307
452.58        76.47894
453.02        76.21519
453.47        76.05901
453.91         76.0278
454.36         76.2391
454.80        76.27641
455.24        76.43342
455.69        76.50595
456.13        76.42657
456.58        76.03349
457.02        75.67796
457.46        75.72263
457.91        75.67936
458.35        75.58724
458.79        75.54527
459.24        75.58694
459.68        75.56697
460.13        75.45922
460.57        75.68528
461.01        75.49714
461.46        75.33434
461.90        75.04401
462.34        75.21117
462.79        75.52876
463.23        75.32922
463.68        74.65498
464.12        74.26563
464.56        74.20523
465.01        74.09213
465.45        73.90539
465.89        73.85349
466.34        73.87814
466.78         74.3405
467.22        74.18122
467.67        74.16093
468.11        73.98975
468.55        73.63628
468.99        73.20686
469.44        72.90211
469.88        72.77804
470.32         72.7927
470.77        72.86208
471.21        72.86829
471.65        72.76247
472.10        72.59914
472.54        72.45025
472.98        72.43659
473.42        72.55991
473.87        72.86208
474.31        73.19357
474.75        73.11024
475.20        72.70786
475.64        72.66282
476.08        72.96875
476.52        72.83643
476.97        72.21217
477.41        72.18193
477.85        71.95229
478.29        71.24303
478.74          72.813
479.18        72.50123
479.62        71.48046
480.06        71.16188
480.50        71.62571
480.95        71.74776
481.39        72.57677
481.83        71.77054
482.27         72.5009
482.72        72.45644
483.16        72.33497
483.60         72.3773
484.04        72.52477
484.48        72.81175
484.93        73.00227
485.37         72.9415
485.81        71.42692
486.25        71.32633
486.69        72.33747
487.14        72.03686
487.58        71.17892
488.02        71.50334
488.46         71.6069
488.90        71.69293
489.34        71.45513
489.79        72.15939
490.23        71.05636
490.67         71.1252
491.11        71.44673
491.55        71.28598
491.99        70.71748
492.43        70.52113
492.88         70.7555
493.32        71.04292
493.76        71.27502
494.20        71.44122
494.64        71.49287
495.08        71.46199
495.52        71.38694
495.96        71.24671
496.41        71.09211
496.85        71.23866
497.29        71.27433
497.73        71.42601
498.17        70.87638
498.61        70.94782
499.05        70.38696
499.49        70.51019
499.93         70.8447
500.37        70.79219
500.82        70.39565
501.26        70.24084
501.70        70.34864
502.14        70.58346
502.58        70.49604
503.02        70.59084
503.46        70.73487
503.90        70.88646
504.34         71.0313
504.78        71.16358
505.22        71.27345
505.66        71.33985
506.10        71.34163
506.54        71.32623
506.98        71.31123
507.42        71.15451
507.86        70.80819
508.30         70.9948
508.74        70.43414
509.18        70.19199
509.62        69.97099
510.06        69.93619
510.50        70.09548
510.94        70.41386
511.38         70.7827
511.82        70.98394
512.26        70.96214
512.70        70.77651
513.14        70.51759
513.58        70.32996
514.02        70.25876
514.46        70.26135
514.90        70.30334
515.34        70.33216
515.78        70.32761
516.22        70.30984
516.66        70.29266
517.10        70.28941
517.54        70.30115
517.98        70.31805
518.42        70.31564
518.86        70.26031
519.30        70.15147
519.74        70.00681
520.18         69.8704
520.62        69.80582
521.06        69.83095
521.50        69.93421
521.93        70.08277
522.37        70.19669
522.81        70.26087
523.25        70.28382
523.69        70.30213
524.13        70.37719
524.57        70.51321
525.01        70.68018
525.45        70.81458
525.89        70.81689
526.32        70.66125
526.76         70.4132
527.20        70.13552
527.64        69.92917
528.08        69.82357
528.52        69.78654
528.96        69.80278
529.40        69.84552
529.83        69.89198
530.27          69.961
530.71        70.01288
531.15        69.99005
531.59        69.88696
532.03        69.71848
532.46        69.53585
532.90        69.45296
533.34         69.4846
533.78        69.60091
534.22        69.74544
534.66        69.82863
535.09         69.8232
535.53        69.77264
535.97        69.70103
536.41        69.66987
536.85        69.69012
537.28        69.71674
537.72         69.7304
538.16        69.74985
538.60        69.64477
539.04        69.59175
539.47        69.53013
539.91        69.33428
540.35        69.06599
540.79        69.05904
541.22        69.26714
541.66        69.34795
542.10        69.27666
542.54         69.2479
542.97        69.28371
543.41        69.35497
543.85        69.45515
544.29         69.5988
544.72        69.71336
545.16        69.72626
545.60        69.62289
546.04        69.39835
546.47        69.15169
546.91        69.15176
547.35          69.384
547.79        69.56801
548.22        69.61372
548.66        69.75607
549.10        69.98222
549.53        69.93922
549.97        69.54622
550.41        70.11361
550.84         69.5565
551.28        69.45343
551.72        69.19055
552.15        69.39148
552.59         69.1946
553.03        69.26987
553.46        69.34884
553.90        69.41803
554.34        69.44745
554.77        69.49133
555.21        69.53608
555.65        69.43874
556.08        69.24258
556.52        69.17966
556.96         69.2454
557.39        69.33968
557.83        69.43938
558.27        69.47105
558.70        69.45039
559.14        69.49979
559.57        69.57319
560.01        69.60115
560.45        69.58759
560.88        69.35939
561.32        69.31084
561.75         69.3433
562.19        69.51825
562.63        69.42329
563.06        69.10265
563.50        69.09998
563.93         69.3858
564.37        69.28448
564.80        69.33842
565.24        69.31182
565.68        69.35307
566.11        69.34727
566.55        69.31173
566.98        69.22099
567.42        69.18022
567.85        69.18546
568.29        69.23145
568.72        69.51978
569.16        70.11009
569.60        69.52756
570.03         69.8855
570.47        70.09196
570.90         69.8741
571.34        69.71765
571.77        69.80177
572.21        69.85642
572.64        69.95795
573.08         69.8321
573.51        69.51766
573.95         69.6828
574.38         70.2631
574.82        69.76081
