SpectraSmart Spectrum 2.9.0.0
--------- Device Information -----------
Spectrum Name :  反射率_0
Saving Time :  2024/04/30 00:36:39
Spectro-Module Model Name : SE2030-DUVN
Spectro-Module Serial Number : OS361AC55029948
Wavelength Start : 200
Wavelength End : 1025
Wavelength Unit : Wavelength(nm)
Spectrum Unit : Reflectance(%)
-----------Spectrum Setting ------------
Integration Time : 20ms
Average : 10
Boxcar : 0
Background removal :  enabled
linearity correction :  enabled
SC :  disabled
Intensity correction :  disabled
DWT denoise :  enabled
savitzky-golay :  disabled
FFT :  disabled
Running average :  disabled
Kalman :  disabled
High pass :  disabled
---------------BEGIN--------------------
Wavelength(nm)             Reflectance(%)
200.29               0
200.75        61.32213
201.21        58.14508
201.67        56.62587
202.13        52.72134
202.58        45.20409
203.04        34.88212
203.50        26.97928
203.96        32.70333
204.42        54.64853
204.88        86.95125
205.34        114.8726
205.80        118.6637
206.26        101.5207
206.72        77.63139
207.18        55.80538
207.64         40.0736
208.10        29.06064
208.55        19.46745
209.01        12.97121
209.47        14.79483
209.93        24.24395
210.39        37.82512
210.85        49.54486
211.31        54.80506
211.77        53.82139
212.23        46.57631
212.69         35.2848
213.14        31.93707
213.60          41.255
214.06        56.06471
214.52        68.11854
214.98        72.53106
215.44        70.53151
215.90         64.2916
216.36         56.8227
216.81        53.77708
217.27        58.04091
217.73         69.5484
218.19        86.51763
218.65        97.91418
219.11        96.47523
219.57         86.8616
220.02        76.77553
220.48        71.62865
220.94        70.56678
221.40        71.67917
221.86        73.08113
222.32        70.63465
222.77        64.19797
223.23        58.04542
223.69        53.31761
224.15        49.64079
224.61         46.3231
225.06        42.74789
225.52        39.60886
225.98        38.68705
226.44        40.14946
226.90        42.69624
227.36        44.93515
227.81        45.94725
228.27         45.8812
228.73        45.04238
229.19        43.85257
229.65        43.23137
230.10         43.4178
230.56        44.00695
231.02         44.5001
231.48        44.50219
231.93         43.9148
232.39        42.93212
232.85        41.76671
233.31        40.88263
233.77        40.46362
234.22        40.55101
234.68        40.66993
235.14        40.01355
235.60        38.55214
236.05        36.65231
236.51         35.3533
236.97        35.98597
237.43        38.95753
237.88        44.55312
238.34          52.063
238.80        58.47908
239.26        61.22081
239.71        60.41979
240.17        57.86576
240.63        56.90573
241.08        58.83689
241.54        63.86829
242.00        72.63791
242.46        81.53887
242.91        84.85898
243.37        81.58781
243.83         76.4266
244.28        75.61003
244.74        80.19662
245.20        88.80167
245.66         99.9054
246.11        109.1351
246.57        113.4063
247.03        114.7613
247.48        111.7076
247.94        102.4985
248.40        91.51424
248.85        81.30725
249.31        75.34555
249.77        74.27692
250.22        77.55897
250.68        86.11922
251.14         99.6395
251.59        106.6446
252.05        99.68806
252.51        87.75388
252.96        78.59935
253.42        74.97832
253.88        74.92658
254.33         76.7691
254.79        79.16736
255.25        79.11116
255.70        76.33381
256.16        73.11325
256.62        70.59405
257.07         69.3008
257.53        69.23511
257.99        69.67255
258.44         69.5273
258.90        68.22266
259.35        65.69576
259.81        63.06321
260.27        60.89962
260.72        59.67019
261.18        59.34463
261.63        59.27588
262.09        59.12136
262.55        58.14852
263.00         56.3661
263.46        54.36841
263.91         52.3647
264.37         50.8667
264.83        49.79803
265.28        48.90784
265.74        48.21239
266.19        47.53121
266.65        46.88387
267.11        46.28561
267.56        45.64432
268.02        44.80875
268.47        43.72964
268.93        42.44971
269.38        41.09492
269.84        40.01971
270.30        39.30978
270.75        38.88242
271.21        38.55788
271.66        38.02927
272.12         37.2243
272.57        36.19626
273.03        35.12256
273.48        34.20361
273.94        33.55117
274.39        33.05873
274.85        32.61866
275.31         32.0084
275.76        31.18275
276.22        30.24898
276.67        29.34236
277.13          28.741
277.58        28.42592
278.04        28.32766
278.49        28.20371
278.95        27.79935
279.40        27.04532
279.86        26.12384
280.31        25.18629
280.77        24.56623
281.22        24.29097
281.68        24.26752
282.13         24.3661
282.59        24.45104
283.04        24.45094
283.50        24.40054
283.95        24.27628
284.41        24.04929
284.86        23.72097
285.32        23.33774
285.77        22.91268
286.22        22.53625
286.68        22.24317
287.13        21.98472
287.59        21.80567
288.04         21.7145
288.50        21.71413
288.95         21.7725
289.41        21.82918
289.86        21.75535
290.32        21.56372
290.77        21.30709
291.22         21.0739
291.68        21.00152
292.13        21.11936
292.59        21.39382
293.04        21.83925
293.50        22.50214
293.95        23.36034
294.40        24.40121
294.86        25.46731
295.31        26.32496
295.77        26.92508
296.22        27.32359
296.68        27.71622
297.13        28.39307
297.58        29.43028
298.04        30.71695
298.49        32.08156
298.95        33.24978
299.40        34.15808
299.85         34.9092
300.31        35.64637
300.76        36.52403
301.21        37.61163
301.67        38.85123
302.12        40.15568
302.58        41.54061
303.03        42.96617
303.48        44.34229
303.94        45.65183
304.39        47.40104
304.84        48.65788
305.30        50.17172
305.75        51.65771
306.20        53.17588
306.66        54.73014
307.11        56.27659
307.57        57.81873
308.02        59.26892
308.47        60.65709
308.93        62.01554
309.38        63.37682
309.83        64.85244
310.29        66.44925
310.74        68.11059
311.19        69.73121
311.65        71.14295
312.10        72.30434
312.55        73.28252
313.00        74.21931
313.46         75.3431
313.91        76.68343
314.36         78.1591
314.82         79.6338
315.27        80.91557
315.72         81.9143
316.18        82.68622
316.63        83.25252
317.08        83.66372
317.53        83.97461
317.99         84.2131
318.44        84.42207
318.89        84.68293
319.35        85.02675
319.80        85.44333
320.25        85.98373
320.70        86.71602
321.16        87.59695
321.61        88.62582
322.06        89.59127
322.51        90.16216
322.97        90.25877
323.42        89.98551
323.87        89.56318
324.32         89.3757
324.78        89.51773
325.23        89.94398
325.68        90.50739
326.13        90.95045
326.59        91.17213
327.04        91.28512
327.49        91.37669
327.94        91.62769
328.39         92.0707
328.85        92.58163
329.30        93.10052
329.75        93.36314
330.20        93.31116
330.66        93.03961
331.11        92.70043
331.56        92.46482
332.01        92.42265
332.46        92.53564
332.92        92.80235
333.37        93.34555
333.82        94.10304
334.27        95.03844
334.72         96.0086
335.17         96.7729
335.63        97.23103
336.08        97.48254
336.53        97.55772
336.98        97.58925
337.43        97.64767
337.88          97.707
338.34        97.83603
338.79        98.16302
339.24        98.69627
339.69        99.42506
340.14        100.2118
340.59        100.8027
341.05        101.1398
341.50        101.2935
341.95        101.3876
342.40        101.6513
342.85         102.131
343.30        102.7152
343.75        103.3313
344.20        103.8662
344.66        104.2873
345.11        104.6622
345.56        104.9106
346.01        104.8899
346.46        104.6289
346.91         104.183
347.36        103.8514
347.81        104.0943
348.26        104.9615
348.72        106.2744
349.17        107.6791
349.62        108.5048
350.07        108.5709
350.52        108.1133
350.97        107.4112
351.42         106.897
351.87        106.7216
352.32        106.7423
352.77        106.9739
353.22        107.4493
353.67        108.0997
354.13        108.8868
354.58         109.576
355.03        109.7719
355.48        109.3848
355.93        108.5251
356.38        107.3941
356.83        106.3188
357.28        105.4182
357.73        104.6341
358.18        103.9453
358.63        103.3042
359.08         102.693
359.53        102.1497
359.98        101.6683
360.43        101.2202
360.88        100.7884
361.33        100.3553
361.78        99.90199
362.23        99.41233
362.68        98.88271
363.13        98.31997
363.58        97.73416
364.03        97.14275
364.48        96.55567
364.93        95.97015
365.38         95.4072
365.83        94.90174
366.28        94.45721
366.73        94.06187
367.18        93.67186
367.63        93.21514
368.08        92.66907
368.53        92.04903
368.98        91.39558
369.43        90.77263
369.88        90.21513
370.33        89.73518
370.78        89.29691
371.23        88.84292
371.68        88.35889
372.13        87.83183
372.58         87.3698
373.03        87.14574
373.48        87.15442
373.93        87.32088
374.38        87.37596
374.83         86.8934
375.28        85.82375
375.72        84.32848
376.17          82.817
376.62        81.73232
377.07        81.17954
377.52        81.01793
377.97        81.08099
378.42        81.09286
378.87        80.94903
379.32        80.72046
379.77        80.45081
380.22        80.19963
380.67        79.97178
381.11        79.72036
381.56        79.39488
382.01        78.94872
382.46        78.40112
382.91        77.81483
383.36        77.25689
383.81        76.81277
384.26         76.5003
384.71        76.27556
385.15        76.12593
385.60        76.08604
386.05         76.1034
386.50        76.15729
386.95        76.12363
387.40        75.81696
387.85        75.23965
388.29        74.44331
388.74        73.68755
389.19        73.13081
389.64        72.80931
390.09        72.64388
390.54        72.59611
390.98        72.58528
391.43        72.59692
391.88         72.6291
392.33        72.58432
392.78        72.39426
393.23        72.07123
393.67        71.48927
394.12        70.82025
394.57        70.78642
395.02        70.39045
395.47        70.40028
395.91        70.44923
396.36        70.40898
396.81        70.24808
397.26        70.02767
397.71        69.78011
398.15        69.46808
398.60        69.18253
399.05        68.94159
399.50        68.75249
399.95         68.5626
400.39        68.19682
400.84        68.47161
401.29        69.10897
401.74         69.2364
402.18        68.75319
402.63        68.07084
403.08        67.48102
403.53        67.24051
403.97        67.41709
404.42        67.92115
404.87        68.46154
405.32        68.57108
405.76        68.14699
406.21        67.37951
406.66        66.53452
407.11        66.05168
407.55        66.06128
408.00        66.34575
408.45        66.76122
408.90        67.19201
409.34        67.45938
409.79        67.29545
410.24        66.87356
410.68        66.75226
411.13        66.99339
411.58        67.30495
412.03        67.56506
412.47        67.68842
412.92         67.6007
413.37        67.37447
413.81        67.06489
414.26        66.82261
414.71        66.65494
415.15        66.53571
415.60        66.45015
416.05        66.42056
416.49        66.45054
416.94        66.54715
417.39        66.64671
417.83        66.62766
418.28         66.4758
418.73        66.21368
419.17        65.97176
419.62        65.97416
420.07        66.24269
420.51        66.68794
420.96        67.14599
421.41        67.30436
421.85        67.09037
422.30        66.72513
422.74        66.31522
423.19        66.02303
423.64        65.92021
424.08        66.15464
424.53        66.61504
424.98        66.94671
425.42        67.06496
425.87        67.24826
426.31        67.44824
426.76        67.17342
427.21        66.44534
427.65        66.45322
428.10        67.00995
428.54        66.92108
428.99        66.28802
429.44        65.95251
429.88        65.97044
430.33        66.08762
430.77        66.26587
431.22        66.36597
431.66        67.23639
432.11        67.06823
432.56        66.28252
433.00        66.12831
433.45        66.78123
433.89         66.9117
434.34        66.99844
434.78        68.00346
435.23        67.24937
435.67        66.76923
436.12         66.0583
436.57        66.09249
437.01        66.77377
437.46        67.18196
437.90        67.16822
438.35        67.42297
438.79        68.01424
439.24        68.27925
439.68        68.28081
440.13         68.4022
440.57        68.62618
441.02          68.702
441.46        68.60282
441.91        68.49187
442.35         68.3332
442.80        68.33106
443.24        68.40245
443.69        68.26845
444.13        67.97515
444.58        67.88426
445.02        67.96026
445.47        68.07547
445.91        68.18703
446.36        68.23635
446.80        68.17263
447.24        68.40568
447.69        68.25875
448.13        68.25835
448.58         68.2289
449.02         68.1719
449.47        68.14973
449.91         68.2371
450.36        68.45641
450.80        68.75238
451.25        69.05529
451.69        69.21987
452.13        69.22278
452.58        69.13702
453.02         69.0078
453.47        68.91607
453.91        68.87437
454.36        68.96925
454.80        68.89023
455.24        69.09011
455.69        69.38094
456.13        69.43109
456.58        69.26003
457.02        68.96457
457.46        68.75124
457.91        68.62166
458.35        68.56229
458.79        68.46078
459.24        68.35283
459.68        68.30363
460.13        68.28436
460.57        68.31968
461.01         68.2127
461.46        67.94837
461.90        67.55682
462.34        67.81902
462.79        68.14223
463.23        68.07679
463.68        67.51895
464.12        67.20425
464.56        67.18311
465.01        66.99619
465.45        66.66973
465.89        66.72231
466.34        67.09574
466.78        67.21913
467.22        67.27831
467.67        67.25713
468.11        67.23543
468.55         67.0332
468.99        66.71085
469.44        66.42992
469.88         66.2236
470.32        66.06861
470.77        65.95726
471.21        65.90027
471.65        65.88065
472.10        65.91585
472.54        65.98615
472.98        66.08634
473.42         66.1965
473.87        66.33175
474.31        66.43282
474.75        66.38055
475.20        66.21025
475.64        66.10364
476.08        66.09256
476.52        65.92275
476.97        65.57381
477.41        65.54319
477.85        65.46729
478.29        64.94463
478.74        65.76043
479.18        65.54491
479.62        65.02507
480.06        64.85257
480.50          65.077
480.95        65.09357
481.39        65.90811
481.83        64.98862
482.27        66.00387
482.72         65.6196
483.16        65.79745
483.60         65.7861
484.04        65.88202
484.48        66.07422
484.93        66.14679
485.37        65.96094
485.81        64.84824
486.25        64.24427
486.69        65.33499
487.14        65.07936
487.58        64.77251
488.02        64.76407
488.46        65.64872
488.90        65.66953
489.34        65.59503
489.79          65.926
490.23        64.98922
490.67        64.94289
491.11         65.1666
491.55         65.1227
491.99        64.81058
492.43        64.71753
492.88        64.86349
493.32        65.00789
493.76        65.11008
494.20        65.23589
494.64        65.36779
495.08        65.46124
495.52         65.5005
495.96        65.51505
496.41        65.51124
496.85        65.43668
497.29        65.25571
497.73        65.32793
498.17         64.8725
498.61        64.85912
499.05        64.33975
499.49        64.45457
499.93        64.83241
500.37        64.90926
500.82        64.71053
501.26        64.49313
501.70        64.79706
502.14        64.84814
502.58        64.81126
503.02        64.85426
503.46        64.98579
503.90         65.1443
504.34         65.2863
504.78        65.35963
505.22        65.33714
505.66        65.24467
506.10        65.11538
506.54        65.00372
506.98        64.91348
507.42        65.01511
507.86        64.60663
508.30        64.87111
508.74        64.43465
509.18        64.25983
509.62        64.08128
510.06        64.08813
510.50        64.29723
510.94        64.66053
511.38        65.05073
511.82        65.22428
512.26        65.12661
512.70        64.83004
513.14        64.47509
513.58        64.28079
514.02         64.3042
514.46        64.47991
514.90        64.71011
515.34         64.8364
515.78         64.8097
516.22        64.67844
516.66        64.51434
517.10        64.42332
517.54          64.432
517.98        64.50585
518.42        64.57417
518.86        64.53001
519.30        64.35575
519.74        64.09413
520.18         63.8419
520.62        63.74001
521.06        63.82246
521.50        64.05508
521.93        64.34286
522.37        64.50706
522.81        64.51022
523.25        64.39211
523.69         64.2646
524.13        64.30431
524.57        64.53778
525.01        64.89689
525.45        65.24106
525.89         65.3452
526.32        65.15397
526.76        64.77531
527.20        64.34222
527.64        64.06009
528.08         63.9851
528.52        64.05103
528.96        64.19635
529.40        64.32368
529.83        64.38789
530.27        64.42601
530.71        64.42953
531.15        64.38757
531.59        64.30453
532.03        64.17916
532.46        64.02605
532.90        63.90193
533.34        63.81784
533.78        63.77107
534.22        63.75775
534.66        63.76646
535.09        63.78428
535.53        63.82427
535.97        63.87305
536.41        63.92269
536.85        63.96616
537.28        63.99688
537.72        64.00523
538.16        63.97541
538.60        63.90602
539.04        63.80389
539.47        63.67721
539.91        63.59303
540.35        63.54745
540.79        63.53929
541.22        63.54084
541.66        63.53776
542.10        63.48722
542.54        63.43657
542.97        63.40592
543.41        63.46122
543.85        63.59673
544.29        63.79357
544.72        63.97546
545.16        64.04819
545.60        63.98676
546.04        63.83239
546.47        63.65157
546.91        63.57107
547.35        63.61811
547.79        63.72901
548.22        63.82971
548.66        63.99299
549.10        64.20872
549.53        64.24672
549.97        63.99746
550.41        64.57936
550.84          64.062
551.28        63.86678
551.72        63.48129
552.15        63.69307
552.59        63.64799
553.03        63.66366
553.46        63.54194
553.90        63.49513
554.34        63.48422
554.77        63.84918
555.21        63.76856
555.65        63.75209
556.08        63.61523
556.52        63.66399
556.96        63.85616
557.39        63.98895
557.83        64.03867
558.27        63.97337
558.70          63.861
559.14        63.89021
559.57        64.01765
560.01        64.14268
560.45        64.21151
560.88        63.94663
561.32        63.74714
561.75        63.68979
562.19        63.84069
562.63        63.76677
563.06         63.4991
563.50        63.45704
563.93        63.60333
564.37        63.67693
564.80         63.6461
565.24        63.65894
565.68        63.69751
566.11        63.72488
566.55        63.73785
566.98        63.64758
567.42        63.55772
567.85        63.51659
568.29        63.54284
568.72        63.78608
569.16        64.27938
569.60        63.79045
570.03        64.14277
570.47        64.13829
570.90         64.0205
571.34        63.91606
571.77        63.96606
572.21        64.03313
572.64        64.12379
573.08        64.04757
573.51        63.83856
573.95        64.07449
574.38        64.13406
574.82        64.20365
