SpectraSmart Spectrum 2.9.0.0
--------- Device Information -----------
Spectrum Name :  反射率_0
Saving Time :  2024/04/30 00:27:46
Spectro-Module Model Name : SE2030-DUVN
Spectro-Module Serial Number : OS361AC55029948
Wavelength Start : 200
Wavelength End : 1025
Wavelength Unit : Wavelength(nm)
Spectrum Unit : Reflectance(%)
-----------Spectrum Setting ------------
Integration Time : 20ms
Average : 10
Boxcar : 0
Background removal :  enabled
linearity correction :  enabled
SC :  disabled
Intensity correction :  disabled
DWT denoise :  enabled
savitzky-golay :  disabled
FFT :  disabled
Running average :  disabled
Kalman :  disabled
High pass :  disabled
---------------BEGIN--------------------
Wavelength(nm)             Reflectance(%)
200.29               0
200.75        72.51315
201.21        60.52042
201.67         46.4194
202.13        32.62314
202.58        20.75172
203.04        10.48706
203.50        3.583496
203.96        3.887645
204.42        12.21723
204.88        26.85918
205.34        43.19716
205.80        53.31414
206.26        55.67758
206.72        53.97203
207.18        49.53592
207.64        42.72355
208.10        33.80858
208.55         22.1212
209.01        10.81779
209.47        8.386556
209.93        15.88377
210.39        28.74303
210.85        40.27229
211.31        45.12848
211.77        43.19757
212.23        34.64025
212.69        21.64322
213.14        16.67721
213.60        25.19146
214.06        39.71843
214.52        51.48493
214.98        55.02238
215.44        51.51064
215.90        43.45013
216.36        33.87008
216.81        28.48863
217.27        30.41907
217.73        39.09795
218.19        54.06457
218.65          68.008
219.11        73.55585
219.57        71.87437
220.02        67.19739
220.48        63.47221
220.94        60.34707
221.40        56.13633
221.86         49.1205
222.32        39.14287
222.77        30.12534
223.23        25.04475
223.69        22.67215
224.15        21.10151
224.61        19.75422
225.06        18.45981
225.52        18.87861
225.98        23.26247
226.44        30.23756
226.90           37.25
227.36        42.11438
227.81        43.73719
228.27        42.67721
228.73        39.45228
229.19        35.28574
229.65        32.99611
230.10        33.40724
230.56        35.30379
231.02        37.16855
231.48        37.63004
231.93        36.62307
232.39        34.74226
232.85        32.71518
233.31        31.89468
233.77        32.73312
234.22        34.94264
234.68        37.64035
235.14        39.17677
235.60         39.1454
236.05         38.1182
236.51        37.30847
236.97        38.42384
237.43        42.04367
237.88        48.27663
238.34        56.65785
238.80        64.60155
239.26        69.45235
239.71         71.2534
240.17        70.75344
240.63        70.06806
241.08        70.18095
241.54        70.32716
242.00        71.49352
242.46        76.31557
242.91        85.95438
243.37        98.22868
243.83        108.6749
244.28        114.7964
244.74        117.1354
245.20        115.1944
245.66        110.5353
246.11        107.6508
246.57         108.712
247.03        114.2372
247.48        119.8023
247.94        115.7881
248.40        104.2439
248.85        91.59263
249.31        83.97797
249.77         83.6553
250.22        90.49261
250.68          105.72
251.14        129.4606
251.59        143.9579
252.05        135.6766
252.51        118.2912
252.96        104.3885
253.42         98.6862
253.88        98.41667
254.33        100.9885
254.79        104.6118
255.25        105.3405
255.70        102.5584
256.16        99.25885
256.62         96.6944
257.07        95.42426
257.53        95.60635
257.99        96.33734
258.44        96.46068
258.90        95.45364
259.35        93.04446
259.81        90.47974
260.27        88.25342
260.72        86.76818
261.18        86.14201
261.63        85.63338
262.09        84.97169
262.55        83.35835
263.00        80.82209
263.46        78.11031
263.91        75.42966
264.37        73.43962
264.83        72.01099
265.28        70.83888
265.74        69.91908
266.19        68.97219
266.65         68.0285
267.11        67.10365
267.56         66.1201
268.02        64.98071
268.47        63.61533
268.93        62.05043
269.38        60.36623
269.84        58.85958
270.30        57.62318
270.75        56.60033
271.21        55.69854
271.66        54.68278
272.12        53.50536
272.57        52.19576
273.03        50.86188
273.48        49.58386
273.94        48.47225
274.39        47.43035
274.85        46.49474
275.31        45.59957
275.76        44.69742
276.22        43.86044
276.67        43.02083
277.13        42.20881
277.58        41.37704
278.04        40.58549
278.49        39.81322
278.95        39.15987
279.40        38.57422
279.86        38.09938
280.31        37.65019
280.77        37.24385
281.22        36.82389
281.68        36.43993
282.13        36.07557
282.59        35.78354
283.04        35.53642
283.50        35.33209
283.95        35.12885
284.41        34.89513
284.86        34.61867
285.32        34.37509
285.77        34.15184
286.22        34.01802
286.68         33.9987
287.13        34.01963
287.59         34.1343
288.04        34.35518
288.50        34.67459
288.95         35.0238
289.41        35.31751
289.86        35.37181
290.32        35.21306
290.77        34.93269
291.22        34.65751
291.68        34.57373
292.13         34.7526
292.59        35.19262
293.04        35.94982
293.50        37.15219
293.95         38.7725
294.40         40.7592
294.86        42.91405
295.31        44.92505
295.77        46.69497
296.22        48.28362
296.68        49.80239
297.13        51.41561
297.58        53.18983
298.04        55.03812
298.49        56.94379
298.95        58.90803
299.40        60.89404
299.85        62.91551
300.31        64.92841
300.76        66.76262
301.21        68.44235
301.67        70.05396
302.12        71.65296
302.58        73.48125
303.03        75.53364
303.48        77.71479
303.94        79.99528
304.39        82.45235
304.84        84.73077
305.30        87.10092
305.75        89.34852
306.20        91.37917
306.66        93.18704
307.11        94.71459
307.57        96.11264
308.02        97.46336
308.47        98.85464
308.93        100.2811
309.38        101.6398
309.83        102.8578
310.29        103.9285
310.74        104.8699
311.19        105.7454
311.65        106.6281
312.10         107.518
312.55        108.4181
313.00        109.3406
313.46        110.3084
313.91        111.2927
314.36        112.2771
314.82        113.2226
315.27        114.1002
315.72        114.8639
316.18        115.5217
316.63        116.0127
317.08        116.2616
317.53        116.2957
317.99        116.1909
318.44         116.069
318.89        116.1379
319.35        116.4507
319.80        116.9483
320.25           117.6
320.70        118.3453
321.16        119.1001
321.61        119.9218
322.06        120.6448
322.51        121.0277
322.97         121.021
323.42        120.6932
323.87         120.263
324.32         120.117
324.78        120.3325
325.23        120.8939
325.68        121.5749
326.13         121.984
326.59        121.9959
327.04        121.7648
327.49        121.5297
327.94        121.7365
328.39        122.4735
328.85        123.5349
329.30        124.6823
329.75         125.268
330.20        125.1264
330.66        124.4571
331.11        123.6329
331.56        123.1651
332.01        123.2445
332.46         123.733
332.92         124.473
333.37        125.3637
333.82        126.2437
334.27         127.159
334.72        128.0534
335.17        128.8264
335.63        129.4126
336.08         129.867
336.53        130.1664
336.98        130.3851
337.43        130.5616
337.88        130.6911
338.34        130.8314
338.79         131.088
339.24        131.4767
339.69        132.0016
340.14        132.5625
340.59         132.972
341.05        133.2014
341.50        133.3151
341.95        133.4291
342.40        133.7562
342.85         134.327
343.30         135.022
343.75        135.7493
344.20        136.3649
344.66        136.8259
345.11        137.2067
345.56        137.4156
346.01        137.3009
346.46        136.8987
346.91        136.2689
347.36        135.7704
347.81        135.9467
348.26        136.8601
348.72        138.3123
349.17        139.8689
349.62        140.7033
350.07        140.6001
350.52        139.8334
350.97        138.8097
351.42        138.1557
351.87        138.0522
352.32        138.2948
352.77        138.7478
353.22        139.1874
353.67        139.4896
354.13        139.7253
354.58         139.834
355.03        139.5472
355.48        139.0784
355.93        138.2508
356.38        137.1984
356.83        136.0282
357.28        134.8111
357.73        133.5721
358.18        132.3623
358.63        131.2482
359.08        130.2527
359.53         129.368
359.98        128.5963
360.43        127.9281
360.88        127.3343
361.33        126.7961
361.78        126.2265
362.23        125.4946
362.68        124.5791
363.13         123.523
363.58        122.4171
364.03         121.412
364.48        120.5516
364.93        119.7897
365.38        119.0991
365.83         118.435
366.28        117.7737
366.73        117.1327
367.18        116.4714
367.63        115.7193
368.08        114.8602
368.53        113.9016
368.98        112.9119
369.43        112.0064
369.88        111.2295
370.33        110.5825
370.78         109.989
371.23        109.3225
371.68        108.5527
372.13        107.6885
372.58        106.8779
373.03        106.3576
373.48        106.1382
373.93        106.1236
374.38        106.0225
374.83        105.3713
375.28        104.1171
375.72        102.4425
376.17        100.7723
376.62        99.54198
377.07        98.85207
377.52         98.5384
377.97        98.47108
378.42        98.44151
378.87        98.34221
379.32        98.22033
379.77        98.00553
380.22        97.58498
380.67        96.94484
381.11        96.10105
381.56        95.15623
382.01         94.3254
382.46        93.69588
382.91        93.24731
383.36        92.91234
383.81        92.56758
384.26        92.17095
384.71         91.7426
385.15        91.33091
385.60        91.07207
386.05        90.94523
386.50        90.89512
386.95        90.77574
387.40        90.37731
387.85         89.6953
388.29        88.78562
388.74        87.94082
389.19        87.32224
389.64        86.96133
390.09        86.76793
390.54         86.6705
390.98         86.5368
391.43        86.35427
391.88         86.1429
392.33        85.85076
392.78        85.45883
393.23        84.98891
393.67        84.34025
394.12        83.64964
394.57        83.51868
395.02         82.8274
395.47        82.85376
395.91        83.13556
396.36        83.16035
396.81         82.8631
397.26        82.51121
397.71         82.1768
398.15        81.75006
398.60        81.33825
399.05        81.07146
399.50        80.89666
399.95         80.4565
400.39        79.63195
400.84        79.86938
401.29         80.8254
401.74        81.00452
402.18        80.26429
402.63        79.37595
403.08        78.67966
403.53         78.3549
403.97        78.46525
404.42        78.90567
404.87        79.42758
405.32        79.56071
405.76        79.17587
406.21        78.69579
406.66        78.19618
407.11        77.27021
407.55        76.28367
408.00        76.35562
408.45        77.32855
408.90        77.92365
409.34        77.87511
409.79        77.51537
410.24        77.06075
410.68         76.8982
411.13        77.08528
411.58        77.33513
412.03        77.48148
412.47        77.41189
412.92        77.05602
413.37        76.49494
413.81        75.86917
414.26        75.46792
414.71        75.31141
415.15        75.33385
415.60         75.4285
416.05        75.46375
416.49        75.40248
416.94        75.29926
417.39        75.16931
417.83         75.0152
418.28        74.86015
418.73        74.68773
419.17        74.57837
419.62        74.68224
420.07        74.98428
420.51         75.4044
420.96        75.80791
421.41        75.88975
421.85          75.578
422.30        75.18935
422.74        74.75778
423.19        74.15126
423.64        73.52439
424.08        73.50626
424.53        74.00591
424.98        74.26671
425.42         74.1915
425.87        74.38953
426.31        74.73921
426.76        74.33591
427.21        73.23518
427.65        73.08365
428.10        73.71181
428.54        73.62347
428.99        72.88502
429.44        72.56704
429.88        72.73109
430.33        72.74907
430.77        72.62162
431.22        73.27387
431.66        74.39211
432.11        74.13892
432.56        72.68468
433.00         72.2436
433.45        73.14423
433.89        73.25636
434.34        73.70966
434.78        74.93742
435.23        72.49811
435.67        71.97831
436.12        72.08467
436.57         72.2355
437.01        72.32647
437.46        72.46377
437.90        72.66695
438.35        73.04223
438.79        73.48784
439.24        73.59857
439.68         73.3942
440.13        73.26357
440.57        73.30454
441.02        73.33066
441.46        73.31134
441.91        73.56241
442.35        73.93166
442.80        73.59846
443.24        73.98948
443.69        73.53306
444.13        72.82677
444.58        72.66118
445.02        72.49096
445.47         72.6096
445.91        72.79973
446.36        72.84653
446.80        72.63706
447.24        73.32227
447.69        73.00866
448.13        73.06693
448.58        72.99109
449.02        72.97258
449.47         73.0326
449.91         73.0677
450.36        73.11143
450.80        73.20916
451.25         73.3332
451.69        73.35625
452.13        73.26655
452.58        73.12751
453.02        72.98331
453.47        72.88544
453.91        72.82811
454.36        72.98206
454.80        72.95857
455.24        72.97645
455.69        72.91192
456.13        72.82209
456.58        72.72545
457.02        72.42251
457.46         72.0437
457.91        72.00777
458.35        72.16425
458.79        72.15538
459.24        72.01261
459.68        71.71377
460.13          71.268
460.57        71.77759
461.01        71.40643
461.46        71.41587
461.90        71.20968
462.34        71.61452
462.79        71.51952
463.23        71.29632
463.68        70.72682
464.12        70.35922
464.56        70.22033
465.01         69.8719
465.45        69.46857
465.89        69.61126
466.34        70.07811
466.78        70.75084
467.22         70.6924
467.67         69.8278
468.11        69.99791
468.55        69.61293
468.99        69.31992
469.44        68.99077
469.88        68.68249
470.32         68.5502
470.77        68.53543
471.21        68.49784
471.65        68.39439
472.10        68.28857
472.54        68.23122
472.98        68.29315
473.42        68.46224
473.87        68.80741
474.31        69.15675
474.75         69.0075
475.20        68.45834
475.64        68.24383
476.08        68.40906
476.52        68.18397
476.97         67.5237
477.41        67.68685
477.85        67.55147
478.29        66.94117
478.74        67.74236
479.18        67.57397
479.62        67.21709
480.06        67.12737
480.50        67.34787
480.95        67.35629
481.39        68.19176
481.83        67.23815
482.27         68.1165
482.72        67.74574
483.16        67.78883
483.60        67.75404
484.04        67.83874
484.48        68.19477
484.93        68.57178
485.37        68.07934
485.81        67.16674
486.25        66.40118
486.69        67.88011
487.14        67.65382
487.58        67.05629
488.02        66.70877
488.46        67.50117
488.90        66.85567
489.34        66.90078
489.79        67.40712
490.23        66.94073
490.67        66.93679
491.11        66.79026
491.55        66.52126
491.99        66.19496
492.43        65.99603
492.88        65.95063
493.32        66.30669
493.76        66.42626
494.20        66.64426
494.64        66.75063
495.08        66.77554
495.52        66.74197
495.96         66.7044
496.41        66.71075
496.85         66.7618
497.29        66.74123
497.73        66.77634
498.17        66.29082
498.61        65.86505
499.05        65.49739
499.49        65.53233
499.93        65.87183
500.37        66.03535
500.82        65.98145
501.26        65.96029
501.70        65.92628
502.14        66.09022
502.58        65.70112
503.02        65.68897
503.46        65.84292
503.90        66.10345
504.34        66.36822
504.78        66.49324
505.22        66.43411
505.66        66.23797
506.10        66.01417
506.54        65.92058
506.98        65.94557
507.42        66.35835
507.86        66.00135
508.30        66.37394
508.74        65.92206
509.18        65.70593
509.62        65.49632
510.06        65.14581
510.50        65.39762
510.94        65.62018
511.38        65.91065
511.82        66.03857
512.26        65.96275
512.70        65.72282
513.14        65.40812
513.58        65.27269
514.02        65.37957
514.46        65.35809
514.90        65.50725
515.34         65.7852
515.78        65.57738
516.22        65.47228
516.66        65.33332
517.10         65.2756
517.54        65.31256
517.98        65.42073
518.42        65.53127
518.86        65.51966
519.30        65.36591
519.74        65.11559
520.18         64.8595
520.62        64.73173
521.06        64.76786
521.50        64.93539
521.93        65.15965
522.37        65.29562
522.81        65.31126
523.25        65.23547
523.69        65.15105
524.13        65.18819
524.57        65.36458
525.01        65.62882
525.45        65.86584
525.89        65.89318
526.32        65.66941
526.76        65.28912
527.20        64.87515
527.64        64.61703
528.08        64.56374
528.52         64.6549
528.96        64.82373
529.40        64.96285
529.83        65.02688
530.27        65.05464
530.71        65.04765
531.15        65.01372
531.59        64.95926
532.03         64.8733
532.46        64.76218
532.90        64.66966
533.34        64.60125
533.78        64.56017
534.22        64.53542
534.66        64.50432
535.09        64.45688
535.53         64.4117
535.97        64.38024
536.41        64.39502
536.85        64.45631
537.28        64.54439
537.72        64.62253
538.16        64.62962
538.60        64.55322
539.04        64.41678
539.47         64.2439
539.91        64.12421
540.35        64.06104
540.79        64.04637
541.22        64.05745
541.66        64.06763
542.10        64.06528
542.54         64.0667
542.97        64.07991
543.41        64.13546
543.85        64.22365
544.29        64.33596
544.72        64.42362
545.16        64.44554
545.60        64.39218
546.04        64.26875
546.47        64.12079
546.91        64.10856
547.35        64.22126
547.79        64.24387
548.22        64.16355
548.66        64.31647
549.10        64.68171
549.53        64.79904
549.97        64.52286
550.41        65.09286
550.84        64.55995
551.28         64.2551
551.72        63.72098
552.15        63.95506
552.59        64.08846
553.03        64.20284
553.46        64.05544
553.90        64.04632
554.34        64.14816
554.77        64.17427
555.21        64.14079
555.65        64.02805
556.08        63.88756
556.52        64.03733
556.96        64.40087
557.39        64.50727
557.83        64.31204
558.27        64.52837
558.70        64.23897
559.14          64.317
559.57        64.43583
560.01        64.52256
560.45        64.54322
560.88        64.38741
561.32        64.38711
561.75         64.2672
562.19        64.15494
562.63        63.99408
563.06        63.83698
563.50        63.90604
563.93        64.10744
564.37        64.16706
564.80        64.04634
565.24        63.91522
565.68        63.80424
566.11        63.77372
566.55        63.84541
566.98        63.82151
567.42        63.79705
567.85        63.98382
568.29        64.27056
568.72        64.43964
569.16        64.66708
569.60        63.99233
570.03        64.36842
570.47        64.83744
570.90        64.96242
571.34        64.39077
571.77        64.91848
572.21        64.85185
572.64        64.75523
573.08        64.89871
573.51        64.23024
573.95        64.72323
574.38        65.07304
574.82        64.80172
