SpectraSmart Spectrum 2.9.0.0
--------- Device Information -----------
Spectrum Name :  反射率_0
Saving Time :  2024/04/30 00:38:06
Spectro-Module Model Name : SE2030-DUVN
Spectro-Module Serial Number : OS361AC55029948
Wavelength Start : 200
Wavelength End : 1025
Wavelength Unit : Wavelength(nm)
Spectrum Unit : Reflectance(%)
-----------Spectrum Setting ------------
Integration Time : 20ms
Average : 10
Boxcar : 0
Background removal :  enabled
linearity correction :  enabled
SC :  disabled
Intensity correction :  disabled
DWT denoise :  enabled
savitzky-golay :  disabled
FFT :  disabled
Running average :  disabled
Kalman :  disabled
High pass :  disabled
---------------BEGIN--------------------
Wavelength(nm)             Reflectance(%)
200.29               0
200.75        70.55025
201.21        62.56487
201.67        54.42543
202.13        46.43714
202.58        39.20554
203.04        32.49289
203.50        29.19674
203.96        35.47708
204.42        52.42085
204.88        76.93437
205.34        98.88975
205.80        104.3263
206.26        94.83074
206.72        79.43753
207.18        65.10333
207.64        55.63502
208.10        50.07095
208.55        46.21374
209.01        43.52323
209.47        42.42814
209.93        42.91168
210.39        45.06983
210.85         47.1665
211.31        47.48705
211.77        45.85104
212.23        41.76997
212.69        36.81854
213.14        37.90889
213.60        46.17584
214.06         57.0467
214.52        65.12029
214.98        67.35078
215.44        64.82467
215.90        58.91151
216.36        52.22709
216.81        49.89301
217.27        54.62426
217.73        66.69426
218.19        84.88011
218.65         98.8248
219.11        100.5869
219.57        93.39316
220.02         84.6565
220.48        80.31143
220.94        79.78226
221.40        81.42384
221.86        82.80222
222.32         78.5843
222.77        69.41444
223.23         61.0068
223.69        55.36869
224.15        52.58522
224.61         51.7641
225.06        52.03828
225.52        53.56065
225.98        56.01143
226.44         58.4106
226.90        60.32502
227.36        61.27055
227.81        60.92031
228.27         59.5155
228.73        57.10906
229.19         54.2365
229.65        52.36905
230.10        52.03644
230.56        52.72077
231.02        53.64587
231.48        54.15563
231.93         54.1066
232.39        53.77768
232.85        53.32737
233.31        53.10732
233.77        53.22807
234.22        53.69061
234.68        54.05411
235.14        53.64049
235.60        52.43726
236.05        50.76783
236.51         49.5494
236.97         49.9312
237.43        52.23844
237.88        56.68059
238.34        62.65531
238.80        67.92258
239.26        70.47277
239.71        70.52003
240.17        68.96748
240.63        67.81705
241.08        67.82657
241.54        68.35349
242.00        70.22179
242.46        74.91007
242.91        82.54929
243.37        91.46992
243.83         98.1627
244.28        100.5031
244.74        98.69653
245.20        91.96944
245.66        83.01927
246.11        79.12054
246.57        83.96152
247.03        97.56612
247.48        113.0573
247.94         114.285
248.40        101.8167
248.85        85.32888
249.31         74.2574
249.77        72.93787
250.22        81.18742
250.68        100.0924
251.14        129.6478
251.59        147.3746
252.05        136.4492
252.51        114.5418
252.96        97.04195
253.42        89.08736
253.88        87.37923
254.33        88.74055
254.79         91.6094
255.25        92.64989
255.70        90.99419
256.16        88.98223
256.62        87.37292
257.07        86.43243
257.53        86.42375
257.99        86.69443
258.44        86.35325
258.90        85.20605
259.35        83.02682
259.81         80.7823
260.27        78.89678
260.72        77.72524
261.18        77.34692
261.63        77.12538
262.09        76.72164
262.55        75.28792
263.00        72.89084
263.46        70.28518
263.91        67.81093
264.37        66.24108
264.83         65.4597
265.28        65.10543
265.74        65.04509
266.19         64.8116
266.65        64.36578
267.11        63.76222
267.56          63.019
268.02        62.18624
268.47        61.22498
268.93        60.11314
269.38        58.81822
269.84        57.44392
270.30        56.05782
270.75        54.70972
271.21        53.46261
271.66        52.29478
272.12        51.20665
272.57        50.15978
273.03        49.20255
273.48        48.31157
273.94        47.54647
274.39        46.84307
274.85        46.19925
275.31        45.49973
275.76        44.70392
276.22        43.88768
276.67         43.0663
277.13        42.40169
277.58        41.84587
278.04        41.39646
278.49        40.92612
278.95         40.3821
279.40        39.69473
279.86        38.98528
280.31        38.23697
280.77        37.56833
281.22         36.9656
281.68        36.45187
282.13        36.02872
282.59        35.77536
283.04        35.64536
283.50        35.61253
283.95        35.56575
284.41        35.36647
284.86        34.97827
285.32        34.51014
285.77        33.99225
286.22        33.55853
286.68        33.25721
287.13        33.00335
287.59        32.86032
288.04         32.8544
288.50         32.9875
288.95        33.20805
289.41        33.41036
289.86        33.37695
290.32        33.12057
290.77        32.72007
291.22        32.33821
291.68        32.22839
292.13        32.45015
292.59        32.95605
293.04        33.70189
293.50        34.66134
293.95        35.79863
294.40        37.14296
294.86        38.59242
295.31        39.99378
295.77        41.30508
296.22        42.52721
296.68        43.79721
297.13        45.31531
297.58        47.11654
298.04        49.10053
298.49        51.07578
298.95        52.76405
299.40        54.10294
299.85        55.20487
300.31        56.26944
300.76        57.51344
301.21        59.03839
301.67        60.80045
302.12        62.66431
302.58        64.57504
303.03        66.45756
303.48        68.28869
303.94        70.13605
304.39        72.34066
304.84        74.40915
305.30         76.6908
305.75        78.86768
306.20        80.77222
306.66        82.38073
307.11         83.6898
307.57        84.88665
308.02        86.11307
308.47        87.46201
308.93        88.90091
309.38        90.30673
309.83        91.56973
310.29        92.66472
310.74          93.618
311.19        94.48859
311.65        95.34673
312.10        96.19545
312.55        97.03126
313.00        97.86873
313.46        98.73642
313.91        99.61369
314.36        100.4931
314.82        101.3398
315.27        102.1255
315.72        102.8113
316.18         103.407
316.63        103.8726
317.08        104.1623
317.53        104.3019
317.99        104.3515
318.44        104.3888
318.89        104.5522
319.35        104.8755
319.80        105.3084
320.25        105.8585
320.70        106.5331
321.16        107.2653
321.61        108.0879
322.06        108.7968
322.51        109.0805
322.97         108.886
323.42        108.3289
323.87        107.6775
324.32         107.386
324.78        107.5561
325.23         108.135
325.68         108.913
326.13        109.5222
326.59        109.8185
327.04        109.9355
327.49        110.0044
327.94        110.2952
328.39         110.863
328.85        111.5512
329.30        112.2529
329.75        112.5871
330.20        112.4713
330.66        112.0371
331.11        111.5378
331.56        111.2922
332.01        111.4259
332.46        111.8553
332.92         112.475
333.37        113.2535
333.82        114.0683
334.27        114.9371
334.72        115.7848
335.17        116.4911
335.63         116.988
336.08        117.3332
336.53        117.5436
336.98        117.7416
337.43        117.9766
337.88        118.2393
338.34        118.5185
338.79        118.8079
339.24        119.1118
339.69        119.4706
340.14        119.8997
340.59        120.4055
341.05        120.9861
341.50        121.6153
341.95        122.2764
342.40        122.9771
342.85        123.6896
343.30        124.3668
343.75        124.9527
344.20        125.3652
344.66        125.6097
345.11        125.7475
345.56        125.7782
346.01        125.6956
346.46        125.5481
346.91        125.3489
347.36        125.3113
347.81        125.7536
348.26         126.687
348.72        127.9704
349.17        129.2776
349.62         129.978
350.07        129.9185
350.52        129.3241
350.97        128.5142
351.42        127.9828
351.87        127.8904
352.32        128.0884
352.77         128.533
353.22        129.1556
353.67        129.8575
354.13        130.6108
354.58        131.2442
355.03         131.468
355.48         131.206
355.93        130.5277
356.38        129.5345
356.83         128.405
357.28        127.2401
357.73        126.0419
358.18        124.9066
358.63        123.9681
359.08        123.2486
359.53        122.7235
359.98        122.2992
360.43        121.8054
360.88        121.1877
361.33        120.4858
361.78        119.7167
362.23        118.9185
362.68         118.113
363.13        117.2825
363.58        116.4682
364.03        115.7405
364.48        115.1088
364.93        114.5583
365.38        114.0315
365.83        113.4322
366.28          112.74
366.73        111.9829
367.18          111.21
367.63        110.4975
368.08        109.8587
368.53        109.2651
368.98        108.6833
369.43        108.0559
369.88        107.3835
370.33         106.716
370.78        106.0695
371.23        105.4714
371.68        104.9277
372.13        104.3874
372.58        103.9186
373.03        103.6347
373.48        103.5123
373.93        103.5035
374.38         103.355
374.83        102.6644
375.28        101.4054
375.72        99.73812
376.17        98.10044
376.62        96.95435
377.07        96.39795
377.52        96.26707
377.97        96.38089
378.42        96.43812
378.87        96.31606
379.32        96.09301
379.77        95.76762
380.22        95.33449
380.67        94.79927
381.11         94.1362
381.56        93.39766
382.01        92.71365
382.46        92.14153
382.91        91.69147
383.36        91.30623
383.81        90.87591
384.26        90.37611
384.71        89.82863
385.15        89.31866
385.60        89.03984
386.05        88.98155
386.50        89.07107
386.95        89.12307
387.40        88.86331
387.85        88.26157
388.29        87.38081
388.74        86.53276
389.19        85.91518
389.64        85.57199
390.09        85.40673
390.54         85.3231
390.98        85.17704
391.43        84.96752
391.88         84.6601
392.33        84.26653
392.78         84.0344
393.23        83.90054
393.67        83.31409
394.12        82.47719
394.57        82.45572
395.02        82.17314
395.47        82.31127
395.91        82.44209
396.36        82.42709
396.81        82.22496
397.26        81.90951
397.71        81.53857
398.15        81.11701
398.60        80.76458
399.05        80.43394
399.50        80.12415
399.95        79.91366
400.39        79.51942
400.84        79.52892
401.29        79.73526
401.74        79.69009
402.18        79.33627
402.63        78.83286
403.08        78.38892
403.53        78.24883
403.97        78.44152
404.42        78.85948
404.87        79.25327
405.32        79.23928
405.76        78.74722
406.21        77.95982
406.66        77.09676
407.11        76.57411
407.55        76.52679
408.00        76.60436
408.45        76.76894
408.90        77.43184
409.34        78.27258
409.79        78.16853
410.24        77.32967
410.68        77.05797
411.13         77.4351
411.58        77.72673
412.03        77.80592
412.47        77.81007
412.92         77.6769
413.37        77.42203
413.81        77.07912
414.26         76.7738
414.71        76.50359
415.15        76.26499
415.60        76.05987
416.05        75.93769
416.49        75.91524
416.94        75.99276
417.39        76.10354
417.83        76.11436
418.28        76.00997
418.73        75.82281
419.17        75.66669
419.62         75.7512
420.07        76.08073
420.51        76.51971
420.96        76.94591
421.41        77.13219
421.85        76.96783
422.30        76.65771
422.74        76.22779
423.19        75.58938
423.64        74.92828
424.08        74.93107
424.53        75.50355
424.98        75.83127
425.42        75.80866
425.87        76.04628
426.31        76.45596
426.76        76.20859
427.21        75.32132
427.65        75.35719
428.10        76.05988
428.54         75.8326
428.99         74.8405
429.44        74.30214
429.88        74.35378
430.33        74.63245
430.77        74.97198
431.22        75.56389
431.66        76.22518
432.11        76.14483
432.56        75.38596
433.00        75.13394
433.45        75.71397
433.89        75.33221
434.34        75.86863
434.78        77.34671
435.23        75.31521
435.67        74.98724
436.12        75.00034
436.57        75.03136
437.01        75.04029
437.46        75.14594
437.90        75.39531
438.35        75.85872
438.79        76.44486
439.24        76.62296
439.68        76.40209
440.13        76.24545
440.57        76.28294
441.02        76.29849
441.46        76.25285
441.91        76.92928
442.35        76.95761
442.80        77.19212
443.24        77.19293
443.69        76.85089
444.13        76.29704
444.58        75.95865
445.02        75.83169
445.47        75.83623
445.91        75.94933
446.36        75.98825
446.80        75.86202
447.24        76.48415
447.69        76.28322
448.13        76.40582
448.58        76.40462
449.02        76.31178
449.47        76.19494
449.91        76.15688
450.36        76.24641
450.80        76.39765
451.25         76.5692
451.69        76.65522
452.13        76.63823
452.58        76.58097
453.02        76.50552
453.47        76.44829
453.91        76.40734
454.36         76.5059
454.80        76.39017
455.24        76.54292
455.69        76.78049
456.13        76.74586
456.58        76.48678
457.02        76.25967
457.46        76.12875
457.91        76.04294
458.35        75.95928
458.79         75.8792
459.24        75.83372
459.68        75.84689
460.13        75.89663
460.57        75.86308
461.01        75.90455
461.46        75.65887
461.90        75.22972
462.34        75.69408
462.79        75.90369
463.23        75.84081
463.68        75.27431
464.12        74.98687
464.56        75.01173
465.01        74.98595
465.45        74.88701
465.89        74.79227
466.34        74.68388
466.78        74.96397
467.22        75.37252
467.67        74.64983
468.11        74.89259
468.55        74.42217
468.99        73.98091
469.44         73.6214
469.88        73.40067
470.32          73.284
470.77        73.21676
471.21        73.19154
471.65         73.1718
472.10        73.17964
472.54        73.20683
472.98        73.26605
473.42        73.34461
473.87        73.47543
474.31        73.59109
474.75        73.51453
475.20        73.30215
475.64         73.2566
476.08        73.40054
476.52        73.31613
476.97        72.96308
477.41        73.07666
477.85        73.05818
478.29        72.50419
478.74        73.41315
479.18        73.19124
479.62         72.6431
480.06        72.50497
480.50        72.82666
480.95        72.81641
481.39        73.56545
481.83        73.00562
482.27        73.44862
482.72        73.59245
483.16        73.17603
483.60        73.18675
484.04        73.36568
484.48        73.63463
484.93        73.78539
485.37        73.90259
485.81        72.63097
486.25        72.62577
486.69        74.23447
487.14        73.94009
487.58        72.57275
488.02         72.5575
488.46         72.9632
488.90        72.89133
489.34        72.39722
489.79        73.24342
490.23        72.55624
490.67        72.58954
491.11        72.48079
491.55        72.31163
491.99        72.10793
492.43        71.98969
492.88        71.99323
493.32         72.0971
493.76        72.26471
494.20        72.42612
494.64         72.5483
495.08        72.69705
495.52        72.82471
495.96        72.72523
496.41        72.48079
496.85        72.41354
497.29         72.4619
497.73        72.49951
498.17         72.2571
498.61        71.88953
499.05        71.48811
499.49        71.58965
499.93         72.0512
500.37        72.09933
500.82        71.78801
501.26        71.52428
501.70        71.94545
502.14        72.09249
502.58        72.12537
503.02        72.20352
503.46        72.32722
503.90        72.43797
504.34        72.51081
504.78        72.53956
505.22        72.51553
505.66        72.41715
506.10        72.27267
506.54        72.23479
506.98         72.2766
507.42        72.27412
507.86        71.75977
508.30        72.01299
508.74         71.6035
509.18        71.49242
509.62        71.34131
510.06        71.32874
510.50        71.46039
510.94        71.69791
511.38        71.95617
511.82        72.05944
512.26        71.97251
512.70        71.74461
513.14        71.46255
513.58        71.31434
514.02        71.35019
514.46        71.41973
514.90        71.43313
515.34        71.78463
515.78        71.58672
516.22        71.56034
516.66        71.49053
517.10        71.45647
517.54        71.46674
517.98        71.50469
518.42        71.54673
518.86        71.53694
519.30        71.46709
519.74        71.35953
520.18        71.24625
520.62        71.17043
521.06        71.15018
521.50         71.1834
521.93        71.25531
522.37         71.3179
522.81         71.3661
523.25        71.39663
523.69        71.44449
524.13        71.56735
524.57        71.76228
525.01        72.00053
525.45        72.19242
525.89        72.19551
526.32        71.97968
526.76        71.62672
527.20        71.24258
527.64        70.99456
528.08        70.92744
528.52        70.99089
528.96         71.1337
529.40        71.27161
529.83        71.36183
530.27        71.43251
530.71        71.46926
531.15        71.45555
531.59        71.39337
532.03         71.2854
532.46         71.1424
532.90        71.01762
533.34        70.92251
533.78        70.85548
534.22        70.82453
534.66        70.83721
535.09        70.88239
535.53        70.96523
535.97        71.04782
536.41        71.11188
536.85        71.14836
537.28        71.10618
537.72         70.9804
538.16        71.02573
538.60        70.82966
539.04         70.7326
539.47        70.60772
539.91        70.51784
540.35        70.45293
540.79         70.4269
541.22        70.43127
541.66        70.45078
542.10        70.47697
542.54        70.51367
542.97         70.5698
543.41        70.68179
543.85        70.83806
544.29         71.0351
544.72        71.19452
545.16        71.23552
545.60        71.14185
546.04        70.91247
546.47        70.65479
546.91        70.65218
547.35        70.89272
547.79        71.08851
548.22        71.14275
548.66         71.2878
549.10        71.50776
549.53        71.44302
549.97        71.01493
550.41        71.56662
550.84        70.97086
551.28        70.84222
551.72        70.54907
552.15        70.70836
552.59        70.44976
553.03        70.48731
553.46        70.55185
553.90        70.61867
554.34        70.65898
554.77        70.72779
555.21        70.82125
555.65        70.80656
556.08        70.70255
556.52        70.74533
556.96        70.91818
557.39        70.98182
557.83        70.97077
558.27        71.18146
558.70         71.5466
559.14        71.60114
559.57        71.36288
560.01        71.40678
560.45        71.69286
560.88        71.50497
561.32        71.26292
561.75        71.19645
562.19        71.37241
562.63        71.25719
563.06        70.89899
563.50        70.80759
563.93        70.94805
564.37        71.00233
564.80        70.93776
565.24        70.96697
565.68        71.06086
566.11        71.09332
566.55        71.09433
566.98        71.08522
567.42        71.13391
567.85        71.19608
568.29        71.28855
568.72        71.36659
569.16        72.01119
569.60        71.57204
570.03         71.7617
570.47         72.1873
570.90        72.00665
571.34        71.86127
571.77        72.10107
572.21        72.21276
572.64        72.29635
573.08        72.34175
573.51        71.77528
573.95        71.95824
574.38        72.35512
574.82        72.22794
