SpectraSmart Spectrum 2.9.0.0
--------- Device Information -----------
Spectrum Name :  反射率_0
Saving Time :  2024/04/21 00:20:58
Spectro-Module Model Name : SE2030-DUVN
Spectro-Module Serial Number : OS361AC55029948
Wavelength Start : 200
Wavelength End : 1025
Wavelength Unit : Wavelength(nm)
Spectrum Unit : Reflectance(%)
-----------Spectrum Setting ------------
Integration Time : 20ms
Average : 10
Boxcar : 0
Background removal :  enabled
linearity correction :  enabled
SC :  disabled
Intensity correction :  disabled
DWT denoise :  enabled
savitzky-golay :  disabled
FFT :  disabled
Running average :  disabled
Kalman :  disabled
High pass :  disabled
---------------BEGIN--------------------
Wavelength(nm)             Reflectance(%)
200.29               0
200.75       -153.0503
201.21       -57.95186
201.67       -5.800732
202.13         12.9413
202.58        12.14109
203.04      -0.5114727
203.50       -21.00366
203.96       -37.26054
204.42       -42.08668
204.88       -40.44804
205.34       -35.95831
205.80       -34.03797
206.26       -36.11903
206.72       -36.58435
207.18       -38.27779
207.64       -49.47044
208.10       -69.11597
208.55       -94.96762
209.01       -101.0511
209.47       -62.50605
209.93       -14.91877
210.39        21.03527
210.85        43.27835
211.31        53.14397
211.77        54.35228
212.23        48.47884
212.69        30.79932
213.14       -8.575908
213.60       -91.61771
214.06       -346.5712
214.52       -965.1113
214.98       -465.9008
215.44        -143.017
215.90       -31.91139
216.36        5.990477
216.81        11.88305
217.27       -6.456315
217.73       -109.0918
218.19        1135.362
218.65        466.5645
219.11       -1014.545
219.57       -45.64973
220.02        15.39085
220.48         26.0773
220.94        20.21814
221.40       -3.269012
221.86       -60.23272
222.32       -98.51666
222.77       -48.47105
223.23       -4.162187
223.69        18.46964
224.15        26.49191
224.61         27.1171
225.06        24.68139
225.52        20.38792
225.98        15.46961
226.44        10.90203
226.90        5.234909
227.36        2.202596
227.81        7.984932
228.27        18.60435
228.73        29.16649
229.19        35.76562
229.65        36.34085
230.10        31.79667
230.56        23.57908
231.02        13.05628
231.48        6.025251
231.93        6.674426
232.39        12.74358
232.85        19.81124
233.31        24.15632
233.77        25.95843
234.22         26.9437
234.68        27.16389
235.14        26.56034
235.60        25.51821
236.05        23.06071
236.51        19.99405
236.97        24.08964
237.43        35.97173
237.88        45.05122
238.34         47.1768
238.80        67.10918
239.26        57.09819
239.71         51.2485
240.17        37.39345
240.63        24.44234
241.08         19.8745
241.54        28.11118
242.00        46.46864
242.46        58.35003
242.91        59.00433
243.37        49.43586
243.83        30.82012
244.28        14.02151
244.74        8.550251
245.20        9.184518
245.66        12.10197
246.11        13.83677
246.57         13.0491
247.03        12.33553
247.48        9.144089
247.94       -2.456721
248.40       -31.22842
248.85       -114.0809
249.31       -387.8604
249.77       -632.8163
250.22        -219.103
250.68       -39.74567
251.14        19.30473
251.59        36.73269
252.05        37.54119
252.51        28.83805
252.96        12.50392
253.42       0.2466752
253.88        2.371898
254.33        14.29297
254.79        30.41232
255.25        44.28738
255.70         53.7141
256.16        60.16282
256.62        64.73518
257.07         68.2079
257.53        71.28706
257.99         73.6544
258.44        74.63077
258.90        74.42652
259.35        72.83148
259.81        70.85101
260.27        68.89968
260.72        67.48586
261.18        66.96764
261.63        66.71282
262.09        66.54917
262.55        65.79953
263.00        64.41486
263.46        62.86832
263.91        61.40018
264.37         60.8299
264.83         61.0181
265.28        61.55075
265.74        62.04533
266.19        61.73361
266.65        60.63226
267.11        58.95554
267.56        57.01097
268.02        55.37626
268.47        54.14613
268.93        53.19299
269.38        52.33285
269.84        51.36162
270.30        50.20197
270.75        48.95377
271.21        47.71491
271.66         46.5335
272.12        45.47265
272.57         44.4712
273.03        43.54557
273.48        42.66019
273.94        41.83931
274.39        41.05945
274.85        40.35102
275.31        39.66923
275.76        38.99632
276.22        38.37622
276.67         37.8064
277.13        37.39137
277.58        37.07349
278.04        36.85089
278.49        36.58933
278.95        36.21683
279.40        35.66132
279.86        34.99949
280.31        34.25943
280.77        33.59312
281.22        32.99578
281.68        32.51474
282.13        32.04601
282.59        31.53306
283.04        30.94359
283.50        30.33852
283.95        29.84398
284.41        29.68833
284.86        29.86719
285.32        30.30899
285.77        30.76799
286.22        30.92031
286.68        30.73589
287.13        30.28322
287.59        29.83317
288.04        29.68471
288.50         29.8832
288.95        30.41087
289.41        31.10786
289.86        31.28481
290.32        30.82877
290.77        31.57807
291.22         30.7293
291.68        30.83718
292.13        31.09809
292.59        31.55134
293.04        32.17681
293.50        33.01749
293.95        34.07573
294.40        35.32124
294.86        36.69733
295.31        38.09386
295.77        39.47172
296.22        40.82241
296.68        42.17469
297.13        43.57297
297.58         45.0443
298.04        46.57024
298.49        48.13341
298.95        49.73305
299.40        51.34105
299.85        52.97158
300.31        54.60456
300.76        56.17297
301.21        57.68471
301.67        59.18526
302.12        60.70253
302.58        62.39722
303.03        64.25478
303.48        66.27345
303.94         68.3793
304.39        70.39672
304.84        72.28759
305.30        74.10369
305.75        75.85176
306.20        77.66557
306.66        79.56635
307.11        81.45045
307.57        83.27839
308.02        84.90575
308.47        86.34113
308.93        87.67464
309.38        88.91786
309.83        90.16254
310.29        91.47691
310.74        92.77184
311.19        94.06646
311.65        95.35829
312.10        96.61467
312.55        97.84412
313.00        98.98803
313.46        99.95567
313.91        100.7187
314.36        101.3147
314.82        101.8414
315.27        102.4442
315.72        103.1694
316.18        103.9789
316.63        104.7939
317.08        105.4856
317.53        106.0126
317.99        106.4065
318.44         106.728
318.89        107.0579
319.35         107.421
319.80        107.8053
320.25         108.162
320.70        108.4229
321.16        108.5679
321.61        108.6348
322.06        108.6937
322.51        108.8846
322.97        109.2209
323.42        109.6606
323.87        110.0628
324.32        110.4547
324.78        110.3915
325.23        110.2758
325.68        110.1218
326.13        110.1836
326.59        110.4915
327.04        111.0304
327.49        111.6338
327.94        112.0466
328.39         112.197
328.85        112.1303
329.30        112.0333
329.75        112.0771
330.20        112.3307
330.66        112.7026
331.11        113.1884
331.56        113.6366
332.01        114.0068
332.46         114.337
332.92        114.6292
333.37        115.0322
333.82        115.5194
334.27        116.0605
334.72         116.606
335.17        117.0857
335.63        117.4464
336.08        117.7679
336.53        118.0766
336.98         118.467
337.43        118.9605
337.88        119.5303
338.34        120.0742
338.79        120.4879
339.24        120.7164
339.69        120.8015
340.14        120.8483
340.59         121.024
341.05        121.3714
341.50        121.8552
341.95        122.3742
342.40        122.7669
342.85        122.9915
343.30        123.0956
343.75        123.1752
344.20        123.3849
344.66        123.7642
345.11        124.2367
345.56        124.7036
346.01        125.0119
346.46        125.1359
346.91        125.1137
347.36        125.0152
347.81        125.0261
348.26        125.1929
348.72        125.1704
349.17        125.4521
349.62        125.5863
350.07        125.7131
350.52        125.8279
350.97        125.8877
351.42        125.8116
351.87        125.5814
352.32        125.2187
352.77        124.7957
353.22        124.4247
353.67        124.1317
354.13        123.9093
354.58        123.6583
355.03        123.2745
355.48        122.7373
355.93        122.0813
356.38        121.4065
356.83        120.8596
357.28        120.4558
357.73        120.1399
358.18         119.779
358.63        119.1673
359.08        118.2746
359.53         117.188
359.98        116.0534
360.43        115.0868
360.88         114.337
361.33        113.7286
361.78        113.1792
362.23         112.558
362.68        111.8244
363.13        111.0311
363.58        110.1846
364.03        109.2881
364.48        108.3575
364.93        107.3856
365.38        106.4362
365.83        105.6211
366.28        104.9576
366.73        104.4115
367.18        103.8979
367.63        103.2765
368.08        102.5134
368.53        101.6562
368.98         100.754
369.43        99.87402
369.88        99.03748
370.33         98.2207
370.78        97.42819
371.23        96.68756
371.68        96.00995
372.13        95.39279
372.58        94.82729
373.03         94.2797
373.48        93.72586
373.93        93.16867
374.38         92.5718
374.83        91.89165
375.28        91.14093
375.72        90.32796
376.17         89.5601
376.62        88.91316
377.07        88.39011
377.52        87.95263
377.97        87.54397
378.42         87.0822
378.87        86.55418
379.32        85.99659
379.77        85.43341
380.22         84.8848
380.67        84.34599
381.11         83.8028
381.56        83.25248
382.01        82.72112
382.46        82.23007
382.91        81.79493
383.36        81.38716
383.81        80.95514
384.26        80.48589
384.71        79.98086
385.15         79.4902
385.60        79.15872
386.05        78.97224
386.50        78.89001
386.95        78.77876
387.40         78.4389
387.85        77.85691
388.29        77.07537
388.74        76.35328
389.19        75.84486
389.64        75.57199
390.09        75.45373
390.54        75.39274
390.98        75.21922
391.43        74.93717
391.88        74.60014
392.33        74.24892
392.78        73.95861
393.23        73.75185
393.67        73.49511
394.12        73.28896
394.57        73.26355
395.02        73.33307
395.47        73.13494
395.91        72.71834
396.36        72.44915
396.81        72.37845
397.26        72.33267
397.71        72.21632
398.15        71.99626
398.60        71.74767
399.05        71.24249
399.50        70.69899
399.95        70.79987
400.39        71.37707
400.84        71.47694
401.29        71.01288
401.74        70.41619
402.18        69.86819
402.63        69.59554
403.08         69.5924
403.53        69.45435
403.97        69.16666
404.42        69.08141
404.87        69.15045
405.32        69.11755
405.76        68.94521
406.21        68.74812
406.66         68.5474
407.11         68.3376
407.55        68.12965
408.00        68.11242
408.45        67.71306
408.90        67.72967
409.34         67.8905
409.79        67.79916
410.24        67.49994
410.68        67.41283
411.13        67.55769
411.58        67.69543
412.03        67.76409
412.47        67.77634
412.92         67.6885
413.37        67.52057
413.81         67.3288
414.26        67.24936
414.71        67.28535
415.15        67.41585
415.60        67.55741
416.05        67.62019
416.49        67.57642
416.94        67.45492
417.39        67.28682
417.83        67.10948
418.28        66.94273
418.73        66.76552
419.17        66.60123
419.62        66.50105
420.07        66.47386
420.51        66.50926
420.96        66.57022
421.41        66.55914
421.85        66.43687
422.30        66.23409
422.74        66.01726
423.19        66.06916
423.64        66.36153
424.08        66.68243
424.53        66.86486
424.98        66.98123
425.42        67.01594
425.87        66.72231
426.31        66.29499
426.76        66.39911
427.21        66.95254
427.65        67.14191
428.10        66.88382
428.54        66.80296
428.99        66.93754
429.44        66.84057
429.88         66.5644
430.33        66.60957
430.77        66.83065
431.22        66.88832
431.66        66.79535
432.11        66.79492
432.56        66.92252
433.00        67.15771
433.45        67.28391
433.89          67.116
434.34        66.78177
434.78        66.53819
435.23        66.34668
435.67        67.18112
436.12        67.74367
436.57        67.83686
437.01        67.22104
437.46        66.94798
437.90        67.84716
438.35        67.16203
438.79        67.61531
439.24        67.48441
439.68        67.51462
440.13        67.43563
440.57        67.28067
441.02        67.33655
441.46        67.50575
441.91        67.40987
442.35        67.10606
442.80        67.30287
443.24        67.89026
443.69        68.22953
444.13        68.17947
444.58        68.22215
445.02        67.92467
445.47        67.89209
445.91        67.97295
446.36        67.94541
446.80        67.80373
447.24        67.72182
447.69        67.74349
448.13        67.82595
448.58        68.01153
449.02        67.96158
449.47         67.7586
449.91        67.69003
450.36        67.78733
450.80        67.86118
451.25        67.89809
451.69        67.88516
452.13        67.83905
452.58        67.80325
453.02        67.76604
453.47        67.69971
453.91        67.59437
454.36        67.48335
454.80         67.3672
455.24        67.24886
455.69        67.15415
456.13         67.0481
456.58        66.94315
457.02         66.9371
457.46         66.6946
457.91         66.6764
458.35        66.84019
458.79        66.85381
459.24        66.75578
459.68        66.66737
460.13        66.64659
460.57        66.53925
461.01        66.35506
461.46        66.41547
461.90        66.27658
462.34        66.11984
462.79         66.0842
463.23        66.09365
463.68         66.1621
464.12        65.95499
464.56        65.57788
465.01        65.69212
465.45        66.04016
465.89        66.11048
466.34        65.58636
466.78        65.33775
467.22        65.21612
467.67        65.76575
468.11        65.06631
468.55        65.08426
468.99        65.21363
469.44        65.20804
469.88        65.04281
470.32        64.85365
470.77        64.69539
471.21        64.56565
471.65          64.481
472.10        64.43439
472.54         64.4093
472.98        64.40269
473.42        64.40648
473.87        64.43885
474.31        64.44298
474.75        64.42289
475.20        64.36739
475.64        64.25725
476.08        64.13041
476.52        64.08698
476.97        64.13327
477.41        64.23074
477.85         64.3244
478.29        64.35526
478.74        64.45764
479.18        64.16243
479.62        64.17879
480.06         64.0749
480.50        64.04333
480.95        64.14873
481.39        64.37315
481.83        64.08903
482.27         64.6641
482.72        64.30296
483.16        64.75315
483.60        64.51819
484.04        64.49789
484.48        64.11377
484.93        64.23816
485.37        64.16984
485.81        64.63077
486.25        63.97461
486.69        64.96291
487.14        64.82677
487.58        64.03275
488.02        63.51247
488.46        63.73982
488.90        63.99295
489.34        63.89265
489.79        63.28397
490.23        63.78503
490.67        63.86815
491.11         63.9934
491.55        63.91311
491.99        63.69315
492.43        63.60778
492.88        63.66556
493.32        63.74223
493.76        63.76181
494.20        63.78987
494.64        63.83183
495.08        63.53242
495.52        63.46341
495.96        63.50023
496.41        63.69862
496.85        63.74815
497.29        63.56778
497.73        63.37217
498.17        62.92514
498.61        62.94564
499.05        63.26077
499.49        63.25462
499.93        62.99871
500.37        62.98302
500.82        63.21249
501.26        63.65688
501.70        64.13789
502.14        63.79477
502.58        63.28504
503.02        62.98023
503.46        63.13643
503.90        63.24105
504.34        63.23108
504.78        63.20765
505.22         63.1673
505.66        63.02858
506.10        62.84841
506.54        62.81413
506.98        62.96047
507.42        62.50703
507.86        63.43391
508.30        62.53856
508.74        63.18351
509.18        63.06061
509.62        63.01282
510.06        62.97849
510.50        62.94173
510.94        62.82239
511.38        62.62099
511.82        62.48874
512.26        62.43797
512.70        62.41129
513.14        62.40676
513.58         62.4366
514.02        62.49295
514.46        62.57137
514.90        62.63941
515.34        62.68018
515.78        62.68872
516.22        62.64273
516.66        62.41455
517.10        62.62748
517.54         62.4417
517.98        62.50689
518.42        62.54628
518.86        62.54001
519.30        62.47945
519.74        62.34684
520.18         62.2061
520.62        62.23051
521.06        62.38822
521.50        62.42993
521.93        62.34621
522.37        62.32163
522.81        62.35737
523.25        62.33795
523.69        62.26789
524.13        62.21212
524.57        62.17884
525.01        62.15223
525.45        62.13876
525.89        62.14866
526.32        62.17957
526.76        62.23404
527.20        62.30012
527.64         62.3601
528.08        62.40464
528.52        62.43524
528.96         62.4514
529.40        62.44652
529.83        62.42032
530.27        62.40763
530.71        62.39224
531.15        62.34671
531.59        62.27361
532.03        62.18806
532.46        62.11603
532.90        62.11129
533.34        62.17355
533.78        62.28246
534.22        62.39177
534.66         62.4304
535.09        62.37532
535.53        62.27264
535.97        62.14439
536.41        62.04324
536.85        61.98816
537.28        61.96434
537.72        61.97033
538.16        62.00501
538.60        62.05841
539.04        62.12801
539.47        62.17997
539.91        62.21404
540.35        62.20863
540.79        62.17118
541.22        62.10577
541.66        62.03663
542.10        61.96939
542.54        61.90034
542.97        61.83601
543.41        61.81756
543.85        61.84456
544.29        61.91897
544.72        61.99987
545.16        62.07565
545.60         62.1266
546.04        62.08782
546.47         62.0153
546.91        62.14682
547.35        62.41677
547.79        62.48746
548.22         62.3266
548.66        62.17839
549.10        62.07705
549.53         61.9395
549.97        61.81639
550.41        61.77476
550.84        61.82253
551.28         61.9722
551.72        62.18122
552.15        62.27976
552.59        62.23966
553.03        62.26762
553.46         62.2849
553.90        61.92887
554.34        62.03878
554.77        61.91413
555.21        61.84496
555.65         61.8545
556.08        61.94524
556.52        62.09096
556.96        62.23416
557.39        62.37401
557.83        62.47375
558.27        62.39616
558.70        62.20236
559.14        62.10299
559.57        62.10611
560.01        62.21561
560.45        62.33458
560.88        62.19709
561.32        61.92321
561.75          61.818
562.19        61.92609
562.63        62.10386
563.06        62.25798
563.50        62.16238
563.93        61.87235
564.37        61.82372
564.80         61.9909
565.24          62.095
565.68        62.11636
566.11        62.17228
566.55         62.2688
566.98        62.38719
567.42        62.50106
567.85        62.40668
568.29         62.2076
568.72        62.17145
569.16        62.34179
569.60        62.44488
570.03        62.34026
570.47        62.44683
570.90         62.7098
571.34        62.39097
571.77        62.90717
572.21        62.62963
572.64        62.81497
573.08        62.57815
573.51        62.59815
573.95        62.95277
574.38        62.74528
574.82         63.2985
