SpectraSmart Spectrum 2.9.0.0
--------- Device Information -----------
Spectrum Name :  反射率_0
Saving Time :  2024/04/21 00:17:00
Spectro-Module Model Name : SE2030-DUVN
Spectro-Module Serial Number : OS361AC55029948
Wavelength Start : 200
Wavelength End : 1025
Wavelength Unit : Wavelength(nm)
Spectrum Unit : Reflectance(%)
-----------Spectrum Setting ------------
Integration Time : 20ms
Average : 10
Boxcar : 0
Background removal :  enabled
linearity correction :  enabled
SC :  disabled
Intensity correction :  disabled
DWT denoise :  enabled
savitzky-golay :  disabled
FFT :  disabled
Running average :  disabled
Kalman :  disabled
High pass :  disabled
---------------BEGIN--------------------
Wavelength(nm)             Reflectance(%)
200.29               0
200.75       -90.36821
201.21       -14.19824
201.67        26.71419
202.13        40.76172
202.58        39.25542
203.04        27.48852
203.50        9.911554
203.96      -0.1540257
204.42        3.471837
204.88        14.86282
205.34        28.06606
205.80        35.18812
206.26        34.13641
206.72        28.82969
207.18        16.74335
207.64       -6.228074
208.10       -36.26952
208.55       -71.04041
209.01       -83.49431
209.47       -47.69283
209.93      -0.1854216
210.39         37.4262
210.85        60.87221
211.31        70.13217
211.77        68.82556
212.23        57.44342
212.69        31.68416
213.14       -9.595817
213.60       -67.34421
214.06       -196.7024
214.52       -412.8511
214.98       -132.8306
215.44       -7.898114
215.90        29.73561
216.36        40.46489
216.81        38.33378
217.27        22.85858
217.73       -51.41444
218.19        841.4152
218.65        370.5632
219.11       -783.0815
219.57       -23.39677
220.02        25.02254
220.48        33.07758
220.94        27.38972
221.40        6.490823
221.86       -43.61596
222.32       -76.85835
222.77       -32.62008
223.23         6.12397
223.69        25.80147
224.15        32.77003
224.61        33.17113
225.06        30.62557
225.52        25.80998
225.98        19.11348
226.44        11.29457
226.90        1.230403
227.36        -6.65265
227.81       -3.831862
228.27        6.367563
228.73        17.89071
229.19        25.70029
229.65        27.13978
230.10        23.25044
230.56        15.87884
231.02        6.490176
231.48       0.5026905
231.93        1.773078
232.39        8.108361
232.85        15.19028
233.31        19.48878
233.77        21.25369
234.22        22.08301
234.68        22.34987
235.14        22.56422
235.60         23.2353
236.05        23.41493
236.51        23.05631
236.97         27.8248
237.43        37.89718
237.88         43.6451
238.34        41.43835
238.80        62.11578
239.26        52.71292
239.71        52.28493
240.17        46.94854
240.63        41.67661
241.08        39.35372
241.54        42.50835
242.00        50.41312
242.46        53.55013
242.91        49.36621
243.37        37.74064
243.83        21.96807
244.28        15.81475
244.74        26.16754
245.20        44.74147
245.66        62.03562
246.11        69.22952
246.57        65.72122
247.03        54.82122
247.48        38.12759
247.94        17.51809
248.40       -11.37453
248.85       -77.14194
249.31        -273.061
249.77       -416.9342
250.22       -112.5093
250.68        12.31748
251.14         53.1421
251.59        67.16119
252.05        72.18131
252.51        72.93701
252.96        70.56486
253.42        68.97466
253.88        70.55666
254.33        73.39512
254.79        77.68775
255.25        81.76026
255.70        84.40114
256.16         86.3914
256.62        87.44989
257.07         87.4329
257.53        87.15295
257.99        86.37683
258.44        84.78667
258.90        83.01174
259.35        80.58968
259.81        78.24548
260.27        75.97289
260.72        73.91013
261.18         72.5186
261.63        71.30347
262.09        70.34772
262.55        69.15758
263.00        67.60626
263.46        66.04579
263.91        64.49818
264.37        63.53152
264.83         63.0352
265.28        62.76287
265.74        62.52945
266.19        61.80564
266.65        60.63285
267.11        59.10683
267.56        57.45351
268.02        56.13565
268.47        55.18005
268.93          54.474
269.38        53.76755
269.84        52.75633
270.30        51.36129
270.75         49.7233
271.21        48.03695
271.66        46.50941
272.12        45.25769
272.57        44.18561
273.03        43.29095
273.48        42.50266
273.94        41.81129
274.39        41.18711
274.85        40.61486
275.31        39.97805
275.76        39.25074
276.22        38.50826
276.67        37.77147
277.13        37.18606
277.58        36.71569
278.04        36.34597
278.49        35.99098
278.95        35.64201
279.40        35.22355
279.86         34.7915
280.31        34.27371
280.77         33.6748
281.22        32.97237
281.68        32.25954
282.13        31.55907
282.59        30.99796
283.04        30.57249
283.50        30.28662
283.95        30.12993
284.41        30.12477
284.86        30.23756
285.32        30.47318
285.77        30.73358
286.22        30.91198
286.68        31.00406
287.13        30.98151
287.59        30.97497
288.04        31.07255
288.50        31.27431
288.95        31.64471
289.41        32.10662
289.86        32.09186
290.32        31.53502
290.77        32.22777
291.22        31.40858
291.68        31.62955
292.13        32.08942
292.59        32.82602
293.04         33.7781
293.50        34.91481
293.95        36.21546
294.40         37.6608
294.86        39.21823
295.31        40.82359
295.77        42.44818
296.22        44.06295
296.68        45.68101
297.13        47.32403
297.58        49.01686
298.04          50.756
298.49        52.53388
298.95        54.36089
299.40        56.21364
299.85        58.10522
300.31        60.01595
300.76        61.87563
301.21        63.68795
301.67        65.49084
302.12        67.30743
302.58        69.30498
303.03        71.45809
303.48        73.76061
303.94        76.11328
304.39        78.29656
304.84         80.2696
305.30        82.10269
305.75         83.8327
306.20         85.6507
306.66        87.59399
307.11        89.53734
307.57        91.42586
308.02         93.0762
308.47        94.49426
308.93        95.78551
309.38         96.9678
309.83        98.16313
310.29        99.42271
310.74        100.6686
311.19        101.9206
311.65        103.1892
312.10        104.4386
312.55        105.6731
313.00        106.8146
313.46        107.7404
313.91        108.4158
314.36        108.8904
314.82        109.2803
315.27        109.7584
315.72        110.3786
316.18         111.089
316.63         111.811
317.08        112.4136
317.53        112.8558
317.99        113.1828
318.44         113.433
318.89         113.647
319.35        113.8497
319.80        114.0407
320.25        114.2401
320.70        114.4923
321.16        114.7905
321.61        115.1335
322.06        115.4926
322.51         115.826
322.97        116.0991
323.42        116.3656
323.87        116.5801
324.32        116.6939
324.78        116.6907
325.23        116.6271
325.68        116.5864
326.13        116.7384
326.59        117.0916
327.04        117.6637
327.49        118.2952
327.94        118.7514
328.39        118.9629
328.85        118.9449
329.30        118.9002
329.75        119.0276
330.20          119.39
330.66         119.884
331.11        120.4394
331.56         120.784
332.01        120.8609
332.46         120.754
332.92        120.5746
333.37        120.6657
333.82        121.0633
334.27        121.6976
334.72        122.4526
335.17        123.1326
335.63        123.6373
336.08        124.0855
336.53        124.5145
336.98        125.0425
337.43        125.6931
337.88        126.4011
338.34        127.0708
338.79        127.6264
339.24        128.0105
339.69        128.2708
340.14        128.4519
340.59        128.6214
341.05        128.8173
341.50        129.0401
341.95        129.3173
342.40        129.6957
342.85        130.1737
343.30        130.7314
343.75        131.3038
344.20        131.7897
344.66        132.1603
345.11        132.4062
345.56        132.5585
346.01        132.6748
346.46        132.7896
346.91        132.8752
347.36        132.8971
347.81        132.9059
348.26        132.9253
348.72        132.5808
349.17         132.641
349.62        132.6962
350.07        132.9644
350.52        133.3671
350.97        133.7494
351.42        133.8483
351.87        133.5923
352.32        133.0658
352.77        132.4078
353.22        131.8339
353.67        131.4066
354.13        131.0842
354.58        130.7705
355.03        130.3667
355.48        129.8497
355.93        129.2694
356.38        128.6849
356.83        128.1736
357.28        127.7383
357.73        127.3282
358.18        126.8814
358.63        126.3126
359.08        125.6054
359.53        124.8027
359.98        123.9307
360.43        123.0218
360.88        122.0945
361.33        121.1387
361.78         120.202
362.23        119.3614
362.68        118.6288
363.13        117.9905
363.58        117.3538
364.03        116.5655
364.48        115.5923
364.93        114.4722
365.38        113.3194
365.83         112.326
366.28        111.5337
366.73        110.8782
367.18        110.2434
367.63        109.4456
368.08        108.4466
368.53        107.3239
368.98        106.1607
369.43        105.0671
369.88        104.0766
370.33        103.1522
370.78        102.2846
371.23        101.4796
371.68        100.7379
372.13          100.06
372.58        99.44035
373.03        98.84659
373.48        98.25767
373.93        97.68241
374.38        97.07005
374.83        96.35789
375.28        95.55692
375.72        94.66937
376.17        93.85368
376.62        93.25854
377.07        92.88621
377.52        92.67066
377.97        92.45336
378.42        91.98209
378.87         91.2205
379.32        90.28153
379.77        89.31567
380.22        88.52035
380.67        87.93149
381.11        87.47971
381.56        87.10638
382.01        86.74149
382.46        86.36163
382.91        86.00497
383.36         85.6368
383.81        85.19607
384.26        84.67396
384.71        84.06976
385.15        83.45287
385.60        83.00782
386.05        82.73373
386.50        82.58598
386.95        82.43279
387.40        82.07216
387.85        81.48438
388.29        80.70683
388.74        79.98805
389.19        79.45637
389.64        79.12827
390.09        78.92845
390.54        78.76468
390.98        78.47902
391.43        78.08423
391.88         77.6329
392.33        77.17714
392.78        76.79024
393.23        76.49122
393.67        76.19321
394.12        75.97655
394.57        75.82025
395.02        75.68774
395.47        75.48774
395.91        75.22731
396.36        74.97018
396.81        74.74467
397.26        74.53394
397.71        74.31423
398.15         74.0589
398.60        73.84762
399.05        73.52409
399.50        73.19215
399.95        73.18809
400.39        73.41184
400.84        73.37061
401.29        73.00146
401.74        72.41015
402.18        71.74824
402.63        71.36665
403.08        71.25372
403.53         70.9881
403.97        70.56402
404.42        70.30617
404.87        70.21797
405.32        70.16426
405.76         70.1209
406.21        70.11898
406.66        70.10329
407.11        70.03643
407.55        69.90961
408.00        69.60191
408.45        69.19649
408.90        68.93947
409.34        68.83944
409.79        68.72366
410.24        68.57518
410.68         68.4934
411.13        68.46885
411.58        68.43843
412.03        68.38454
412.47        68.32818
412.92        68.23808
413.37        68.11436
413.81        67.97115
414.26        67.88433
414.71        67.84258
415.15        67.85199
415.60        67.83109
416.05        67.70037
416.49        67.45281
416.94        67.11539
417.39        66.78353
417.83        66.58778
418.28        66.55595
418.73        66.64472
419.17        66.76137
419.62        66.76261
420.07        66.60967
420.51        66.34541
420.96        66.07219
421.41        65.87737
421.85        65.75828
422.30        65.77846
422.74        65.85574
423.19        65.83717
423.64        65.75475
424.08        65.97536
424.53        66.35145
424.98        66.49354
425.42        66.37762
425.87        66.02239
426.31         65.6051
426.76        65.68443
427.21        66.13074
427.65        66.02613
428.10        65.39436
428.54        65.12009
428.99        65.25633
429.44        65.29187
429.88        65.19585
430.33        65.19916
430.77        65.22915
431.22        65.36449
431.66        65.52118
432.11        65.49405
432.56        65.36578
433.00        65.16066
433.45        64.71955
433.89        64.76871
434.34        65.42833
434.78        63.83489
435.23        63.69387
435.67        64.60879
436.12        65.30997
436.57        65.47591
437.01        64.62622
437.46        64.25865
437.90         65.1028
438.35        64.93454
438.79        65.16765
439.24        65.07807
439.68        65.04641
440.13        64.96886
440.57        64.86388
441.02        64.82278
441.46        64.81559
441.91        64.75349
442.35        64.63538
442.80        64.85896
443.24        65.29065
443.69        65.46635
444.13        65.32279
444.58        65.10977
445.02        64.89101
445.47         64.8428
445.91        64.93209
446.36        64.92813
446.80        64.81637
447.24        64.71292
447.69        64.64758
448.13        64.76846
448.58        64.83385
449.02        64.69006
449.47        64.34351
449.91        64.15546
450.36        64.17009
450.80        64.11726
451.25        64.00748
451.69        64.01871
452.13        64.09292
452.58        63.91539
453.02        63.54339
453.47        63.34907
453.91        63.34626
454.36        63.35668
454.80        63.30629
455.24        63.18629
455.69        63.00844
456.13        62.70548
456.58        62.37962
457.02        62.36635
457.46        62.31508
457.91         62.3539
458.35        62.43971
458.79        62.46597
459.24        62.44987
459.68        62.41537
460.13        62.39814
460.57        62.20776
461.01        61.83782
461.46        61.97102
461.90        61.41817
462.34        61.41527
462.79        61.29045
463.23        61.45067
463.68        61.66435
464.12        61.42274
464.56        60.84674
465.01        60.83279
465.45        61.23719
465.89        61.14053
466.34        60.61095
466.78        60.51066
467.22        60.90025
467.67        60.39175
468.11        60.50516
468.55        60.26076
468.99        60.13802
469.44        60.00297
469.88        59.86748
470.32         59.7378
470.77        59.60418
471.21        59.48533
471.65        59.38279
472.10        59.30913
472.54         59.2366
472.98        59.14804
473.42         59.0485
473.87         58.9236
474.31        58.79758
474.75        58.87268
475.20        59.08689
475.64        59.19372
476.08        59.18838
476.52        59.11922
476.97         58.9233
477.41        59.02008
477.85        59.04152
478.29        58.31363
478.74        57.86598
479.18         58.1003
479.62        58.25662
480.06        58.36211
480.50        58.42131
480.95        58.50713
481.39        58.62391
481.83        58.68289
482.27        59.12973
482.72        58.43902
483.16        58.63313
483.60        58.75312
484.04        58.61932
484.48        58.25752
484.93        58.12907
485.37        58.00749
485.81         58.4677
486.25        58.09414
486.69         60.3813
487.14        60.52709
487.58        59.05031
488.02        58.49443
488.46        58.34169
488.90         58.0722
489.34        57.49465
489.79        57.20877
490.23         57.8927
490.67        57.98486
491.11        57.70822
491.55        57.51392
491.99        57.47097
492.43        57.41693
492.88        57.36138
493.32        57.39714
493.76        57.45477
494.20        57.49272
494.64        57.51882
495.08        57.21133
495.52         57.1837
495.96        57.13054
496.41        57.18131
496.85        57.09179
497.29         56.8569
497.73        56.91387
498.17        56.91937
498.61        56.89258
499.05        56.72506
499.49        56.52403
499.93          56.388
500.37          56.411
500.82        56.54916
501.26        56.80312
501.70         57.0456
502.14        56.64765
502.58        56.20053
503.02        55.95195
503.46        56.04171
503.90        56.17317
504.34        56.25851
504.78        56.33058
505.22        56.37291
505.66        56.32555
506.10        56.20463
506.54        56.22717
506.98        56.44043
507.42        56.06371
507.86        56.38454
508.30        56.33501
508.74        56.26206
509.18        56.16327
509.62        56.05634
510.06        55.99114
510.50         55.9495
510.94        55.86967
511.38        55.75591
511.82        55.67631
512.26        55.63285
512.70        55.58594
513.14         55.5378
513.58          55.509
514.02        55.49991
514.46        55.50412
514.90        55.49686
515.34        55.48767
515.78        55.47965
516.22        55.41813
516.66        55.18162
517.10        55.46796
517.54        55.27708
517.98        55.36867
518.42        55.42044
518.86        55.43151
519.30        55.39105
519.74        55.27422
520.18        55.14497
520.62        55.16758
521.06         55.3158
521.50        55.36644
521.93        55.30095
522.37        55.26597
522.81         55.2614
523.25        55.19204
523.69        55.07881
524.13        55.00495
524.57        54.98158
525.01        54.98406
525.45         55.0023
525.89        55.01997
526.32        55.02759
526.76        55.03677
527.20        55.04259
527.64        55.03801
528.08        55.02207
528.52        54.99634
528.96        54.96849
529.40        54.94568
529.83        54.92738
530.27        54.93672
530.71        54.95139
531.15        54.93338
531.59        54.87882
532.03        54.80588
532.46        54.72874
532.90        54.68159
533.34        54.66864
533.78        54.68039
534.22        54.70398
534.66        54.71956
535.09        54.71307
535.53        54.70833
535.97         54.6982
536.41        54.68666
536.85         54.6759
537.28        54.66358
537.72        54.65455
538.16        54.65855
538.60        54.67595
539.04        54.70575
539.47        54.72614
539.91        54.74931
540.35        54.75943
540.79        54.75909
541.22        54.75253
541.66        54.76073
542.10        54.78011
542.54        54.79944
542.97        54.80441
543.41        54.80188
543.85        54.78838
544.29        54.78032
544.72        54.75696
545.16        54.73445
545.60        54.70742
546.04        54.60836
546.47        54.50196
546.91        54.62746
547.35        54.91262
547.79        55.03981
548.22         54.9608
548.66         54.8167
549.10        54.67074
549.53        54.61485
549.97        54.64521
550.41        54.60102
550.84        54.47868
551.28        54.39047
551.72        54.36372
552.15         54.3885
552.59        54.44899
553.03        54.54686
553.46        54.48727
553.90        54.43818
554.34        54.34254
554.77        54.16542
555.21        53.98472
555.65        53.94395
556.08        54.05875
556.52        54.27579
556.96         54.5019
557.39        54.65649
557.83         54.6931
558.27        54.51715
558.70         54.2275
559.14        54.08781
559.57        54.13063
560.01        54.30864
560.45        54.49586
560.88        54.49302
561.32        54.35667
561.75        54.13357
562.19        53.96081
562.63        54.15679
563.06        54.57334
563.50        54.52483
563.93        54.06038
564.37        53.83964
564.80        53.90808
565.24        54.07336
565.68        54.26739
566.11        54.38171
566.55        54.40979
566.98        54.46355
567.42        54.54916
567.85        54.51432
568.29         54.4312
568.72        54.41822
569.16        54.53185
569.60        54.69421
570.03        54.89054
570.47        55.13374
570.90        55.30804
571.34        55.50505
571.77        55.80699
572.21        55.27348
572.64        55.42923
573.08        55.18996
573.51        54.88474
573.95        55.41434
574.38        55.70328
574.82        56.04362
