SpectraSmart Spectrum 2.9.0.0
--------- Device Information -----------
Spectrum Name :  反射率_0
Saving Time :  2024/04/21 00:38:12
Spectro-Module Model Name : SE2030-DUVN
Spectro-Module Serial Number : OS361AC55029948
Wavelength Start : 200
Wavelength End : 1025
Wavelength Unit : Wavelength(nm)
Spectrum Unit : Reflectance(%)
-----------Spectrum Setting ------------
Integration Time : 20ms
Average : 10
Boxcar : 0
Background removal :  enabled
linearity correction :  enabled
SC :  disabled
Intensity correction :  disabled
DWT denoise :  enabled
savitzky-golay :  disabled
FFT :  disabled
Running average :  disabled
Kalman :  disabled
High pass :  disabled
---------------BEGIN--------------------
Wavelength(nm)             Reflectance(%)
200.29               0
200.75       -11.97566
201.21        23.13648
201.67         40.7855
202.13        46.11364
202.58        43.94666
203.04        36.57072
203.50        26.29182
203.96        19.98107
204.42         20.9488
204.88        26.64605
205.34        32.34782
205.80         31.0608
206.26        20.43359
206.72        2.060712
207.18       -21.24079
207.64       -40.56122
208.10       -47.25479
208.55       -43.05916
209.01       -23.90182
209.47        6.070349
209.93        29.37667
210.39        43.67096
210.85        51.63564
211.31        55.58797
211.77        57.27901
212.23         57.5013
212.69        54.03943
213.14        39.18307
213.60       -6.325658
214.06       -166.8454
214.52       -591.8514
214.98       -281.9122
215.44       -63.26937
215.90        12.71437
216.36        39.41717
216.81        45.78151
217.27        38.92674
217.73       -7.430703
218.19        578.4689
218.65        279.7514
219.11       -567.4104
219.57       -6.440092
220.02        29.33529
220.48        34.34376
220.94        28.03152
221.40        8.160211
221.86       -37.90895
222.32       -66.80112
222.77       -24.52488
223.23        11.79337
223.69         30.0463
224.15         36.3292
224.61        36.48145
225.06        33.85698
225.52         29.3623
225.98        23.89435
226.44        18.24739
226.90        11.15144
227.36        6.214068
227.81        9.923471
228.27        19.04302
228.73        28.77512
229.19        34.95353
229.65        35.21266
230.10        30.30382
230.56        21.60647
231.02        10.56304
231.48        3.293465
231.93        4.148647
232.39        10.71541
232.85        18.14722
233.31        22.35704
233.77         23.5424
234.22        23.51102
234.68         22.6683
235.14        21.65498
235.60        21.13636
236.05        20.02597
236.51        18.63269
236.97         23.7077
237.43        35.46536
237.88        43.54284
238.34        44.18949
238.80        65.13155
239.26         56.4566
239.71        54.40126
240.17        46.20353
240.63        38.17511
241.08        34.89024
241.54        39.23671
242.00        50.49567
242.46        58.15104
242.91        59.67252
243.37        56.21453
243.83        49.00552
244.28        43.96534
244.74        45.04244
245.20        48.52718
245.66        51.89524
246.11        53.18819
246.57        51.90782
247.03        49.40801
247.48        44.80121
247.94        35.78953
248.40        17.74049
248.85       -29.32266
249.31       -179.9708
249.77       -312.8789
250.22       -85.52103
250.68        12.27643
251.14        46.06323
251.59         60.1838
252.05        68.79648
252.51        76.98651
252.96        83.75433
253.42        83.20056
253.88         73.2702
254.33        59.28651
254.79        51.21896
255.25        53.48539
255.70        60.76038
256.16        68.39233
256.62         74.0268
257.07        76.52763
257.53        77.13047
257.99        76.54832
258.44        74.83798
258.90        72.80585
259.35        70.15921
259.81        67.52303
260.27        64.99262
260.72        62.83347
261.18        61.42543
261.63        60.29167
262.09        59.41819
262.55        58.30848
263.00        56.85385
263.46        55.39043
263.91        53.94616
264.37        53.02063
264.83        52.52195
265.28        52.21897
265.74         51.9735
266.19        51.38054
266.65        50.45744
267.11        49.26714
267.56        47.92611
268.02        46.71162
268.47        45.64117
268.93        44.68129
269.38        43.71122
269.84        42.61611
270.30         41.3675
270.75        40.03222
271.21        38.75166
271.66        37.65908
272.12        36.81522
272.57        36.14364
273.03        35.56927
273.48        34.93158
273.94        34.21962
274.39        33.44854
274.85        32.70378
275.31        32.04164
275.76        31.46623
276.22        30.97633
276.67        30.52777
277.13        30.14676
277.58        29.77986
278.04         29.4536
278.49        29.09278
278.95        28.67592
279.40        28.15896
279.86        27.59546
280.31         26.9923
280.77        26.45211
281.22          25.963
281.68        25.56158
282.13        25.18759
282.59        24.82881
283.04        24.45961
283.50        24.12041
283.95         23.8569
284.41        23.76406
284.86        23.83958
285.32        24.06103
285.77        24.32355
286.22         24.4987
286.68         24.5761
287.13        24.54405
287.59        24.53689
288.04        24.65152
288.50        24.87687
288.95        25.28415
289.41         25.7819
289.86        25.75727
290.32        25.12771
290.77        25.85201
291.22         24.8916
291.68        25.01826
292.13        25.35382
292.59        25.93738
293.04        26.71808
293.50        27.68304
293.95        28.81978
294.40        30.10676
294.86        31.49501
295.31        32.89249
295.77         34.2718
296.22        35.62548
296.68        36.99656
297.13        38.45754
297.58        40.03695
298.04        41.70436
298.49        43.43285
298.95        45.19992
299.40        46.96758
299.85         48.7575
300.31        50.52708
300.76        52.17963
301.21        53.72849
301.67        55.23441
302.12        56.78296
302.58        58.61691
303.03        60.73468
303.48        63.09916
303.94         65.5831
304.39        67.92716
304.84        70.06913
305.30         72.0919
305.75         74.0177
306.20        76.00121
306.66        78.08006
307.11        80.14456
307.57        82.18529
308.02         84.1107
308.47        85.92626
308.93         87.6954
309.38        89.37952
309.83        90.98797
310.29        92.56631
310.74        94.05923
311.19        95.49598
311.65        96.89684
312.10        98.24538
312.55        99.53584
313.00        100.7654
313.46        101.9313
313.91        103.0109
314.36         104.021
314.82        104.9438
315.27        105.7402
315.72        106.4262
316.18        107.0169
316.63        107.5788
317.08        108.2227
317.53        108.9597
317.99         109.744
318.44         110.489
318.89        111.0375
319.35        111.3536
319.80         111.505
320.25        111.5583
320.70        111.6288
321.16        111.7552
321.61        111.9237
322.06        112.1443
322.51        112.4414
322.97        112.7883
323.42        113.2194
323.87        113.6491
324.32        113.9476
324.78        114.0672
325.23        114.0862
325.68        114.0661
326.13         114.151
326.59        114.3567
327.04        114.6976
327.49        115.1127
327.94        115.5332
328.39        115.9292
328.85        116.2931
329.30        116.6753
329.75        117.0116
330.20        117.2984
330.66        117.4929
331.11        117.7174
331.56        118.0355
332.01        118.4684
332.46        118.9934
332.92        119.4864
333.37        119.8898
333.82        120.1236
334.27         120.235
334.72        120.3164
335.17        120.5229
335.63         120.869
336.08        121.3749
336.53        121.9522
336.98        122.5045
337.43         122.991
337.88        123.4342
338.34        123.8205
338.79        124.1939
339.24        124.5396
339.69        124.8559
340.14        125.1514
340.59        125.4484
341.05        125.7635
341.50        126.1109
341.95        126.5123
342.40         127.002
342.85        127.5711
343.30        128.1867
343.75        128.7918
344.20        129.3059
344.66        129.7032
345.11        129.9745
345.56        130.1278
346.01         130.182
346.46        130.1736
346.91        130.0999
347.36        129.9761
347.81        129.9176
348.26        129.9574
348.72        129.7274
349.17        129.8934
349.62        130.0294
350.07         130.316
350.52        130.7026
350.97        131.0372
351.42        131.0639
351.87         130.727
352.32        130.1098
352.77        129.3957
353.22         128.871
353.67        128.6019
354.13        128.5182
354.58        128.4581
355.03        128.2132
355.48        127.7328
355.93        127.1031
356.38        126.4212
356.83        125.8261
357.28        125.3435
357.73        124.8998
358.18        124.4478
358.63        123.9261
359.08        123.3146
359.53        122.6551
359.98        121.9196
360.43        121.0529
360.88        120.0612
361.33        118.9605
361.78        117.8719
362.23        116.9913
362.68        116.3576
363.13        115.9214
363.58        115.5205
364.03        114.8904
364.48        113.9696
364.93         112.829
365.38        111.6342
365.83        110.6621
366.28        109.9699
366.73        109.4518
367.18        108.9511
367.63        108.2221
368.08        107.2139
368.53        106.0433
368.98        104.7981
369.43        103.5918
369.88         102.471
370.33        101.3897
370.78        100.4133
371.23        99.67328
371.68         99.1866
372.13         98.9203
372.58        98.71324
373.03        98.29088
373.48        97.58176
373.93        96.65231
374.38        95.63253
374.83        94.76393
375.28        94.12337
375.72        93.61506
376.17          93.197
376.62        92.72234
377.07         92.1394
377.52        91.48634
377.97        90.78351
378.42         90.0798
378.87        89.41853
379.32        88.78668
379.77        88.18327
380.22        87.62804
380.67        87.11205
381.11         86.4976
381.56        86.03072
382.01        85.53394
382.46        85.09555
382.91        84.70898
383.36        84.34518
383.81        83.95461
384.26         83.5184
384.71        83.04018
385.15         82.5471
385.60        82.15083
386.05        81.83897
386.50        81.58913
386.95        81.31847
387.40        80.90553
387.85        80.35272
388.29        79.67313
388.74        79.07635
389.19        78.64594
389.64        78.38155
390.09        78.20759
390.54        78.06113
390.98        77.82786
391.43         77.5295
391.88         77.2198
392.33        76.88747
392.78        76.48975
393.23        76.04442
393.67        75.51312
394.12        75.15004
394.57        74.86092
395.02        75.43834
395.47        75.42975
395.91        75.06365
396.36        74.79927
396.81        74.66619
397.26        74.37621
397.71        73.91614
398.15        73.47128
398.60        73.15013
399.05        72.65619
399.50        72.17223
399.95        72.32265
400.39        72.91205
400.84        73.04399
401.29        72.63091
401.74        71.96741
402.18        71.30177
402.63        71.17603
403.08        71.50398
403.53        71.44383
403.97        70.95518
404.42        70.64397
404.87         70.5329
405.32        70.40533
405.76        70.25819
406.21        70.10457
406.66        69.95951
407.11        69.98806
407.55        70.13432
408.00        70.03789
408.45        69.72364
408.90        69.42851
409.34        69.22613
409.79         69.1897
410.24        69.24566
410.68        69.16613
411.13        68.93663
411.58        68.69869
412.03        68.51472
412.47        68.44229
412.92        68.47803
413.37        68.61271
413.81        68.77013
414.26         68.8921
414.71        68.93575
415.15        68.93226
415.60         68.8624
416.05        68.76029
416.49        68.64381
416.94        68.49887
417.39        68.34192
417.83        68.18817
418.28        68.04801
418.73        67.92416
419.17        67.81367
419.62         67.7157
420.07        67.62708
420.51         67.5408
420.96        67.48487
421.41        67.43528
421.85         67.3574
422.30        67.34199
422.74        67.34699
423.19        67.29936
423.64         67.2382
424.08        67.46523
424.53        67.82736
424.98        67.97559
425.42        67.88805
425.87        67.57363
426.31        67.22531
426.76        67.40646
427.21        68.00653
427.65        68.16009
428.10        67.81408
428.54        67.69132
428.99        67.83428
429.44        67.80648
429.88        67.60942
430.33         67.5411
430.77        67.55096
431.22        67.62889
431.66        67.74401
432.11        67.90884
432.56        68.12603
433.00        68.20736
433.45        67.98588
433.89        67.98434
434.34        68.28768
434.78        67.46596
435.23        67.21777
435.67        67.84585
436.12        68.24222
436.57        68.35691
437.01         67.8506
437.46        67.64604
437.90        68.45176
438.35        68.11794
438.79        68.57038
439.24        68.51754
439.68        68.50425
440.13        68.36674
440.57        68.18276
441.02        68.35247
441.46        68.75593
441.91        68.74148
442.35        68.37063
442.80        68.67399
443.24        69.46587
443.69        69.60545
444.13        69.06429
444.58        68.93584
445.02        68.78902
445.47        68.87648
445.91        69.16152
446.36        69.22845
446.80         69.1067
447.24        68.93737
447.69        68.80562
448.13        68.93114
448.58        69.07416
449.02        69.05042
449.47         68.8447
449.91        68.80917
450.36        68.97221
450.80        69.04901
451.25        69.03484
451.69        69.09998
452.13        69.18069
452.58        68.94302
453.02        68.47349
453.47        68.21639
453.91        68.20725
454.36        68.24852
454.80        68.24919
455.24        68.21419
455.69        68.14243
456.13         67.8558
456.58        67.49568
457.02        67.65742
457.46         67.8065
457.91        67.82991
458.35        67.15294
458.79        66.93233
459.24         67.0465
459.68        67.10427
460.13        67.10326
460.57        67.03329
461.01        66.89627
461.46        66.84875
461.90        66.78396
462.34        66.39487
462.79        66.58486
463.23        66.37131
463.68        66.64595
464.12        66.26698
464.56        65.62893
465.01        65.80448
465.45        66.51274
465.89        66.53783
466.34        65.97129
466.78        65.75602
467.22        65.96537
467.67        66.02737
468.11        66.03862
468.55        65.89227
468.99        65.65543
469.44        65.46612
469.88        65.33973
470.32        65.14808
470.77         64.9157
471.21        64.76264
471.65        64.70065
472.10         64.6992
472.54        64.72211
472.98        64.73315
473.42        64.71958
473.87        64.70506
474.31        64.66431
474.75        64.65637
475.20        64.65929
475.64        64.61724
476.08        64.61854
476.52        64.51368
476.97        64.26693
477.41        64.45975
477.85        64.61602
478.29        63.93399
478.74        63.91644
479.18        64.00348
479.62        64.27173
480.06        64.25884
480.50        64.38853
480.95        64.38889
481.39        64.33646
481.83        64.50162
482.27        64.64439
482.72        64.30122
483.16        64.25805
483.60         64.5253
484.04        64.55838
484.48        64.06591
484.93        63.60888
485.37        64.09001
485.81        64.68674
486.25         64.1229
486.69        64.53621
487.14        64.43993
487.58        64.22697
488.02        64.19878
488.46        64.04417
488.90        63.91118
489.34        63.76457
489.79         63.5173
490.23        63.87645
490.67        63.97329
491.11        63.97508
491.55         63.8265
491.99        63.59877
492.43        63.48295
492.88        63.49509
493.32         63.5399
493.76        63.54309
494.20        63.56829
494.64        63.63465
495.08        63.35538
495.52        63.29034
495.96        63.45099
496.41        63.86249
496.85        63.78217
497.29        63.26201
497.73        63.34016
498.17        63.61691
498.61        63.63213
499.05        63.25856
499.49        62.98352
499.93        62.91839
500.37        62.90923
500.82        62.94505
501.26        63.28585
501.70        63.76311
502.14        63.42755
502.58         62.9166
503.02        62.64293
503.46        62.75959
503.90        62.84615
504.34        62.83749
504.78        62.87728
505.22        62.96941
505.66        62.99539
506.10        62.93861
506.54        63.02589
506.98        63.30519
507.42        62.66552
507.86         63.1915
508.30        62.84866
508.74        62.91162
509.18        62.78953
509.62        62.70257
510.06        62.66513
510.50        62.64959
510.94        62.59721
511.38        62.50319
511.82         62.4473
512.26        62.43148
512.70         62.4057
513.14        62.38605
513.58        62.42012
514.02        62.50594
514.46        62.62444
514.90        62.71899
515.34        62.73509
515.78        62.66325
516.22        62.50217
516.66        62.15086
517.10        62.27472
517.54        62.04221
517.98        62.10126
518.42        62.16851
518.86        62.21577
519.30        62.22498
519.74         62.1739
520.18        62.11586
520.62        62.20973
521.06        62.41598
521.50         62.4826
521.93        62.39296
522.37        62.32464
522.81        62.28337
523.25        62.16373
523.69         61.9887
524.13        61.84929
524.57        61.76337
525.01        61.71151
525.45        61.69936
525.89        61.73278
526.32        61.80315
526.76        61.91061
527.20        62.03026
527.64        62.12351
528.08        62.17665
528.52        62.19719
528.96        62.19214
529.40        62.16951
529.83        62.13396
530.27        62.11324
530.71        62.09781
531.15        62.07128
531.59        62.03312
532.03        61.99361
532.46        61.95574
532.90         61.9349
533.34        61.92896
533.78        61.93903
534.22        61.94557
534.66        61.91802
535.09        61.84596
535.53        61.75954
535.97         61.6827
536.41        61.67121
536.85        61.73235
537.28        61.84323
537.72        61.96278
538.16         62.0265
538.60        62.01442
539.04        61.94814
539.47        61.83646
539.91        61.74432
540.35        61.67199
540.79        61.61288
541.22        61.56287
541.66        61.53074
542.10         61.5106
542.54        61.49898
542.97        61.49469
543.41        61.52381
543.85        61.58255
544.29        61.67854
544.72        61.76136
545.16         61.8099
545.60        61.80727
546.04        61.68406
546.47        61.53825
546.91        61.67797
547.35        62.03078
547.79        62.23943
548.22        62.21709
548.66        62.05004
549.10        61.81454
549.53        61.68509
549.97        61.68298
550.41        61.61943
550.84        61.51354
551.28        61.49054
551.72         61.5238
552.15        61.59624
552.59        61.72427
553.03        61.45065
553.46        61.67543
553.90        61.60011
554.34         61.4508
554.77        61.59489
555.21        61.70844
555.65        61.33742
556.08        61.71412
556.52        61.75217
556.96         61.8122
557.39        61.86264
557.83        61.88623
558.27        61.75462
558.70        61.52508
559.14        61.37468
559.57        61.34235
560.01        61.56098
560.45        61.87825
560.88        61.84181
561.32        61.56008
561.75        61.38332
562.19        61.40587
562.63        61.64157
563.06        61.93106
563.50        61.76453
563.93        61.22862
564.37        60.95948
564.80        61.01472
565.24        61.23464
565.68        61.52644
566.11        61.69944
566.55        61.73199
566.98        61.80426
567.42        61.90295
567.85        61.76698
568.29        61.53599
568.72        61.48668
569.16        61.62083
569.60        61.96593
570.03        61.82043
570.47        61.96372
570.90         62.0841
571.34        62.11411
571.77        62.33955
572.21        61.78962
572.64        61.86839
573.08         61.9121
573.51        61.98006
573.95        62.21875
574.38         62.3233
574.82        62.70016
