SpectraSmart Spectrum 2.9.0.0
--------- Device Information -----------
Spectrum Name :  反射率_0
Saving Time :  2024/04/21 00:55:50
Spectro-Module Model Name : SE2030-DUVN
Spectro-Module Serial Number : OS361AC55029948
Wavelength Start : 200
Wavelength End : 1025
Wavelength Unit : Wavelength(nm)
Spectrum Unit : Reflectance(%)
-----------Spectrum Setting ------------
Integration Time : 20ms
Average : 10
Boxcar : 0
Background removal :  enabled
linearity correction :  enabled
SC :  disabled
Intensity correction :  disabled
DWT denoise :  enabled
savitzky-golay :  disabled
FFT :  disabled
Running average :  disabled
Kalman :  disabled
High pass :  disabled
---------------BEGIN--------------------
Wavelength(nm)             Reflectance(%)
200.29               0
200.75       -120.2312
201.21       -26.16854
201.67        26.98266
202.13         49.7755
202.58        55.72586
203.04        52.84261
203.50         41.8144
203.96         25.0785
204.42        6.772114
204.88       -13.31888
205.34       -31.82528
205.80       -46.40432
206.26       -57.14242
206.72       -58.76827
207.18       -54.22538
207.64       -55.50908
208.10        -64.9012
208.55       -80.49314
209.01       -79.67585
209.47       -41.54347
209.93        2.237327
210.39        34.28382
210.85        53.51505
211.31        61.44551
211.77        61.35238
212.23        54.27531
212.69        36.44348
213.14        2.871014
213.60        -57.5044
214.06       -227.6672
214.52       -606.7997
214.98       -262.2067
215.44       -59.99712
215.90         7.70914
216.36        29.02802
216.81        27.76416
217.27        4.736557
217.73       -107.2452
218.19        1232.811
218.65        518.3007
219.11       -1136.815
219.57       -50.68533
220.02         18.4251
220.48        31.34135
220.94        26.27559
221.40        2.947494
221.86       -54.76618
222.32        -94.3619
222.77       -44.45308
223.23     0.008377389
223.69        22.57878
224.15        30.20758
224.61        30.05504
225.06        26.46984
225.52        20.70761
225.98        14.13174
226.44        7.831507
226.90       0.2928778
227.36        -4.51904
227.81        0.357915
228.27        11.04736
228.73        22.26421
229.19        29.55605
229.65        30.58247
230.10        26.34773
230.56        18.45119
231.02        8.453005
231.48        2.300213
231.93        3.967193
232.39        10.93893
232.85        18.43476
233.31        22.51013
233.77        23.44137
234.22        23.03137
234.68        21.75419
235.14        20.41023
235.60        19.73685
236.05        18.60554
236.51         17.3096
236.97         22.6157
237.43        34.66423
237.88        42.98357
238.34        43.70857
238.80         64.6555
239.26        55.21781
239.71        51.93638
240.17        41.74334
240.63        31.64618
241.08        27.03643
241.54        31.76159
242.00        44.53609
242.46        52.11323
242.91        50.79748
243.37        41.09219
243.83        26.20049
244.28        19.74668
244.74        29.00059
245.20        46.13393
245.66        61.31354
246.11        65.30006
246.57        57.41105
247.03        40.61926
247.48        18.81156
247.94       -1.581582
248.40       -20.34837
248.85       -49.19748
249.31       -112.4398
249.77       -126.9628
250.22       -20.57298
250.68        14.00564
251.14        25.90591
251.59        35.01164
252.05        46.57739
252.51        63.32568
252.96        82.93486
253.42         91.4692
253.88        80.15523
254.33        58.46249
254.79        42.94029
255.25        42.87636
255.70        51.43147
256.16        61.01547
256.62        68.01257
257.07        70.64008
257.53        70.57188
257.99        69.25529
258.44        67.16583
258.90        65.39135
259.35        63.54417
259.81        61.84245
260.27        60.27323
260.72         58.9818
261.18        58.24604
261.63        57.66568
262.09        57.12488
262.55         56.0437
263.00        54.40245
263.46        52.62842
263.91        50.94292
264.37        50.08057
264.83        49.95057
265.28        50.19662
265.74        50.52979
266.19        50.36729
266.65        49.69049
267.11        48.62739
267.56        47.33839
268.02        46.16241
268.47        45.14262
268.93        44.22573
269.38         43.2952
269.84        42.24743
270.30         41.0594
270.75        39.80736
271.21        38.63549
271.66        37.67157
272.12         36.9726
272.57        36.45891
273.03        36.04355
273.48        35.55362
273.94        34.96906
274.39        34.29326
274.85        33.62242
275.31        33.02792
275.76         32.5167
276.22        32.09663
276.67        31.68461
277.13        31.25462
277.58        30.75892
278.04         30.2485
278.49        29.73771
278.95        29.33316
279.40        28.99351
279.86        28.72052
280.31        28.40077
280.77        27.96306
281.22        27.37266
281.68        26.73898
282.13        26.10629
282.59        25.61951
283.04        25.27744
283.50        25.05094
283.95        24.92749
284.41        24.91863
284.86        24.99477
285.32        25.17636
285.77        25.34387
286.22        25.34403
286.68        25.18202
287.13        24.85646
287.59        24.58894
288.04        24.61145
288.50        24.92915
288.95        25.56626
289.41        26.31734
289.86         26.4021
290.32        25.70217
290.77        26.20966
291.22        24.99409
291.68        24.95378
292.13        25.24128
292.59         25.8458
293.04        26.63741
293.50        27.48223
293.95        28.34536
294.40         29.2577
294.86        30.24713
295.31        31.33862
295.77        32.53878
296.22        33.80531
296.68        35.13777
297.13        36.54012
297.58        38.02093
298.04        39.57832
298.49        41.19984
298.95        42.88276
299.40        44.59799
299.85        46.35125
300.31        48.11006
300.76         49.8004
301.21        51.42997
301.67        53.04911
302.12        54.70733
302.58        56.58776
303.03        58.68519
303.48        60.98664
303.94        63.40368
304.39        65.74138
304.84        67.94895
305.30        70.07817
305.75        72.13816
306.20        74.26043
306.66        76.46946
307.11        78.67104
307.57        80.82339
308.02         82.7863
308.47        84.57127
308.93         86.2641
309.38         87.9016
309.83        89.60925
310.29         91.4523
310.74        93.32244
311.19        95.17035
311.65        96.89012
312.10        98.42635
312.55        99.81007
313.00        101.0596
313.46        102.2113
313.91        103.2646
314.36        104.2219
314.82        105.1018
315.27        105.9232
315.72        106.7129
316.18        107.4844
316.63        108.2451
317.08        109.0005
317.53        109.7422
317.99        110.4536
318.44        111.1308
318.89         111.752
319.35        112.3065
319.80        112.8125
320.25        113.2423
320.70        113.5612
321.16        113.7656
321.61        113.8859
322.06        114.0016
322.51        114.2492
322.97        114.6389
323.42        115.1747
323.87        115.7315
324.32        116.1159
324.78        116.2583
325.23        116.2564
325.68        116.2079
326.13        116.3091
326.59        116.5903
327.04        117.0579
327.49        117.5937
327.94        118.0376
328.39          118.34
328.85        118.5093
329.30        118.7002
329.75        119.0215
330.20         119.505
330.66        120.0603
331.11        120.6558
331.56         121.089
332.01        121.3215
332.46        121.4179
332.92        121.4338
333.37        121.6226
333.82        122.0003
334.27        122.5249
334.72        123.1632
335.17        123.8565
335.63        124.5332
336.08        125.2655
336.53        125.9936
336.98         126.675
337.43        127.2865
337.88        127.8143
338.34        128.2321
338.79         128.581
339.24        128.8551
339.69        129.0824
340.14        129.2931
340.59         129.532
341.05        129.8222
341.50        130.1635
341.95        130.5953
342.40         131.176
342.85        131.8919
343.30        132.7109
343.75        133.4951
344.20         134.035
344.66        134.2959
345.11         134.313
345.56        134.2401
346.01        134.3285
346.46        134.6523
346.91        135.1144
347.36        135.5724
347.81        135.9181
348.26        136.1269
348.72        135.8303
349.17        135.9068
349.62        135.9552
350.07         136.241
350.52        136.6648
350.97        137.0665
351.42        137.1799
351.87        136.9321
352.32        136.4151
352.77        135.7838
353.22        135.2715
353.67        134.9386
354.13        134.7346
354.58        134.5218
355.03        134.1374
355.48        133.5491
355.93        132.8295
356.38        132.0943
356.83        131.5061
357.28        131.0902
357.73         130.777
358.18        130.4602
358.63        129.9802
359.08        129.2997
359.53        128.4803
359.98        127.5923
360.43        126.7369
360.88        125.9421
361.33        125.1691
361.78         124.406
362.23        123.6388
362.68        122.8615
363.13         122.094
363.58        121.3073
364.03        120.4462
364.48        119.5062
364.93        118.5011
365.38        117.5015
365.83        116.6272
366.28        115.9005
366.73        115.2804
367.18         114.686
367.63        113.9876
368.08         113.155
368.53         112.237
368.98        111.2791
369.43        110.3396
369.88        109.4365
370.33        108.5457
370.78        107.6754
371.23         106.862
371.68        106.1172
372.13        105.4333
372.58        104.7935
373.03        104.1492
373.48        103.4768
373.93        102.7941
374.38        102.0704
374.83         101.273
375.28        100.4216
375.72        99.51212
376.17        98.68301
376.62        98.04294
377.07        97.59119
377.52        97.27951
377.97        96.98091
378.42        96.49665
378.87        95.79837
379.32         94.9674
379.77        94.12899
380.22         93.4494
380.67        92.94831
381.11        92.56194
381.56        92.20439
382.01        91.76608
382.46        91.22384
382.91         90.6338
383.36        90.01836
383.81        89.39976
384.26        88.79608
384.71        88.20178
385.15        87.64219
385.60        87.22959
386.05        86.94472
386.50        86.75329
386.95        86.58597
387.40        86.33911
387.85        85.98862
388.29        85.51495
388.74        85.06069
389.19         84.5981
389.64         84.1366
390.09        83.67446
390.54        83.22167
390.98        82.78547
391.43         82.4165
391.88        82.09457
392.33        81.84031
392.78        81.62905
393.23        81.43648
393.67        81.35134
394.12        81.36339
394.57        80.95624
395.02        80.25278
395.47        80.00519
395.91        80.17266
396.36        80.00195
396.81        79.49408
397.26        79.12444
397.71        78.91132
398.15        78.64991
398.60        78.42133
399.05        78.15347
399.50        77.92946
399.95        77.91163
400.39        78.04278
400.84         78.1983
401.29        78.23097
401.74        77.61475
402.18        76.57597
402.63        76.20174
403.08        76.45856
403.53        76.30138
403.97         75.7041
404.42        75.35909
404.87        75.27309
405.32        75.15919
405.76        74.98698
406.21        74.83923
406.66        74.72784
407.11        74.61124
407.55        74.50328
408.00        74.56053
408.45        74.68208
408.90        74.23103
409.34        73.37381
409.79        73.10068
410.24        73.36098
410.68        73.34453
411.13         73.0337
411.58        72.90154
412.03        72.96008
412.47        73.00575
412.92        72.99399
413.37        72.99006
413.81         72.9759
414.26        72.98535
414.71        72.99849
415.15        73.01272
415.60        72.97966
416.05        72.89465
416.49        72.76044
416.94         72.5793
417.39        72.38233
417.83        72.20193
418.28         72.0555
418.73        71.94034
419.17         71.8433
419.62        71.74871
420.07        71.64713
420.51        71.53404
420.96        71.45898
421.41        71.40697
421.85         71.3437
422.30        71.41044
422.74        71.51673
423.19        71.41735
423.64        71.18078
424.08        71.36861
424.53        71.84229
424.98        71.99052
425.42        71.77024
425.87        71.50425
426.31        71.31196
426.76        71.20048
427.21        71.22166
427.65        71.44445
428.10        71.68849
428.54        71.88164
428.99        71.67058
429.44        71.40224
429.88        71.06105
430.33        70.98303
430.77        71.06666
431.22        71.07603
431.66         70.9859
432.11        71.00217
432.56        71.13862
433.00        71.14424
433.45        70.81464
433.89        70.65826
434.34        70.79928
434.78        70.12548
435.23        69.36787
435.67         70.8332
436.12        70.89755
436.57        71.07395
437.01        70.40023
437.46         70.1589
437.90        71.18672
438.35        70.82399
438.79        71.44952
439.24        71.37026
439.68         71.2535
440.13        70.96452
440.57        70.62965
441.02        70.63522
441.46        70.91415
441.91        71.00768
442.35        70.87459
442.80        71.21429
443.24        71.83897
443.69        71.88525
444.13        71.37138
444.58        71.03056
445.02        70.98119
445.47         70.9063
445.91        71.31234
446.36        71.38046
446.80        71.24252
447.24        71.09668
447.69        71.04948
448.13        71.04422
448.58        71.34158
449.02         71.3369
449.47        71.12449
449.91        71.01085
450.36        71.01685
450.80        70.82486
451.25        70.52615
451.69        70.49173
452.13        70.68539
452.58        70.69707
453.02         70.5025
453.47        70.39259
453.91        70.35146
454.36        70.21629
454.80        69.99432
455.24          69.799
455.69          69.657
456.13        69.51633
456.58        69.39704
457.02        69.34235
457.46        68.96276
457.91        69.08984
458.35        68.97242
458.79        68.93894
459.24        68.81519
459.68        68.72366
460.13        68.70612
460.57        68.53914
461.01        68.21851
461.46        68.32158
461.90        68.01025
462.34        67.79348
462.79        67.80216
463.23         67.9024
463.68        68.08919
464.12        67.77847
464.56          67.156
465.01        67.28581
465.45        67.89917
465.89        67.94534
466.34        67.48577
466.78        67.10975
467.22        66.92925
467.67        67.10243
468.11        67.12043
468.55        67.00177
468.99        66.64098
469.44        66.44964
469.88        66.43841
470.32        66.34156
470.77        66.16785
471.21        66.05279
471.65         65.9991
472.10        65.97934
472.54        65.94336
472.98        65.82593
473.42        65.62414
473.87        65.40814
474.31        65.21635
474.75        65.13653
475.20         65.1948
475.64        65.44264
476.08        65.76028
476.52        65.86658
476.97        65.70413
477.41        65.50948
477.85         65.3417
478.29        64.86948
478.74        64.66547
479.18        64.62423
479.62        65.02113
480.06        65.17315
480.50        65.11596
480.95        65.13158
481.39        65.20318
481.83        65.08852
482.27         65.6685
482.72        65.11154
483.16        65.40043
483.60        65.56723
484.04        65.50457
484.48        64.97826
484.93        64.59697
485.37        64.64353
485.81        64.95436
486.25        64.71633
486.69        66.60518
487.14        66.84115
487.58        65.60583
488.02         64.9691
488.46        64.60568
488.90        64.48383
489.34        64.52666
489.79        64.33412
490.23        64.52429
490.67        64.63834
491.11        64.79598
491.55        64.61285
491.99        64.17608
492.43         63.9171
492.88        63.87483
493.32        63.86849
493.76        63.82853
494.20        63.82629
494.64        63.87553
495.08        63.63869
495.52        63.63841
495.96         63.7419
496.41         63.9924
496.85         63.8628
497.29        63.42004
497.73        63.50246
498.17        63.73684
498.61        63.92598
499.05        63.86484
499.49        63.67416
499.93         63.4575
500.37        63.37434
500.82        63.42616
501.26        63.62981
501.70        63.88096
502.14        63.55258
502.58        63.24711
503.02         63.0681
503.46        63.14717
503.90        63.22429
504.34        63.23839
504.78        63.26731
505.22        63.30906
505.66        63.27398
506.10        63.17863
506.54        63.19262
506.98        63.34741
507.42        62.83465
507.86        63.47964
508.30        62.76243
508.74        63.04619
509.18         62.8137
509.62        62.65411
510.06        62.59073
510.50        62.61148
510.94         62.6232
511.38        62.58969
511.82        62.57503
512.26        62.56847
512.70        62.53015
513.14        62.47019
513.58        62.42657
514.02        62.40364
514.46        62.38745
514.90        62.35924
515.34        62.32592
515.78        62.28985
516.22         62.2317
516.66        62.00362
517.10        62.19476
517.54        61.94973
517.98        61.93473
518.42        61.90493
518.86        61.89774
519.30        61.91275
519.74        61.91117
520.18        61.90653
520.62        61.99522
521.06        62.12976
521.50         62.0855
521.93        61.89966
522.37        61.83175
522.81        61.90153
523.25        61.96706
523.69        61.99727
524.13        62.00269
524.57        61.97524
525.01        61.91748
525.45        61.85093
525.89        61.80784
526.32        61.79642
526.76        61.81409
527.20        61.84811
527.64        61.88111
528.08        61.90398
528.52        61.91965
528.96        61.93291
529.40        61.94285
529.83        61.94737
530.27         61.9772
530.71        61.99883
531.15        61.95931
531.59        61.85555
532.03        61.70759
532.46        61.56478
532.90        61.51821
533.34        61.57743
533.78        61.71602
534.22        61.86039
534.66        61.89597
535.09        61.79403
535.53        61.61485
535.97         61.4203
536.41        61.32504
536.85        61.35687
537.28        61.47657
537.72        61.63323
538.16        61.74617
538.60        61.78676
539.04        61.78139
539.47        61.73516
539.91        61.70652
540.35        61.69153
540.79        61.67761
541.22        61.65744
541.66        61.63862
542.10        61.61442
542.54        61.58302
542.97        61.54278
543.41         61.5185
543.85        61.51126
544.29         61.5357
544.72        61.55249
545.16         61.5554
545.60        61.53137
546.04        61.40647
546.47        61.27443
546.91        61.43502
547.35        61.80965
547.79        62.04147
548.22        62.03523
548.66        61.86223
549.10        61.60003
549.53        61.43456
549.97        61.39425
550.41        61.29812
550.84        61.16653
551.28        61.13556
551.72        61.19145
552.15        61.28981
552.59        61.43796
553.03        61.35217
553.46        61.54849
553.90        61.51889
554.34        61.40082
554.77        61.34292
555.21        61.21415
555.65         61.0785
556.08        61.19834
556.52        61.30044
556.96        61.41449
557.39        61.50426
557.83         61.5406
558.27        61.39869
558.70        61.15336
559.14        61.05848
559.57        61.13068
560.01        61.29509
560.45        61.44309
560.88        61.44652
561.32         61.3326
561.75        61.06683
562.19        60.79776
562.63        60.81073
563.06        61.03433
563.50        61.10519
563.93        60.90239
564.37        60.77399
564.80        60.72051
565.24        60.78836
565.68        60.94811
566.11        61.04183
566.55        61.07594
566.98        61.17969
567.42        61.34204
567.85        61.35176
568.29        61.28896
568.72        61.32398
569.16        61.48219
569.60        61.65845
570.03        61.74912
570.47        61.85734
570.90        61.90227
571.34        62.18446
571.77        62.36316
572.21        62.26192
572.64        62.32263
573.08        62.07324
573.51         62.1515
573.95        62.49555
574.38        62.21309
574.82        62.83202
