SpectraSmart Spectrum 2.9.0.0
--------- Device Information -----------
Spectrum Name :  反射率_0
Saving Time :  2024/04/21 00:53:59
Spectro-Module Model Name : SE2030-DUVN
Spectro-Module Serial Number : OS361AC55029948
Wavelength Start : 200
Wavelength End : 1025
Wavelength Unit : Wavelength(nm)
Spectrum Unit : Reflectance(%)
-----------Spectrum Setting ------------
Integration Time : 20ms
Average : 10
Boxcar : 0
Background removal :  enabled
linearity correction :  enabled
SC :  disabled
Intensity correction :  disabled
DWT denoise :  enabled
savitzky-golay :  disabled
FFT :  disabled
Running average :  disabled
Kalman :  disabled
High pass :  disabled
---------------BEGIN--------------------
Wavelength(nm)             Reflectance(%)
200.29               0
200.75       -1.488211
201.21         14.0837
201.67        24.45937
202.13        31.12861
202.58        36.23191
203.04        42.38308
203.50        48.78692
203.96        51.38616
204.42        48.11745
204.88         39.5485
205.34        29.85017
205.80        24.40674
206.26         24.7028
206.72        32.43511
207.18        42.77399
207.64        42.05938
208.10        25.87109
208.55      -0.6208583
209.01       -16.79689
209.47        1.104228
209.93        30.97067
210.39        55.56586
210.85        71.78683
211.31        80.19697
211.77        83.68546
212.23        84.19096
212.69        81.79179
213.14         78.3855
213.60        73.96836
214.06        62.88579
214.52        27.51067
214.98        36.29277
215.44        50.67778
215.90        57.87962
216.36        59.95345
216.81        57.32072
217.27        47.95717
217.73        6.627703
218.19         497.002
218.65        237.9418
219.11       -391.5519
219.57        22.91107
220.02         49.6163
220.48        55.00915
220.94          53.948
221.40        46.83136
221.86         29.3504
222.32        20.11736
222.77        38.21108
223.23        52.59383
223.69        59.26829
224.15        60.79252
224.61         59.5245
225.06         56.8525
225.52        53.44303
225.98        50.01812
226.44        47.14668
226.90        44.06526
227.36        42.74636
227.81        46.15446
228.27        52.11076
228.73        57.96224
229.19         61.5754
229.65        61.82288
230.10        59.15606
230.56        54.37727
231.02        48.27809
231.48        44.26351
231.93        44.71194
232.39        48.49398
232.85        52.66947
233.31        54.74053
233.77        54.84956
234.22        54.06269
234.68        52.96915
235.14        52.67589
235.60        53.77618
236.05        55.52044
236.51        57.50156
236.97        61.99286
237.43        68.46301
237.88        72.29038
238.34        71.86716
238.80        82.27048
239.26        78.63791
239.71        79.30338
240.17        78.04576
240.63        77.80952
241.08        80.50571
241.54        86.87032
242.00        94.94482
242.46        99.91013
242.91        100.7871
243.37        96.01909
243.83        87.54742
244.28        83.86935
244.74        89.03462
245.20        99.64223
245.66         108.039
246.11        105.5931
246.57        91.78059
247.03        68.95609
247.48        41.56794
247.94        17.11151
248.40       -3.821713
248.85       -32.43413
249.31       -83.54268
249.77       -53.88001
250.22        45.52636
250.68        67.98197
251.14        73.42413
251.59        78.58154
252.05        86.94519
252.51        99.35557
252.96        114.8073
253.42        124.6807
253.88        121.7127
254.33        110.4222
254.79        101.3912
255.25        100.1277
255.70        103.1831
256.16        107.4631
256.62        110.1724
257.07        109.8188
257.53           108.1
257.99        105.6452
258.44        102.9637
258.90        101.5775
259.35        100.5307
259.81        99.93111
260.27        99.08572
260.72        97.45778
261.18        95.75694
261.63        93.79072
262.09        92.05455
262.55        90.19604
263.00        88.09197
263.46        86.10236
263.91         84.1785
264.37         82.9716
264.83        82.31848
265.28         81.9052
265.74        81.58716
266.19        80.77448
266.65        79.52039
267.11        77.92463
267.56        76.09247
268.02        74.33523
268.47        72.67722
268.93        71.08064
269.38        69.54455
269.84        68.16992
270.30        66.93308
270.75        65.83283
271.21         64.7668
271.66        63.45701
272.12        61.92911
272.57        60.24412
273.03        58.63853
273.48        57.36138
273.94        56.49419
274.39        55.86261
274.85        55.36923
275.31        54.76047
275.76        53.95284
276.22        53.09196
276.67        52.16995
277.13        51.32181
277.58        50.50875
278.04         49.7519
278.49        49.00788
278.95        48.37776
279.40        47.78284
279.86        47.26451
280.31        46.69049
280.77        46.01319
281.22        45.17284
281.68        44.28607
282.13        43.37656
282.59        42.60671
283.04        41.96251
283.50        41.44975
283.95        41.02856
284.41        40.70357
284.86        40.44494
285.32        40.30182
285.77        40.20729
286.22        40.11193
286.68        40.02517
287.13        39.88873
287.59        39.83131
288.04         39.9278
288.50        40.16726
288.95        40.57532
289.41        41.03112
289.86        40.94212
290.32        40.24936
290.77        40.54938
291.22        39.48484
291.68        39.38382
292.13        39.56335
292.59        40.03303
293.04        40.73238
293.50        41.63236
293.95        42.69644
294.40        43.90471
294.86        45.18697
295.31        46.41482
295.77        47.56086
296.22        48.63436
296.68        49.69293
297.13        50.81978
297.58        52.06469
298.04        53.40493
298.49        54.85575
298.95        56.46407
299.40        58.19346
299.85        60.03458
300.31        61.88628
300.76        63.55045
301.21        65.01331
301.67        66.36285
302.12        67.69445
302.58        69.28861
303.03        71.15157
303.48        73.23995
303.94        75.44539
304.39        77.53291
304.84        79.44726
305.30        81.26941
305.75        82.99386
306.20        84.74216
306.66        86.54678
307.11        88.30321
307.57        90.02384
308.02        91.63215
308.47          93.149
308.93        94.64243
309.38        96.06123
309.83        97.41557
310.29         98.7317
310.74        99.96333
311.19        101.1775
311.65        102.4618
312.10        103.7955
312.55        105.1439
313.00        106.4028
313.46        107.4103
313.91        108.1215
314.36        108.6189
314.82        109.0038
315.27        109.4207
315.72        109.9358
316.18        110.5073
316.63        111.1447
317.08        111.8611
317.53        112.6289
317.99        113.4348
318.44        114.1811
318.89        114.6915
319.35        114.9311
319.80        114.9583
320.25        114.8866
320.70        114.9186
321.16        115.1075
321.61        115.4183
322.06        115.7909
322.51          116.13
322.97        116.3855
323.42         116.635
323.87        116.8653
324.32        117.0703
324.78        117.2341
325.23        117.3859
325.68        117.5428
326.13        117.7772
326.59        118.0722
327.04         118.469
327.49        118.8775
327.94        119.1821
328.39        119.3555
328.85        119.3972
329.30        119.4513
329.75         119.611
330.20        119.9127
330.66        120.2807
331.11        120.7313
331.56        121.1346
332.01        121.4579
332.46        121.7309
332.92        121.9309
333.37        122.1799
333.82        122.4534
334.27        122.7483
334.72        123.0737
335.17         123.448
335.63        123.8411
336.08        124.3124
336.53        124.8386
336.98        125.4312
337.43        126.0735
337.88        126.7432
338.34        127.3462
338.79        127.8035
339.24        128.0671
339.69        128.1773
340.14        128.2174
340.59        128.3236
341.05        128.5454
341.50        128.8667
341.95        129.2635
342.40        129.6953
342.85        130.1346
343.30          130.58
343.75        131.0159
344.20        131.4185
344.66        131.7836
345.11        132.0911
345.56        132.3168
346.01        132.4327
346.46        132.4594
346.91         132.391
347.36        132.2893
347.81        132.3493
348.26        132.6087
348.72          132.64
349.17        133.0615
349.62        133.2316
350.07        133.3257
350.52        133.3426
350.97        133.2827
351.42        133.1412
351.87        132.9141
352.32        132.5998
352.77        132.2231
353.22        131.8216
353.67        131.4088
354.13        131.0117
354.58        130.5748
355.03        130.0607
355.48         129.475
355.93        128.8374
356.38        128.2313
356.83        127.7787
357.28          127.48
357.73        127.2754
358.18        127.0351
358.63        126.5582
359.08        125.8033
359.53        124.8451
359.98        123.7869
360.43        122.7851
360.88        121.8876
361.33        121.0485
361.78         120.253
362.23        119.4773
362.68        118.7095
363.13        117.9729
363.58        117.2301
364.03        116.4099
364.48        115.5025
364.93         114.521
365.38        113.5355
365.83        112.6709
366.28        111.9477
366.73        111.3154
367.18        110.7002
367.63        109.9836
368.08        109.1387
368.53         108.223
368.98        107.2545
369.43        106.2467
369.88        105.2155
370.33        104.1478
370.78        103.1257
371.23        102.3099
371.68        101.7362
372.13        101.3605
372.58        101.0519
373.03         100.582
373.48        99.89014
373.93        99.04636
374.38        98.13211
374.83        97.30239
375.28        96.61704
375.72         95.9986
376.17        95.48447
376.62        95.04496
377.07        94.64477
377.52        94.28606
377.97        93.88138
378.42        93.29649
378.87        92.53278
379.32        91.65079
379.77         90.7824
380.22        90.10535
380.67        89.63773
381.11        89.32151
381.56        89.04898
382.01        88.66398
382.46        88.13461
382.91        87.52934
383.36        86.89891
383.81        86.31496
384.26         85.7992
384.71        85.31515
385.15        84.86602
385.60        84.52972
386.05        84.27534
386.50        84.08932
386.95        83.88139
387.40        83.51472
387.85        82.98331
388.29        82.29403
388.74        81.66193
389.19        81.17178
389.64        80.83279
390.09         80.5857
390.54        80.36961
390.98        80.07283
391.43        79.72269
391.88        79.36028
392.33        79.00083
392.78        78.67328
393.23        78.39031
393.67        78.05406
394.12        77.79753
394.57        77.72086
395.02        77.77336
395.47        77.72826
395.91         77.5424
396.36        77.30185
396.81        77.02583
397.26        76.66927
397.71        76.26865
398.15         75.9257
398.60        75.74992
399.05        75.50431
399.50        75.26513
399.95        75.45078
400.39        75.90511
400.84        75.85119
401.29        75.29218
401.74        74.79248
402.18        74.47304
402.63        74.22939
403.08        74.01604
403.53        73.68647
403.97        73.23503
404.42        72.82816
404.87        72.54406
405.32        72.39867
405.76        72.38028
406.21        72.59139
406.66        72.86619
407.11        72.71722
407.55        72.21978
408.00        71.93806
408.45        71.93627
408.90        71.78719
409.34        71.48843
409.79        71.32585
410.24        71.27266
410.68        71.17827
411.13        71.03239
411.58        70.87074
412.03        70.71478
412.47        70.62843
412.92        70.59989
413.37        70.61462
413.81        70.64254
414.26        70.70316
414.71        70.76806
415.15        70.84695
415.60        70.89127
416.05        70.88242
416.49        70.81625
416.94        70.69154
417.39        70.53303
417.83        70.36969
418.28        70.21735
418.73        70.07037
419.17        69.92645
419.62        69.79002
420.07        69.66214
420.51        69.53824
420.96        69.44755
421.41        69.37403
421.85        69.28551
422.30        69.24277
422.74        69.20522
423.19        69.17902
423.64        69.16506
424.08         69.2847
424.53        69.43092
424.98        69.49495
425.42        69.47649
425.87        69.28422
426.31        69.04545
426.76        69.21264
427.21        69.68313
427.65        69.75854
428.10         69.3991
428.54        69.21381
428.99        69.25681
429.44        69.14877
429.88        68.90607
430.33        68.86102
430.77        68.92399
431.22        68.98399
431.66         69.0177
432.11        69.09021
432.56        69.18141
433.00        69.22939
433.45        69.05294
433.89        68.78436
434.34        68.53174
434.78        68.40364
435.23        67.47231
435.67        68.95305
436.12        68.88971
436.57        69.13544
437.01        68.68356
437.46        68.46917
437.90        69.31012
438.35        68.68291
438.79        69.13342
439.24        68.98219
439.68        68.94896
440.13        68.86189
440.57        68.75092
441.02        68.91616
441.46        69.24191
441.91        69.12236
442.35        68.67078
442.80        69.04437
443.24        69.99471
443.69        70.04217
444.13        69.21417
444.58        68.82969
445.02        69.02828
445.47        68.81667
445.91        69.34709
446.36        69.41859
446.80        69.36068
447.24        69.26495
447.69        69.20159
448.13        69.33179
448.58        69.41368
449.02        69.36008
449.47        69.13461
449.91        68.99532
450.36        68.97628
450.80        68.84894
451.25        68.67257
451.69        68.68941
452.13         68.8507
452.58        68.80431
453.02        68.55296
453.47        68.40779
453.91          68.369
454.36        68.27233
454.80        68.10661
455.24        67.97643
455.69        67.91384
456.13        67.78793
456.58        67.63787
457.02        67.75101
457.46         67.7142
457.91          67.649
458.35        67.56084
458.79        67.46143
459.24        67.39742
459.68        67.31972
460.13        67.28219
460.57        67.09875
461.01           66.76
461.46        66.83802
461.90        66.76945
462.34        66.24239
462.79        66.46937
463.23        66.56534
463.68        66.81572
464.12        66.71657
464.56        66.31781
465.01        66.25677
465.45        66.39484
465.89        66.22163
466.34        65.84185
466.78        65.68185
467.22        65.77188
467.67        65.90273
468.11        65.89105
468.55         65.7493
468.99         65.4822
469.44        65.30636
469.88        65.24192
470.32        65.13171
470.77        64.95908
471.21        64.85104
471.65          64.825
472.10         64.7196
472.54        64.47917
472.98        64.79287
473.42        64.47429
473.87        64.46395
474.31        64.38771
474.75        64.44744
475.20        64.60865
475.64        64.44779
476.08        64.50865
476.52        64.44328
476.97        64.34511
477.41        64.51915
477.85        64.95273
478.29        64.15919
478.74        63.88071
479.18        64.17477
479.62        64.27278
480.06        64.45717
480.50        64.33914
480.95        64.40755
481.39        64.60793
481.83        64.41052
482.27          64.605
482.72        64.39089
483.16        64.28898
483.60        64.33218
484.04         64.5808
484.48         64.2871
484.93        64.16564
485.37        64.37861
485.81        64.61197
486.25        64.32058
486.69        65.78899
487.14        65.55073
487.58        64.85099
488.02        64.18748
488.46        63.94814
488.90        64.01395
489.34         64.1393
489.79         63.8519
490.23        63.97758
490.67        64.08266
491.11        64.34007
491.55        64.11961
491.99        63.55828
492.43        63.33567
492.88         63.5009
493.32         63.7464
493.76        63.91917
494.20        64.02182
494.64        64.04061
495.08        63.63296
495.52        63.40678
495.96        63.39856
496.41        63.66101
496.85        63.58144
497.29         63.1733
497.73        63.16635
498.17        63.22104
498.61        63.38432
499.05        63.46097
499.49        63.29809
499.93        63.01879
500.37        63.01838
500.82        63.26385
501.26        63.56481
501.70        63.79171
502.14        63.38493
502.58        62.99419
503.02         62.7912
503.46        62.92289
503.90        63.09987
504.34         63.2136
504.78        63.27647
505.22        63.27973
505.66        63.14028
506.10         62.8963
506.54        62.90254
506.98        63.23973
507.42        62.69058
507.86        63.27777
508.30        63.22875
508.74        63.22057
509.18        63.14236
509.62        63.05128
510.06        62.98994
510.50        62.93348
510.94         62.8172
511.38        62.65553
511.82        62.54629
512.26        62.49743
512.70        62.46191
513.14         62.4312
513.58        62.40873
514.02        62.38842
514.46        62.36766
514.90        62.33603
515.34        62.31318
515.78        62.30456
516.22        62.28252
516.66        62.09496
517.10        62.32541
517.54        62.11913
517.98        62.14253
518.42        62.14951
518.86        62.17379
519.30        62.21317
519.74        62.22522
520.18        62.22947
520.62        62.33405
521.06        62.49092
521.50        62.47015
521.93        62.29219
522.37        62.19089
522.81        62.18455
523.25        62.14524
523.69        62.06686
524.13        61.99656
524.57        61.93773
525.01         61.8844
525.45        61.84755
525.89        61.84188
526.32        61.86538
526.76        61.91446
527.20        61.97627
527.64        62.03307
528.08        62.07497
528.52        62.10637
528.96        62.11885
529.40        62.09354
529.83        62.03019
530.27        61.96639
530.71        61.90758
531.15        61.86053
531.59        61.83255
532.03        61.82792
532.46        61.83924
532.90        61.86731
533.34        61.90066
533.78        61.93471
534.22        61.95837
534.66         61.9554
535.09        61.91437
535.53        61.86324
535.97        61.79305
536.41        61.70781
536.85        61.61561
537.28        61.51965
537.72        61.44573
538.16          61.435
538.60        61.49035
539.04        61.59695
539.47         61.7023
539.91        61.77806
540.35        61.79572
540.79        61.77137
541.22        61.72269
541.66        61.69432
542.10        61.69363
542.54        61.70518
542.97        61.71701
543.41        61.74279
543.85        61.77498
544.29        61.82677
544.72        61.87022
545.16        61.90345
545.60        61.91196
546.04        61.85674
546.47        61.79234
546.91        61.87922
547.35        62.07733
547.79        62.22259
548.22        62.23956
548.66        62.10781
549.10        61.88552
549.53        61.75339
549.97        61.73195
550.41        61.65788
550.84        61.55749
551.28        61.51025
551.72        61.50587
552.15         61.5772
552.59         61.7534
553.03        61.53825
553.46        61.77767
553.90        61.73466
554.34        61.65423
554.77        61.51803
555.21        61.40399
555.65        61.39759
556.08        61.49243
556.52        61.70128
556.96        61.92691
557.39        61.98083
557.83        61.87922
558.27         61.7683
558.70        61.68113
559.14        61.60114
559.57        61.54728
560.01        61.54491
560.45         61.5566
560.88        61.65936
561.32        61.82769
561.75        61.63018
562.19        61.23937
562.63         61.3942
563.06        61.94801
563.50        61.97902
563.93        61.46652
564.37         61.2275
564.80        61.29223
565.24        61.46154
565.68          61.671
566.11        61.76669
566.55        61.73636
566.98        61.79454
567.42         61.9514
567.85        61.73199
568.29          61.535
568.72        61.56831
569.16        61.93571
569.60         61.9959
570.03         62.0255
570.47        62.13104
570.90        62.35682
571.34        62.11308
571.77        62.53713
572.21         62.1058
572.64        62.47524
573.08        62.21349
573.51        62.20797
573.95          62.638
574.38        62.59973
574.82        62.94712
