SpectraSmart Spectrum 2.9.0.0
--------- Device Information -----------
Spectrum Name :  反射率_0
Saving Time :  2024/04/21 00:33:21
Spectro-Module Model Name : SE2030-DUVN
Spectro-Module Serial Number : OS361AC55029948
Wavelength Start : 200
Wavelength End : 1025
Wavelength Unit : Wavelength(nm)
Spectrum Unit : Reflectance(%)
-----------Spectrum Setting ------------
Integration Time : 20ms
Average : 10
Boxcar : 0
Background removal :  enabled
linearity correction :  enabled
SC :  disabled
Intensity correction :  disabled
DWT denoise :  enabled
savitzky-golay :  disabled
FFT :  disabled
Running average :  disabled
Kalman :  disabled
High pass :  disabled
---------------BEGIN--------------------
Wavelength(nm)             Reflectance(%)
200.29               0
200.75       -17.91249
201.21       -5.269234
201.67       0.3144282
202.13        2.907424
202.58         3.99307
203.04        4.760285
203.50         6.06202
203.96        8.511745
204.42        11.41175
204.88        13.73906
205.34        14.31168
205.80        11.08727
206.26        3.516906
206.72       -6.745026
207.18       -19.90462
207.64       -35.06698
208.10        -47.5846
208.55       -56.89838
209.01       -48.87823
209.47       -15.09392
209.93        19.07867
210.39        43.43192
210.85         57.9275
211.31        64.03153
211.77        64.36257
212.23        59.57888
212.69        47.17433
213.14        24.77938
213.60       -13.98851
214.06       -120.8201
214.52        -352.726
214.98       -134.1311
215.44       -9.812662
215.90        31.31755
216.36        43.57771
216.81        40.74467
217.27        21.63186
217.73       -67.44378
218.19        998.7881
218.65        437.8289
219.11       -950.5878
219.57       -35.95186
220.02        23.07578
220.48        34.97409
220.94        32.49482
221.40        16.54757
221.86       -23.42754
222.32       -48.48385
222.77       -11.13526
223.23        20.53998
223.69        35.88768
224.15        40.03963
224.61        38.15295
225.06        33.35805
225.52        27.07582
225.98        21.24215
226.44        17.04745
226.90        13.08059
227.36        11.97954
227.81        17.62098
228.27        26.38515
228.73        34.74155
229.19         39.8564
229.65        40.19218
230.10        36.46567
230.56        29.93108
231.02        21.46613
231.48        15.15767
231.93        14.40175
232.39        17.94974
232.85        22.63094
233.31        25.55022
233.77        26.71703
234.22        27.43999
234.68        27.52008
235.14        26.49264
235.60          24.591
236.05        21.04042
236.51        16.50043
236.97        18.82598
237.43        29.12251
237.88        35.98277
238.34        34.54396
238.80        57.63974
239.26        45.35426
239.71        41.35477
240.17        29.82871
240.63        18.37129
241.08        12.54774
241.54        16.69877
242.00        29.55824
242.46        36.00183
242.91        31.46718
243.37         16.2622
243.83       -6.019823
244.28          -18.21
244.74         -9.9048
245.20        9.573526
245.66        28.26209
246.11        34.85057
246.57        28.31102
247.03        12.42058
247.48        -8.78646
247.94       -28.26037
248.40       -45.56439
248.85       -73.89009
249.31       -138.2525
249.77       -155.7398
250.22       -48.60181
250.68       -12.70785
251.14       -2.896233
251.59       -1.136908
252.05       -2.776444
252.51       -6.471975
252.96       -12.77701
253.42        -18.0749
253.88       -18.13336
254.33       -13.47652
254.79       -2.833659
255.25        12.17568
255.70        26.28713
256.16        37.02254
256.62        43.62066
257.07        45.91659
257.53        45.70506
257.99        44.29937
258.44        42.42425
258.90        41.19275
259.35        40.28296
259.81        39.65937
260.27        39.14536
260.72        38.66607
261.18        38.36539
261.63         38.0503
262.09        37.66129
262.55        36.85917
263.00        35.65092
263.46        34.33694
263.91        33.03644
264.37        32.21515
264.83        31.83505
265.28        31.68871
265.74        31.66629
266.19          31.512
266.65        31.19614
267.11        30.74825
267.56         30.1458
268.02        29.42236
268.47         28.5696
268.93        27.62831
269.38        26.62575
269.84        25.66156
270.30        24.77141
270.75        23.95468
271.21        23.26895
271.66        22.73559
272.12        22.35838
272.57        22.09738
273.03        21.88714
273.48        21.60982
273.94        21.25214
274.39        20.82991
274.85        20.38699
275.31        19.94307
275.76        19.51597
276.22        19.12243
276.67        18.79691
277.13        18.64014
277.58        18.61701
278.04        18.68887
278.49        18.73709
278.95        18.64487
279.40        18.36117
279.86        17.95906
280.31        17.46459
280.77         16.9765
281.22        16.51501
281.68        16.11719
282.13        15.77005
282.59        15.50848
283.04        15.31647
283.50        15.18849
283.95        15.15285
284.41        15.25792
284.86        15.48374
285.32        15.80966
285.77        16.09692
286.22        16.15022
286.68        15.97228
287.13        15.60263
287.59        15.26847
288.04        15.21777
288.50        15.46029
288.95        16.04266
289.41        16.80692
289.86        17.00198
290.32         16.4875
290.77        17.44976
291.22        16.46952
291.68        16.59221
292.13        16.83411
292.59        17.23429
293.04        17.74557
293.50        18.37443
293.95        19.12371
294.40        19.96726
294.86        20.88544
295.31        21.82826
295.77        22.78296
296.22        23.76017
296.68        24.76078
297.13        25.78675
297.58         26.8647
298.04        27.99784
298.49        29.25236
298.95        30.74897
299.40        32.46896
299.85        34.35843
300.31        36.27124
300.76         37.9691
301.21        39.41578
301.67         40.7175
302.12        41.98384
302.58        43.46767
303.03        45.21336
303.48        47.19266
303.94        49.34958
304.39        51.55147
304.84        53.74536
305.30        55.95474
305.75        58.14519
306.20        60.35955
306.66        62.58281
307.11        64.73774
307.57        66.77676
308.02        68.58064
308.47        70.16381
308.93        71.61695
309.38        72.98758
309.83        74.38021
310.29        75.91685
310.74        77.46311
311.19        79.01724
311.65        80.51946
312.10        81.92445
312.55        83.25363
313.00        84.46938
313.46        85.51518
313.91        86.37653
314.36        87.08172
314.82        87.71488
315.27        88.40785
315.72         89.2012
316.18        90.06255
316.63        90.93169
317.08        91.70694
317.53         92.3513
317.99        92.89015
318.44        93.34693
318.89        93.74618
319.35        94.10197
319.80        94.41288
320.25        94.68776
320.70        94.95033
321.16        95.20119
321.61        95.45834
322.06        95.72061
322.51        95.98694
322.97        96.24377
323.42         96.5276
323.87        96.81435
324.32        97.07983
324.78        97.30391
325.23        97.52735
325.68        97.76151
326.13        98.05775
326.59        98.39797
327.04        98.80511
327.49        99.22235
327.94        99.58846
328.39        99.88338
328.85        100.1022
329.30        100.3052
329.75        100.4696
330.20         100.611
330.66        100.6981
331.11        100.8502
331.56        101.1366
332.01        101.5758
332.46        102.1449
332.92        102.7138
333.37        103.1903
333.82        103.4897
334.27        103.6586
334.72        103.7838
335.17        104.0185
335.63        104.3816
336.08        104.8801
336.53         105.445
336.98        106.0071
337.43        106.5308
337.88        107.0348
338.34        107.4811
338.79        107.8594
339.24        108.1498
339.69        108.3652
340.14        108.5519
340.59        108.7913
341.05        109.1154
341.50        109.5209
341.95         109.994
342.40        110.5092
342.85        111.0453
343.30        111.5933
343.75        112.1338
344.20        112.6429
344.66        113.1114
345.11        113.5131
345.56        113.8274
346.01        114.0307
346.46        114.1316
346.91        114.1364
347.36        114.0855
347.81        114.0811
348.26        114.1584
348.72        114.1558
349.17        114.3368
349.62        114.4417
350.07        114.5509
350.52        114.6532
350.97        114.7635
351.42        114.9011
351.87        115.0462
352.32        115.1717
352.77        115.2134
353.22        115.0787
353.67        114.7592
354.13        114.3143
354.58        113.7797
355.03        113.2711
355.48        112.8282
355.93        112.4175
356.38        112.0552
356.83        111.7575
357.28        111.5028
357.73        111.2854
358.18         111.001
358.63        110.4819
359.08        109.7141
359.53        108.7628
359.98        107.7803
360.43        107.0012
360.88        106.4742
361.33        106.1217
361.78        105.8366
362.23        105.4447
362.68        104.8937
363.13        104.2445
363.58        103.5264
364.03        102.7825
364.48        102.0369
364.93        101.2673
365.38        100.5117
365.83        99.84261
366.28        99.26548
366.73        98.75714
367.18         98.2545
367.63        97.64996
368.08        96.92223
368.53        96.11684
368.98        95.26364
369.43        94.40005
369.88        93.54327
370.33        92.67564
370.78        91.84326
371.23        91.14215
371.68        90.59261
372.13        90.16893
372.58        89.78915
373.03        89.30445
373.48        88.67496
373.93        87.95071
374.38        87.17645
374.83        86.44208
375.28        85.79367
375.72         85.1862
376.17        84.67829
376.62        84.28632
377.07        83.98399
377.52        83.74753
377.97        83.48357
378.42        83.04772
378.87        82.42397
379.32        81.67358
379.77        80.89174
380.22        80.20197
380.67        79.62721
381.11        79.13564
381.56        78.68835
382.01        78.24266
382.46         77.7945
382.91        77.37051
383.36        76.97593
383.81        76.61016
384.26        76.26598
384.71        75.92742
385.15        75.57877
385.60        75.26576
386.05        74.96484
386.50        74.67112
386.95        74.35668
387.40        73.98712
387.85        73.57294
388.29        73.09212
388.74        72.68106
389.19        72.34042
389.64        72.06338
390.09        71.81867
390.54        71.58504
390.98        71.31864
391.43        71.05888
391.88        70.81724
392.33        70.57543
392.78        70.34464
393.23        70.13369
393.67        69.78742
394.12        69.45686
394.57        69.45824
395.02        69.66598
395.47        69.44285
395.91        68.84059
396.36        68.47147
396.81        68.39156
397.26         68.2766
397.71         68.0692
398.15        67.83506
398.60        67.65064
399.05        67.32874
399.50        66.99171
399.95        67.08911
400.39        67.50702
400.84        67.51694
401.29        67.10331
401.74        66.79484
402.18        66.64597
402.63        66.41788
403.08        66.10702
403.53        65.78832
403.97        65.47906
404.42        65.21721
404.87        65.03554
405.32        64.94984
405.76        64.93777
406.21         65.0534
406.66          65.202
407.11        65.08801
407.55           64.75
408.00        64.57037
408.45        64.56846
408.90        64.27795
409.34        63.79993
409.79        63.75015
410.24         64.0617
410.68        64.20011
411.13        64.13119
411.58        64.13044
412.03        64.19269
412.47        64.19908
412.92        64.12132
413.37        64.00061
413.81        63.86566
414.26        63.81521
414.71        63.84668
415.15        63.94914
415.60         64.0507
416.05          64.083
416.49        64.02878
416.94        63.90609
417.39        63.76188
417.83        63.66174
418.28        63.62314
418.73        63.61396
419.17        63.61697
419.62        63.61634
420.07        63.61003
420.51        63.61082
420.96        63.61572
421.41        63.60759
421.85        63.56451
422.30        63.41969
422.74        63.24112
423.19        63.45878
423.64        63.97509
424.08        64.24516
424.53        64.13702
424.98        64.11635
425.42         64.2128
425.87        63.92425
426.31        63.44826
426.76        63.66811
427.21        64.44204
427.65        64.64048
428.10        64.23512
428.54        64.14452
428.99         64.4028
429.44        64.53657
429.88        64.49724
430.33        64.36141
430.77        64.17525
431.22        64.33659
431.66        64.75214
432.11        64.98148
432.56        64.99843
433.00        64.89905
433.45        64.57888
433.89        64.52152
434.34        64.88717
434.78        64.10475
435.23        64.28723
435.67        65.15451
436.12        65.14394
436.57        65.27821
437.01        65.06358
437.46        64.84503
437.90        65.31656
438.35        65.48434
438.79        65.61598
439.24        65.69705
439.68        65.76193
440.13        65.78544
440.57        65.78523
441.02        65.89329
441.46        66.08171
441.91        66.16965
442.35        66.12225
442.80        66.44412
443.24        67.00697
443.69         67.1231
444.13        66.72791
444.58        66.80369
445.02        66.37767
445.47        66.43211
445.91        66.61305
446.36        66.71207
446.80        66.70166
447.24        66.70961
447.69        66.77657
448.13        67.04308
448.58        67.25947
449.02        67.26643
449.47        67.05622
449.91        66.98683
450.36        67.10013
450.80        67.11467
451.25         67.0648
451.69        67.17427
452.13         67.3894
452.58        67.37254
453.02         67.1404
453.47        67.01875
453.91        67.00984
454.36        66.94469
454.80        66.80775
455.24        66.66994
455.69        66.55141
456.13        66.41587
456.58        66.29623
457.02        66.26849
457.46        65.99237
457.91        66.12737
458.35        66.25496
458.79        66.29697
459.24        66.16749
459.68        66.04848
460.13        66.02844
460.57        65.85633
461.01        65.51728
461.46        65.90483
461.90        65.64297
462.34        65.45053
462.79        65.26411
463.23        65.41774
463.68         65.8418
464.12        65.60493
464.56         64.8769
465.01        64.89244
465.45        65.43374
465.89         65.4539
466.34        65.02209
466.78        64.76072
467.22        64.71787
467.67        64.94003
468.11        64.70774
468.55        64.70547
468.99        64.69592
469.44        64.64595
469.88        64.54404
470.32        64.37632
470.77        64.19307
471.21        64.07631
471.65        64.04577
472.10        64.08379
472.54        64.12261
472.98        64.10143
473.42        64.02338
473.87        63.83879
474.31        63.58208
474.75        63.63703
475.20        63.99736
475.64        63.76633
476.08        63.97838
476.52        63.91499
476.97        63.83496
477.41        63.77141
477.85        63.81855
478.29        63.45174
478.74        63.37185
479.18        63.97059
479.62        63.55204
480.06        63.58289
480.50        63.74358
480.95        63.73487
481.39        63.53496
481.83        63.74731
482.27        64.12376
482.72        63.44656
483.16        63.88671
483.60        64.05739
484.04        64.25739
484.48         63.8417
484.93        63.48382
485.37        63.97253
485.81         63.9596
486.25        63.67965
486.69        64.67621
487.14        64.13259
487.58        63.88003
488.02        63.23841
488.46         63.5883
488.90        63.62711
489.34        63.66562
489.79        63.02644
490.23        63.51036
490.67        63.58212
491.11        63.71392
491.55        63.67636
491.99        63.51149
492.43        63.45005
492.88        63.48818
493.32        63.51224
493.76        63.47206
494.20        63.47038
494.64        63.53468
495.08        63.30982
495.52        63.32104
495.96        63.42517
496.41        63.67022
496.85        63.56062
497.29        63.15216
497.73         63.2174
498.17         63.3645
498.61        63.48202
499.05        63.39256
499.49        63.00945
499.93        62.55487
500.37        62.71443
500.82         63.3651
501.26        63.71688
501.70        63.65915
502.14        63.17819
502.58        62.92852
503.02        62.73258
503.46        62.73809
503.90        62.83277
504.34        62.93966
504.78        63.04356
505.22        63.13526
505.66        63.13441
506.10        63.02745
506.54        63.07011
506.98        63.32376
507.42        62.63131
507.86        63.07769
508.30        62.82961
508.74        62.85614
509.18        62.80601
509.62        62.79657
510.06        62.83162
510.50         62.8687
510.94        62.84726
511.38        62.76179
511.82        62.68538
512.26        62.62253
512.70        62.53182
513.14        62.42694
513.58         62.3513
514.02        62.31372
514.46        62.30614
514.90        62.31152
515.34        62.33586
515.78        62.37634
516.22        62.40454
516.66        62.26823
517.10        62.54869
517.54        62.39091
517.98        62.45298
518.42        62.47318
518.86        62.46003
519.30        62.41317
519.74        62.30666
520.18         62.1912
520.62        62.22076
521.06        62.35994
521.50        62.36629
521.93        62.24869
522.37        62.21914
522.81        62.28337
523.25        62.31654
523.69         62.2979
524.13        62.25354
524.57        62.18488
525.01        62.09002
525.45        62.00249
525.89        61.97538
526.32         62.0176
526.76        62.11867
527.20        62.24685
527.64        62.35186
528.08        62.41547
528.52        62.45045
528.96        62.46655
529.40        62.47363
529.83        62.47345
530.27        62.48787
530.71        62.49736
531.15        62.47136
531.59        62.40865
532.03        62.32855
532.46        62.24193
532.90        62.17768
533.34         62.1388
533.78        62.11938
534.22        62.11096
534.66         62.0987
535.09        62.07054
535.53        62.05436
535.97        62.03823
536.41        62.02097
536.85        62.00289
537.28        61.97873
537.72        61.96421
538.16        61.98723
538.60        62.04687
539.04        62.13445
539.47        62.19669
539.91        62.20527
540.35         62.1381
540.79        62.01526
541.22        61.88052
541.66        61.81875
542.10         61.8439
542.54        61.92909
542.97        62.02819
543.41        62.09957
543.85        62.12493
544.29         62.1335
544.72        62.12313
545.16        62.14565
545.60        62.19505
546.04         62.1759
546.47        62.13031
546.91        62.26834
547.35        62.49886
547.79        62.53634
548.22        62.35093
548.66        62.03171
549.10        61.71556
549.53        61.72661
549.97        62.01792
550.41        62.11439
550.84        61.96925
551.28        61.91494
551.72        61.98751
552.15        61.97343
552.59        61.86067
553.03        62.16699
553.46        62.04275
553.90        62.05696
554.34        61.94134
554.77        61.94024
555.21        61.72796
555.65        61.75624
556.08        61.89738
556.52        62.12285
556.96        62.33661
557.39        62.32277
557.83        62.14202
558.27         62.1204
558.70        62.25788
559.14        62.22684
559.57        62.03516
560.01        62.07645
560.45        62.26191
560.88        62.11573
561.32         61.7661
561.75        61.63445
562.19        61.77803
562.63        61.98423
563.06        62.16055
563.50        62.19587
563.93         62.0812
564.37        61.97754
564.80        61.91819
565.24        61.99052
565.68        62.15778
566.11        62.22741
566.55        62.20372
566.98        62.25021
567.42        62.34805
567.85        62.24967
568.29        62.06847
568.72        62.03214
569.16        62.14774
569.60        62.42298
570.03        62.32572
570.47        62.43149
570.90        62.52962
571.34        62.66391
571.77        62.68563
572.21        62.72543
572.64        62.44303
573.08        62.38176
573.51        62.47789
573.95        62.85601
574.38        62.52358
574.82        62.96951
