SpectraSmart Spectrum 2.9.0.0
--------- Device Information -----------
Spectrum Name :  反射率_0
Saving Time :  2024/04/21 00:34:10
Spectro-Module Model Name : SE2030-DUVN
Spectro-Module Serial Number : OS361AC55029948
Wavelength Start : 200
Wavelength End : 1025
Wavelength Unit : Wavelength(nm)
Spectrum Unit : Reflectance(%)
-----------Spectrum Setting ------------
Integration Time : 20ms
Average : 10
Boxcar : 0
Background removal :  enabled
linearity correction :  enabled
SC :  disabled
Intensity correction :  disabled
DWT denoise :  enabled
savitzky-golay :  disabled
FFT :  disabled
Running average :  disabled
Kalman :  disabled
High pass :  disabled
---------------BEGIN--------------------
Wavelength(nm)             Reflectance(%)
200.29               0
200.75       -81.69055
201.21       -23.57529
201.67        7.535874
202.13         18.9155
202.58         18.9459
203.04          12.426
203.50         1.26562
203.96       -8.669863
204.42         -13.623
204.88       -16.29114
205.34        -17.0996
205.80       -17.22093
206.26       -16.74997
206.72       -11.10816
207.18       -4.850759
207.64       -10.62031
208.10       -31.03382
208.55       -63.12054
209.01        -78.9678
209.47       -48.36485
209.93       -4.282743
210.39        31.04552
210.85         52.8221
211.31        60.47797
211.77        57.02683
212.23        42.19725
212.69         10.6425
213.14       -39.63514
213.60        -109.903
214.06       -267.0155
214.52       -538.0079
214.98       -209.3692
215.44       -56.21844
215.90       -7.938775
216.36        5.746405
216.81        1.419197
217.27       -23.08873
217.73        -138.572
218.19        1224.458
218.65        480.9139
219.11       -1045.976
219.57       -49.65031
220.02        12.81865
220.48        23.50196
220.94        17.23172
221.40       -7.710189
221.86       -66.54379
222.32       -99.09378
222.77       -40.03244
223.23        8.101667
223.69        31.51594
224.15        38.84294
224.61        37.72985
225.06        32.46429
225.52         24.3511
225.98        15.01473
226.44        5.840218
226.90       -4.737062
227.36       -11.82382
227.81       -6.624576
228.27        6.214866
228.73        19.86764
229.19        28.95085
229.65        30.82781
230.10        26.74569
230.56        18.55337
231.02        7.650166
231.48     -0.01059554
231.93      0.07223553
232.39        5.655754
232.85        12.45734
233.31        16.82884
233.77         18.8645
234.22        20.25256
234.68         20.8719
235.14        20.25589
235.60        18.70086
236.05        15.39608
236.51        11.06388
236.97        14.09441
237.43        25.56273
237.88        33.32423
238.34        32.72854
238.80        57.55786
239.26        47.34789
239.71        46.35402
240.17        38.85583
240.63        30.37539
241.08         24.3567
241.54        23.56416
242.00        29.36093
242.46        32.88925
242.91        31.88547
243.37        27.72098
243.83        21.98407
244.28        20.00201
244.74        24.20559
245.20        30.41914
245.66        34.06529
246.11        30.82809
246.57        20.29385
247.03        4.308165
247.48        -16.0857
247.94       -39.76957
248.40       -72.18461
248.85        -144.216
249.31       -352.0729
249.77       -489.8125
250.22       -162.3016
250.68       -34.21981
251.14        5.338254
251.59          16.298
252.05        15.84317
252.51         8.18158
252.96       -7.057244
253.42       -22.82224
253.88       -29.79407
254.33       -28.11603
254.79        -17.4038
255.25       -1.025533
255.70        14.79787
256.16        27.45672
256.62        36.02964
257.07          40.233
257.53        41.81757
257.99         42.0904
258.44        41.68942
258.90        41.66897
259.35         41.7161
259.81        41.82928
260.27        41.89727
260.72        41.88063
261.18        41.95753
261.63        41.94527
262.09        41.76569
262.55        41.03431
263.00        39.78189
263.46        38.34416
263.91         36.9565
264.37        36.25744
264.83        36.18783
265.28        36.46881
265.74        36.80767
266.19        36.68277
266.65        36.07056
267.11        35.09741
267.56        33.96856
268.02         33.0723
268.47        32.44988
268.93        32.00784
269.38        31.54099
269.84        30.79286
270.30        29.71791
270.75        28.45057
271.21        27.20787
271.66        26.24991
272.12        25.66382
272.57        25.32975
273.03        25.15178
273.48         24.9642
273.94        24.72406
274.39        24.45784
274.85        24.16968
275.31        23.80506
275.76        23.36709
276.22        22.89135
276.67        22.44728
277.13        22.20476
277.58        22.14039
278.04         22.2039
278.49        22.25463
278.95        22.15591
279.40        21.84497
279.86        21.40638
280.31        20.87301
280.77        20.36154
281.22        19.88832
281.68        19.48823
282.13        19.12531
282.59        18.81019
283.04        18.52572
283.50        18.28725
283.95        18.14881
284.41         18.2037
284.86        18.43572
285.32        18.80569
285.77        19.15598
286.22        19.27018
286.68        19.13975
287.13        18.80628
287.59        18.48107
288.04         18.3856
288.50        18.53451
288.95         18.9752
289.41        19.58733
289.86        19.68698
290.32        19.14959
290.77        20.08262
291.22        19.14944
291.68        19.25337
292.13        19.43509
292.59        19.75212
293.04        20.19311
293.50        20.81867
293.95        21.64225
294.40         22.6189
294.86        23.69339
295.31         24.7615
295.77        25.79072
296.22        26.79598
296.68        27.80172
297.13        28.84718
297.58        29.96378
298.04        31.14037
298.49        32.40406
298.95         33.8162
299.40        35.35621
299.85        37.00521
300.31        38.67231
300.76        40.19975
301.21        41.56546
301.67        42.83538
302.12        44.08933
302.58        45.53988
303.03        47.20557
303.48        49.06969
303.94         51.0391
304.39        52.92369
304.84        54.68132
305.30        56.36976
305.75        58.04029
306.20        59.86499
306.66        61.85482
307.11        63.89271
307.57        65.86871
308.02        67.56698
308.47         68.9699
308.93        70.19262
309.38        71.30126
309.83        72.42611
310.29        73.70831
310.74        75.00243
311.19        76.30644
311.65        77.55956
312.10        78.72369
312.55        79.83076
313.00        80.86462
313.46        81.79801
313.91        82.61654
314.36        83.32858
314.82        83.98872
315.27        84.68481
315.72        85.44146
316.18        86.23898
316.63        87.01315
317.08        87.66103
317.53        88.15308
317.99         88.5134
318.44         88.8061
318.89        89.12058
319.35        89.48322
319.80        89.88094
320.25        90.25901
320.70        90.53377
321.16         90.6822
321.61        90.74769
322.06        90.80675
322.51        90.98678
322.97        91.29969
323.42        91.73483
323.87        92.17827
324.32        92.45686
324.78        92.51225
325.23        92.43417
325.68        92.31184
326.13        92.32071
326.59        92.48721
327.04        92.79935
327.49        93.16968
327.94        93.48196
328.39        93.69482
328.85        93.82518
329.30        93.94068
329.75        94.03312
330.20         94.1218
330.66        94.16734
331.11        94.26987
331.56        94.48304
332.01        94.82026
332.46        95.26054
332.92        95.70202
333.37        96.09023
333.82        96.35436
334.27         96.5358
334.72        96.68164
335.17        96.87421
335.63        97.12497
336.08        97.46659
336.53         97.8933
336.98         98.4374
337.43        99.08687
337.88        99.81889
338.34         100.545
338.79        101.1662
339.24        101.6213
339.69         101.934
340.14        102.1385
340.59        102.3059
341.05        102.4741
341.50        102.6411
341.95        102.8325
342.40        103.0899
342.85        103.4234
343.30        103.8337
343.75          104.28
344.20        104.6922
344.66        105.0532
345.11        105.3491
345.56        105.6136
346.01        105.9024
346.46        106.2245
346.91         106.558
347.36        106.8362
347.81        106.9825
348.26        106.9966
348.72        106.8436
349.17        106.7511
349.62        106.7798
350.07        106.9996
350.52        107.3407
350.97        107.6844
351.42        107.8344
351.87        107.7315
352.32        107.4404
352.77        107.0302
353.22        106.6039
353.67        106.2088
354.13        105.8431
354.58        105.4887
355.03        105.1708
355.48        104.8905
355.93        104.6406
356.38        104.4262
356.83        104.2472
357.28        104.0769
357.73         103.891
358.18        103.6108
358.63        103.1217
359.08        102.4179
359.53        101.5596
359.98        100.6443
360.43        99.81628
360.88        99.12153
361.33        98.52442
361.78        98.01247
362.23         97.5601
362.68         97.1409
363.13         96.7543
363.58        96.34363
364.03        95.81644
364.48        95.15215
364.93        94.37066
365.38         93.5239
365.83        92.70893
366.28        91.95834
366.73        91.24565
367.18        90.56263
367.63        89.89329
368.08        89.22775
368.53        88.58154
368.98        87.92073
369.43        87.17617
369.88        86.33569
370.33        85.41677
370.78        84.48408
371.23        83.66844
371.68        83.02007
372.13        82.51077
372.58        82.09766
373.03        81.69587
373.48        81.26547
373.93        80.82225
374.38        80.35865
374.83        79.87199
375.28        79.37062
375.72        78.83676
376.17        78.31079
376.62        77.79518
377.07        77.28189
377.52        76.75776
377.97        76.22258
378.42        75.69029
378.87        75.17645
379.32        74.69308
379.77        74.22099
380.22        73.71373
380.67        73.15632
381.11        72.56301
381.56        71.96804
382.01        71.45139
382.46        71.04639
382.91        70.73991
383.36         70.4846
383.81        70.20372
384.26        69.87261
384.71        69.50363
385.15        69.12856
385.60         68.8582
386.05        68.68226
386.50        68.57034
386.95        68.44109
387.40         68.1763
387.85         67.7711
388.29          67.241
388.74        66.76851
389.19        66.43301
389.64        66.24099
390.09        66.13236
390.54        66.05019
390.98         65.8916
391.43        65.67124
391.88        65.42461
392.33        65.14686
392.78        64.85247
393.23        64.55968
393.67        64.15746
394.12        63.79864
394.57        63.72006
395.02         63.8427
395.47        63.74736
395.91        63.41828
396.36        63.14895
396.81        62.96606
397.26        62.71707
397.71        62.39867
398.15        62.08443
398.60        61.84989
399.05        61.54028
399.50        61.27558
399.95        61.34337
400.39        61.66485
400.84        61.93923
401.29        62.00373
401.74        61.53282
402.18        60.69206
402.63        60.26016
403.08        60.26115
403.53        60.01837
403.97        59.54659
404.42        59.34446
404.87        59.37852
405.32        59.39171
405.76        59.35011
406.21        59.24948
406.66        59.11636
407.11          59.168
407.55        59.33043
408.00        59.17653
408.45        58.74308
408.90        58.32412
409.34        58.05118
409.79        58.08751
410.24        58.33342
410.68        58.40588
411.13        58.26811
411.58        58.15349
412.03         58.0929
412.47        58.03535
412.92        57.97363
413.37        57.93608
413.81         57.9096
414.26        57.91983
414.71        57.94991
415.15        58.00513
415.60        58.05049
416.05        58.07573
416.49        58.07503
416.94         58.0415
417.39        57.97965
417.83        57.89127
418.28        57.78376
418.73        57.65677
419.17        57.52456
419.62        57.42276
420.07        57.36222
420.51        57.33186
420.96        57.33736
421.41        57.35648
421.85         57.3596
422.30        57.34333
422.74        57.30021
423.19        57.40742
423.64        57.61102
424.08        57.69151
424.53        57.59274
424.98        57.57779
425.42        57.67484
425.87        57.60911
426.31        57.44217
426.76        57.59387
427.21        57.95986
427.65        57.90881
428.10        57.47112
428.54         57.2888
428.99         57.4243
429.44        57.49868
429.88        57.45827
430.33        57.52764
430.77        57.60731
431.22        57.53831
431.66        57.36755
432.11        57.46108
432.56        57.83184
433.00        57.89401
433.45        57.53576
433.89        57.49617
434.34          57.947
434.78        57.05833
435.23        56.54831
435.67        57.99381
436.12        58.12808
436.57        58.37805
437.01         57.7788
437.46        57.47899
437.90        58.13028
438.35        57.94688
438.79        58.08789
439.24        57.96979
439.68         57.9119
440.13        57.75177
440.57        57.56615
441.02        57.73391
441.46        58.14104
441.91        58.20773
442.35        57.96278
442.80        58.20003
443.24        58.77975
443.69        58.93204
444.13        58.63638
444.58        58.40934
445.02        58.32056
445.47        58.40973
445.91        58.60047
446.36        58.64842
446.80        58.52611
447.24        58.36302
447.69        58.21574
448.13        58.25769
448.58        58.29049
449.02        58.16235
449.47        57.88385
449.91         57.7977
450.36        57.92978
450.80        57.99793
451.25        57.99939
451.69         58.0985
452.13        58.23571
452.58        58.11771
453.02        57.78178
453.47         57.5533
453.91        57.45424
454.36        57.33361
454.80        57.18038
455.24        57.07731
455.69        57.03043
456.13        56.95965
456.58        56.90684
457.02        57.01929
457.46        56.88811
457.91        57.14711
458.35        56.70725
458.79        56.60192
459.24        56.57581
459.68        56.47747
460.13        56.31344
460.57        56.21261
461.01        56.23319
461.46        55.82293
461.90        55.87015
462.34        55.79877
462.79        55.64611
463.23        55.60306
463.68         55.9542
464.12        55.73389
464.56        55.19373
465.01        55.31363
465.45        55.87792
465.89        55.86697
466.34        55.36383
466.78        55.15438
467.22        55.25699
467.67        55.25241
468.11        54.88603
468.55        54.70987
468.99        54.65272
469.44        54.54516
469.88        54.38243
470.32        54.22967
470.77        54.10862
471.21        54.02217
471.65        53.97735
472.10        53.97705
472.54        53.97918
472.98        53.95718
473.42         53.9108
473.87        53.79077
474.31          53.626
474.75        53.70358
475.20        53.97204
475.64        53.92068
476.08         53.8171
476.52          53.712
476.97        53.67283
477.41        53.55159
477.85        53.35615
478.29        53.32931
478.74        52.93848
479.18        53.30679
479.62         53.2514
480.06        53.41433
480.50        53.51265
480.95        53.48206
481.39        53.25005
481.83        53.78978
482.27        53.67449
482.72        53.52448
483.16        53.62885
483.60        53.86574
484.04        53.72276
484.48        53.45562
484.93        53.51339
485.37        53.17478
485.81        53.34532
486.25        53.55495
486.69        55.70764
487.14        56.04174
487.58        54.62009
488.02        53.95164
488.46        53.47925
488.90        53.50529
489.34         53.0433
489.79        52.49239
490.23        53.05272
490.67        53.15691
491.11        53.18436
491.55        53.06089
491.99         52.8624
492.43        52.75877
492.88        52.76709
493.32         52.8064
493.76        52.79496
494.20        52.78411
494.64        52.79203
495.08        52.38116
495.52        52.28054
495.96        52.33414
496.41        52.63327
496.85        52.63306
497.29        52.31651
497.73        52.26095
498.17        52.19251
498.61        52.19786
499.05        52.15699
499.49        51.97152
499.93        51.75428
500.37        51.83521
500.82        52.16556
501.26        52.53031
501.70        52.74803
502.14         52.4917
502.58        51.84214
503.02        51.55152
503.46        51.61912
503.90        51.70494
504.34        51.73448
504.78        51.78946
505.22        51.84493
505.66        51.87697
506.10        51.90032
506.54        51.92146
506.98        51.93107
507.42        51.95028
507.86        52.00007
508.30        51.86424
508.74         51.8662
509.18        51.75322
509.62         51.6321
510.06         51.5445
510.50        51.48586
510.94        51.38083
511.38        51.24902
511.82        51.18314
512.26        51.18567
512.70        51.21533
513.14        51.23023
513.58        51.17934
514.02        51.05305
514.46        50.86479
514.90        50.66243
515.34        50.58073
515.78        50.64867
516.22        50.75898
516.66        50.71108
517.10        51.10413
517.54        50.81646
517.98        50.74417
518.42        50.61001
518.86         50.5203
519.30        50.49476
519.74         50.4804
520.18         50.4866
520.62        50.58103
521.06        50.71763
521.50        50.72013
521.93        50.59646
522.37        50.51803
522.81        50.49775
523.25        50.43383
523.69        50.33815
524.13        50.27802
524.57        50.26124
525.01        50.27367
525.45        50.30583
525.89        50.33967
526.32        50.36628
526.76        50.39302
527.20        50.42284
527.64        50.46317
528.08        50.51128
528.52        50.56093
528.96        50.59953
529.40        50.60321
529.83        50.56881
530.27        50.53307
530.71        50.49438
531.15        50.44809
531.59         50.4001
532.03        50.35404
532.46         50.3245
532.90        50.34539
533.34        50.41113
533.78        50.50772
534.22        50.59246
534.66        50.59951
535.09        50.51243
535.53        50.37437
535.97        50.21624
536.41        50.10108
536.85        50.05028
537.28        50.04674
537.72        50.08486
538.16        50.15428
538.60        50.24133
539.04        50.34515
539.47        50.43138
539.91        50.49047
540.35        50.50278
540.79         50.4727
541.22        50.41224
541.66        50.35747
542.10        50.31451
542.54        50.27571
542.97        50.23149
543.41        50.19003
543.85        50.14985
544.29         50.1299
544.72        50.11469
545.16        50.11319
545.60        50.11427
546.04         50.0778
546.47        50.05257
546.91        50.16851
547.35         50.3815
547.79        50.57783
548.22        50.67222
548.66        50.53326
549.10        50.25296
549.53        50.19272
549.97        50.34097
550.41        50.32965
550.84        50.15637
551.28        50.04733
551.72        50.02079
552.15          50.037
552.59        50.11788
553.03        50.07378
553.46        50.22567
553.90        50.26487
554.34        50.27905
554.77        50.24969
555.21        50.21651
555.65         50.2552
556.08        50.35158
556.52        50.42971
556.96        50.46009
557.39        50.50393
557.83        50.53944
558.27        50.42592
558.70        50.21716
559.14        50.09883
559.57        50.07957
560.01        50.16764
560.45        50.27384
560.88         50.1539
561.32        49.90521
561.75        49.79805
562.19        49.88042
562.63        50.02706
563.06        50.15804
563.50        50.12342
563.93        49.94001
564.37        49.83932
564.80        49.83992
565.24        49.91599
565.68        50.04636
566.11        50.14346
566.55        50.20569
566.98        50.35645
567.42        50.56516
567.85         50.5145
568.29        50.31674
568.72        50.39252
569.16        50.76191
569.60        50.88101
570.03        50.96198
570.47        51.08096
570.90        51.30832
571.34        51.29657
571.77         51.5391
572.21        51.62976
572.64        51.72433
573.08        51.32707
573.51        51.27618
573.95        51.63966
574.38        51.85757
574.82        52.20586
