SpectraSmart Spectrum 2.9.0.0
--------- Device Information -----------
Spectrum Name :  反射率_0
Saving Time :  2024/04/21 00:49:03
Spectro-Module Model Name : SE2030-DUVN
Spectro-Module Serial Number : OS361AC55029948
Wavelength Start : 200
Wavelength End : 1025
Wavelength Unit : Wavelength(nm)
Spectrum Unit : Reflectance(%)
-----------Spectrum Setting ------------
Integration Time : 20ms
Average : 10
Boxcar : 0
Background removal :  enabled
linearity correction :  enabled
SC :  disabled
Intensity correction :  disabled
DWT denoise :  enabled
savitzky-golay :  disabled
FFT :  disabled
Running average :  disabled
Kalman :  disabled
High pass :  disabled
---------------BEGIN--------------------
Wavelength(nm)             Reflectance(%)
200.29               0
200.75       -103.2635
201.21       -49.64907
201.67       -17.96011
202.13       -4.088696
202.58     -0.03329343
203.04      -0.6448737
203.50       -3.127493
203.96       -2.016545
204.42        3.770293
204.88        9.919295
205.34        14.59118
205.80        15.72014
206.26        12.61348
206.72        8.223547
207.18       -2.807525
207.64       -31.28489
208.10       -74.97135
208.55       -127.5595
209.01       -150.0473
209.47       -104.3502
209.93        -40.0197
210.39        11.53525
210.85         44.2595
211.31        58.47236
211.77        59.52427
212.23        49.18373
212.69        23.26291
213.14       -19.14119
213.60       -79.39101
214.06       -221.9025
214.52       -483.3462
214.98        -182.964
215.44       -36.37036
215.90        10.96896
216.36        24.82937
216.81        21.15845
217.27       -1.562392
217.73       -108.7639
218.19         1153.25
218.65        460.9512
219.11       -917.3362
219.57       -20.37258
220.02        35.33043
220.48        44.86125
220.94        38.96874
221.40        15.65954
221.86       -41.22537
222.32       -80.56467
222.77        -32.0961
223.23        11.86421
223.69        34.16737
224.15        41.23468
224.61         40.2514
225.06        35.57568
225.52        28.96554
225.98        22.76558
226.44        18.33122
226.90        13.89079
227.36        12.42075
227.81        18.46269
228.27        28.13706
228.73        37.52259
229.19         43.2618
229.65        43.54676
230.10        39.14053
230.56        31.16328
231.02        20.95858
231.48        14.31932
231.93        15.23248
232.39        21.44608
232.85        28.29472
233.31        31.82094
233.77        32.18599
234.22        31.06045
234.68        29.00845
235.14        27.05812
235.60        26.00525
236.05        24.76781
236.51        23.27715
236.97        27.24809
237.43        36.90023
237.88        42.45806
238.34        39.95529
238.80        60.72783
239.26        49.90709
239.71        47.89492
240.17        39.62114
240.63        29.67771
241.08        20.96785
241.54         16.9617
242.00        20.40147
242.46        22.85799
242.91        22.32736
243.37        20.75755
243.83        20.20947
244.28        25.26368
244.74        35.89029
245.20        46.71025
245.66        53.29996
246.11        52.28227
246.57        43.77538
247.03        29.25706
247.48         9.92866
247.94       -12.89807
248.40       -44.40997
248.85       -113.5222
249.31       -315.6427
249.77        -467.664
250.22       -155.9696
250.68       -28.24795
251.14        13.47509
251.59        27.95071
252.05        32.82775
252.51        32.97974
252.96        28.13546
253.42        20.11936
253.88          13.161
254.33        9.633441
254.79        12.52288
255.25        21.02264
255.70        30.73991
256.16        38.98185
256.62        45.40547
257.07        50.06642
257.53        53.55716
257.99        56.07449
258.44        56.92624
258.90        56.08553
259.35        53.65926
259.81        50.72853
260.27        48.04438
260.72        46.48969
261.18        46.18011
261.63        46.32918
262.09        46.50161
262.55        45.96207
263.00        44.67945
263.46        43.13232
263.91        41.55585
264.37        40.61047
264.83        40.25133
265.28         40.1829
265.74        40.17039
266.19        39.75365
266.65        38.92601
267.11        37.81221
267.56        36.57221
268.02        35.52076
268.47        34.69846
268.93        34.04543
269.38        33.43919
269.84        32.75421
270.30        31.94717
270.75        31.07217
271.21        30.23417
271.66        29.52493
272.12        28.98214
272.57        28.53695
273.03        28.12383
273.48        27.61835
273.94        27.02054
274.39        26.36058
274.85        25.71782
275.31         25.1451
275.76        24.66101
276.22        24.27247
276.67        23.97187
277.13        23.81474
277.58        23.74932
278.04        23.76077
278.49        23.74629
278.95         23.6295
279.40        23.35824
279.86        22.99533
280.31          22.545
280.77        22.09313
281.22        21.64261
281.68        21.23283
282.13        20.84986
282.59        20.54048
283.04        20.28514
283.50        20.08817
283.95        19.95316
284.41        19.90294
284.86        19.92161
285.32        20.01228
285.77        20.09052
286.22        20.04501
286.68        19.88845
287.13        19.62828
287.59        19.42722
288.04        19.42946
288.50        19.62699
288.95        20.08504
289.41        20.70298
289.86         20.8314
290.32        20.35478
290.77        21.33428
291.22         20.4732
291.68        20.61614
292.13        20.81633
292.59        21.13757
293.04        21.58036
293.50        22.22316
293.95        23.07972
294.40         24.0949
294.86        25.20213
295.31        26.27865
295.77        27.29023
296.22         28.2666
296.68        29.23337
297.13        30.22852
297.58        31.29301
298.04        32.42056
298.49        33.67432
298.95        35.16994
299.40        36.89254
299.85          38.805
300.31        40.76015
300.76        42.51252
301.21        44.01867
301.67        45.36276
302.12        46.67335
302.58        48.24529
303.03        50.10818
303.48        52.21684
303.94        54.42048
304.39        56.43915
304.84        58.21694
305.30        59.84895
305.75        61.44662
306.20        63.27345
306.66        65.36362
307.11        67.57106
307.57        69.74203
308.02        71.58979
308.47         73.0835
308.93        74.35882
309.38        75.51929
309.83        76.76339
310.29        78.22758
310.74        79.74807
311.19        81.26881
311.65        82.65624
312.10        83.85123
312.55        84.90479
313.00        85.84596
313.46        86.71835
313.91        87.53056
314.36        88.28327
314.82         88.9882
315.27        89.66274
315.72        90.32323
316.18        90.97143
316.63        91.62273
317.08        92.29827
317.53          92.987
317.99        93.66972
318.44        94.29173
318.89        94.75442
319.35        95.04055
319.80        95.19122
320.25         95.2739
320.70        95.40637
321.16        95.61974
321.61        95.90216
322.06        96.22562
322.51        96.54733
322.97        96.83685
323.42        97.14499
323.87        97.45134
324.32        97.73435
324.78         97.9754
325.23        98.21062
325.68        98.44997
326.13        98.74622
326.59        99.08488
327.04        99.49406
327.49        99.92336
327.94        100.3213
328.39         100.667
328.85        100.9432
329.30        101.2071
329.75        101.4313
330.20        101.6215
330.66        101.7431
331.11        101.8848
331.56        102.0658
332.01        102.3002
332.46        102.5843
332.92        102.8466
333.37        103.0948
333.82        103.2799
334.27        103.4348
334.72        103.6074
335.17        103.8758
335.63         104.235
336.08        104.7121
336.53        105.2664
336.98        105.8766
337.43        106.5144
337.88        107.1698
338.34        107.7674
338.79        108.2415
339.24        108.5547
339.69        108.7368
340.14        108.8531
340.59        109.0172
341.05        109.2703
341.50        109.5934
341.95        109.9797
342.40        110.4151
342.85        110.8798
343.30        111.3746
343.75        111.8451
344.20        112.2064
344.66        112.4482
345.11        112.5688
345.56         112.629
346.01        112.7312
346.46        112.9047
346.91        113.1127
347.36        113.2988
347.81        113.4166
348.26        113.4599
348.72        113.3079
349.17        113.2787
349.62        113.2435
350.07        113.3044
350.52        113.4183
350.97        113.5256
351.42        113.5275
351.87        113.3921
352.32         113.151
352.77        112.8468
353.22        112.5401
353.67        112.2536
354.13         111.992
354.58        111.7054
355.03        111.3709
355.48        110.9832
355.93        110.5449
356.38        110.1096
356.83        109.7538
357.28        109.4715
357.73        109.2266
358.18        108.9029
358.63        108.3206
359.08        107.4622
359.53        106.4094
359.98        105.3075
360.43        104.3738
360.88        103.6596
361.33        103.0926
361.78        102.6027
362.23        102.0732
362.68        101.4629
363.13        100.8185
363.58        100.1178
364.03        99.32138
364.48        98.43523
364.93        97.45919
365.38        96.49001
365.83        95.69598
366.28        95.10305
366.73        94.65604
367.18        94.22894
367.63        93.61504
368.08        92.77067
368.53        91.77642
368.98        90.71772
369.43        89.71589
369.88        88.81059
370.33        87.95965
370.78        87.17451
371.23        86.49097
371.68        85.91439
372.13        85.44494
372.58        85.02529
373.03        84.54517
373.48        83.96854
373.93        83.31359
374.38        82.61759
374.83         81.9613
375.28        81.37875
375.72         80.8365
376.17        80.34305
376.62        79.84357
377.07        79.31405
377.52        78.75709
377.97        78.19067
378.42        77.65765
378.87        77.17994
379.32        76.75483
379.77         76.3406
380.22         75.8644
380.67        75.30305
381.11        74.67204
381.56        74.02755
382.01        73.48718
382.46        73.09082
382.91        72.81756
383.36        72.57584
383.81        72.21998
384.26        71.72148
384.71        71.12391
385.15        70.53038
385.60        70.16016
386.05        70.02469
386.50        70.05512
386.95          70.104
387.40          69.949
387.85        69.54897
388.29        68.94227
388.74        68.35495
389.19        67.91602
389.64        67.65069
390.09        67.50222
390.54        67.37057
390.98        67.08652
391.43        66.65929
391.88        66.14679
392.33        65.66515
392.78        65.34566
393.23        65.19926
393.67        65.20712
394.12        65.31832
394.57        65.13641
395.02        64.70384
395.47        64.47405
395.91        64.44779
396.36        64.23312
396.81        63.85389
397.26        63.57163
397.71        63.39613
398.15        63.21666
398.60        63.09972
399.05        62.94481
399.50         62.8065
399.95        62.89506
400.39        63.13511
400.84        63.17882
401.29        62.97078
401.74        62.55281
402.18        62.04251
402.63        61.74207
403.08        61.66145
403.53        61.47584
403.97        61.19106
404.42        61.08243
404.87        61.10019
405.32        61.07316
405.76        60.97606
406.21        60.77971
406.66        60.55457
407.11        60.59871
407.55        60.85099
408.00        60.84777
408.45        60.57784
408.90        60.27698
409.34        60.03846
409.79        59.99848
410.24        60.10905
410.68        60.11388
411.13        60.00033
411.58        59.94868
412.03        59.97183
412.47        60.00121
412.92          60.012
413.37        60.03712
413.81        60.06387
414.26        60.12019
414.71        60.18967
415.15        60.27449
415.60        60.33326
416.05        60.35047
416.49         60.3212
416.94        60.24541
417.39         60.1431
417.83        60.03243
418.28        59.93176
418.73        59.84997
419.17        59.78364
419.62        59.73538
420.07        59.69794
420.51        59.65491
420.96        59.66275
421.41        59.72183
421.85        59.79588
422.30        60.02506
422.74        60.27496
423.19        60.19811
423.64        59.87473
424.08        59.94213
424.53        60.33978
424.98        60.52451
425.42        60.48138
425.87        60.49834
426.31        60.61522
426.76        60.79707
427.21        61.01599
427.65        61.16222
428.10        61.18778
428.54        61.19517
428.99        61.22126
429.44        61.21503
429.88        61.15509
430.33        61.06902
430.77         60.9396
431.22        60.94586
431.66        61.06699
432.11        61.18414
432.56        61.32635
433.00        61.48901
433.45        61.45514
433.89         61.4739
434.34        61.69193
434.78        60.67402
435.23        60.74172
435.67        61.53001
436.12        62.00763
436.57        62.32291
437.01        62.05246
437.46        61.94464
437.90        62.69237
438.35        62.33254
438.79        62.56466
439.24        62.42985
439.68        62.41371
440.13        62.31355
440.57        62.18464
441.02         62.4202
441.46        62.86797
441.91        62.84257
442.35        62.43927
442.80        62.67002
443.24        63.39836
443.69          63.689
444.13         63.4473
444.58        63.36391
445.02        63.16787
445.47        63.19354
445.91        63.30285
446.36        63.30921
446.80        63.20035
447.24        63.09176
447.69         63.0385
448.13        63.21264
448.58        63.38279
449.02        63.38799
449.47         63.2016
449.91        63.12532
450.36        63.18681
450.80        63.13201
451.25        62.99495
451.69        62.98614
452.13        63.06571
452.58         62.9281
453.02        62.61005
453.47        62.44652
453.91        62.44678
454.36        62.43889
454.80        62.40802
455.24        62.42322
455.69         62.4928
456.13        62.54591
456.58        62.56201
457.02        62.62307
457.46        62.39851
457.91        62.26988
458.35        62.26482
458.79        62.21765
459.24        62.16354
459.68        62.20898
460.13        62.39402
460.57        62.33427
461.01        61.97359
461.46        62.45201
461.90        62.16992
462.34        61.74535
462.79        61.77925
463.23        61.75374
463.68        62.08845
464.12         61.8462
464.56        61.26352
465.01         61.4089
465.45        62.06701
465.89        62.18501
466.34        61.79352
466.78        61.66727
467.22        61.84724
467.67        61.59464
468.11        61.32603
468.55        61.15434
468.99         61.1879
469.44        61.13713
469.88        60.99738
470.32        60.89656
470.77        60.85542
471.21        60.85299
471.65        60.89001
472.10         60.9758
472.54        61.04421
472.98        61.04133
473.42        60.96344
473.87        60.76254
474.31        60.50706
474.75        60.56242
475.20         60.8216
475.64        60.85809
476.08        60.70184
476.52        60.54219
476.97        60.31406
477.41        60.90584
477.85        60.40932
478.29        60.39552
478.74        60.25272
479.18        60.31591
479.62        60.55243
480.06        60.61627
480.50        60.48531
480.95        60.52534
481.39        60.77896
481.83        60.40513
482.27        60.60283
482.72        60.96156
483.16         60.7462
483.60        60.89421
484.04         61.1082
484.48        60.81846
484.93        60.69559
485.37         60.5707
485.81        60.68659
486.25        60.37622
486.69        61.72564
487.14        61.98601
487.58        61.43294
488.02         60.6057
488.46        60.18694
488.90        59.93282
489.34         60.2901
489.79        59.91553
490.23        60.11342
490.67         60.2624
491.11        60.62805
491.55        60.54476
491.99        60.10962
492.43        59.94589
492.88        60.08845
493.32        60.24997
493.76        60.31158
494.20        60.33985
494.64        60.34301
495.08         59.9268
495.52        59.74065
495.96         59.7941
496.41        60.13707
496.85        60.08759
497.29        59.66604
497.73        59.67407
498.17        59.77971
498.61        59.92224
499.05        59.91973
499.49        59.69382
499.93        59.37708
500.37         59.3589
500.82        59.59988
501.26         59.8479
501.70        59.98481
502.14        59.58769
502.58        59.27965
503.02        59.04343
503.46        59.23994
503.90        59.44764
504.34        59.60673
504.78          59.688
505.22        59.68025
505.66        59.46453
506.10        59.12802
506.54        59.17021
506.98        59.61203
507.42        59.09847
507.86        59.58767
508.30          59.245
508.74        59.52248
509.18        59.49858
509.62        59.44875
510.06         59.4463
510.50        59.46349
510.94        59.41167
511.38        59.28587
511.82        59.17439
512.26        59.08358
512.70        58.97776
513.14        58.86794
513.58        58.78524
514.02         58.7366
514.46        58.71866
514.90        58.71331
515.34         58.7305
515.78         58.7694
516.22        58.78609
516.66        58.63964
517.10        58.96066
517.54        58.81883
517.98        58.93206
518.42        59.00327
518.86        59.02204
519.30        58.98265
519.74        58.86708
520.18        58.74089
520.62        58.77477
521.06           58.94
521.50        58.99764
521.93        58.93753
522.37        58.93054
522.81        58.97504
523.25        58.96397
523.69        58.89157
524.13        58.80345
524.57        58.70837
525.01        58.59904
525.45        58.50414
525.89         58.4694
526.32        58.49997
526.76        58.58599
527.20        58.69649
527.64        58.78193
528.08        58.82368
528.52        58.83456
528.96         58.8201
529.40        58.78352
529.83        58.73038
530.27        58.68994
530.71        58.65571
531.15        58.61703
531.59        58.57681
532.03         58.5435
532.46        58.52607
532.90        58.54936
533.34        58.60628
533.78        58.68508
534.22        58.75134
534.66        58.75308
535.09        58.67463
535.53        58.55584
535.97        58.41801
536.41        58.31156
536.85        58.25369
537.28        58.23092
537.72        58.24059
538.16        58.27763
538.60        58.33218
539.04        58.40462
539.47        58.46094
539.91        58.49776
540.35        58.49533
540.79        58.46099
541.22        58.40954
541.66         58.3786
542.10         58.3762
542.54         58.3973
542.97        58.42216
543.41        58.44878
543.85        58.46018
544.29         58.4634
544.72        58.46336
545.16        58.46868
545.60        58.46457
546.04        58.52882
546.47        58.63736
546.91        58.54058
547.35        58.36488
547.79         58.5078
548.22        58.87099
548.66        58.95689
549.10        58.76047
549.53        58.57697
549.97        58.47448
550.41        58.40849
550.84        58.40875
551.28        58.46441
551.72        58.55098
552.15        58.66231
552.59        58.80189
553.03        58.63079
553.46        58.99854
553.90        58.57104
554.34        58.71802
554.77        58.52191
555.21        58.38187
555.65        58.35182
556.08        58.43662
556.52        58.59813
556.96        58.76143
557.39        58.89949
557.83        58.97259
558.27        58.88429
558.70        58.68876
559.14        58.55327
559.57        58.52013
560.01        58.62706
560.45        58.78435
560.88        58.82597
561.32        58.78248
561.75        58.60355
562.19        58.41307
562.63        58.56009
563.06        58.91314
563.50        58.82681
563.93         58.3554
564.37         58.1136
564.80        58.15508
565.24        58.34818
565.68        58.60707
566.11        58.76322
566.55        58.80373
566.98        58.83477
567.42         58.8769
567.85         58.8843
568.29        58.92735
568.72        58.93116
569.16         58.9034
569.60        59.27202
570.03        59.05157
570.47        59.15737
570.90        59.28578
571.34        59.09226
571.77        59.70443
572.21        59.30699
572.64        59.39117
573.08        59.44823
573.51        59.38065
573.95        59.87608
574.38        59.79773
574.82        60.21483
