SpectraSmart Spectrum 2.9.0.0
--------- Device Information -----------
Spectrum Name :  反射率_0
Saving Time :  2024/04/21 00:05:52
Spectro-Module Model Name : SE2030-DUVN
Spectro-Module Serial Number : OS361AC55029948
Wavelength Start : 200
Wavelength End : 1025
Wavelength Unit : Wavelength(nm)
Spectrum Unit : Reflectance(%)
-----------Spectrum Setting ------------
Integration Time : 20ms
Average : 10
Boxcar : 0
Background removal :  enabled
linearity correction :  enabled
SC :  disabled
Intensity correction :  disabled
DWT denoise :  enabled
savitzky-golay :  disabled
FFT :  disabled
Running average :  disabled
Kalman :  disabled
High pass :  disabled
---------------BEGIN--------------------
Wavelength(nm)             Reflectance(%)
200.29               0
200.75       -58.11227
201.21       -19.14103
201.67        3.589551
202.13        14.94508
202.58        20.53657
203.04        24.89064
203.50        27.68871
203.96        26.34353
204.42        20.13119
204.88        8.903676
205.34       -2.215632
205.80       -6.587227
206.26       -2.349518
206.72        13.51093
207.18        32.74818
207.64        32.40294
208.10        4.119209
208.55       -44.30519
209.01       -79.40997
209.47       -59.58506
209.93       -17.37024
210.39        18.65873
210.85        41.90779
211.31        51.34567
211.77        50.30692
212.23        40.30534
212.69        16.24265
213.14       -28.93621
213.60        -108.319
214.06       -327.6881
214.52       -793.9183
214.98       -330.3741
215.44        -74.8726
215.90        7.279055
216.36        34.33735
216.81        38.92675
217.27        27.28153
217.73       -40.81484
218.19        798.5454
218.65        358.9753
219.11       -747.9279
219.57       -18.24377
220.02        27.92329
220.48        34.65702
220.94        27.09102
221.40        2.336229
221.86        -55.2178
222.32        -90.4193
222.77         -36.555
223.23        9.574062
223.69        32.49624
224.15        39.81287
224.61        38.98512
225.06        34.17973
225.52        27.29212
225.98        20.95411
226.44        16.56857
226.90        12.38657
227.36        10.92143
227.81        16.03373
228.27         24.2658
228.73        32.31714
229.19        37.15037
229.65        36.91482
230.10        32.22757
230.56        24.29765
231.02        14.24033
231.48         7.15379
231.93        7.039902
232.39        12.15794
232.85        18.48066
233.31        22.51779
233.77        24.36165
234.22        25.50455
234.68        26.03079
235.14        25.93694
235.60        25.55459
236.05        24.01832
236.51        21.55547
236.97        24.70467
237.43        34.16105
237.88        39.58387
238.34        36.66115
238.80         58.4014
239.26        46.74892
239.71        44.54075
240.17        36.08924
240.63        26.90246
241.08        20.43071
241.54         20.0114
242.00         26.5834
242.46        29.61902
242.91        26.15373
243.37        17.29865
243.83         4.84921
244.28       -2.614369
244.74       0.3940771
245.20        8.192351
245.66        15.67281
246.11        18.58333
246.57        16.09951
247.03        10.09087
247.48      0.05117339
247.94       -15.70565
248.40       -43.62955
248.85        -114.468
249.31        -341.842
249.77       -561.4259
250.22       -226.3784
250.68       -75.85275
251.14       -24.00532
251.59       -5.655749
252.05       0.4394716
252.51        1.737776
252.96       -1.952237
253.42       -9.215338
253.88       -16.07351
254.33        -20.4099
254.79       -16.95815
255.25       -4.785881
255.70        9.851423
256.16        22.56752
256.62        31.80596
257.07        36.99076
257.53        39.58853
257.99        40.80175
258.44         41.1871
258.90        41.68061
259.35        41.99969
259.81        42.28054
260.27        42.29217
260.72        41.88131
261.18        41.37859
261.63        40.73878
262.09        40.16147
262.55        39.54209
263.00        38.82929
263.46         38.1768
263.91        37.52717
264.37        37.13779
264.83        36.92109
265.28        36.75365
265.74        36.59294
266.19        36.23134
266.65        35.68899
267.11        35.00063
267.56        34.16713
268.02        33.27003
268.47        32.31413
268.93        31.32517
269.38        30.36251
269.84        29.57239
270.30        28.96373
270.75        28.49589
271.21         28.0913
271.66        27.56186
272.12        26.89389
272.57        26.13651
273.03         25.3734
273.48        24.70071
273.94         24.1607
274.39        23.68817
274.85        23.29061
275.31        22.92537
275.76        22.56702
276.22        22.25312
276.67        21.94493
277.13        21.64237
277.58        21.31512
278.04        20.97866
278.49        20.62366
278.95        20.29964
279.40        19.97815
279.86        19.67293
280.31        19.33155
280.77         18.9432
281.22        18.48978
281.68        18.03929
282.13        17.59767
282.59        17.22959
283.04        16.93065
283.50        16.69283
283.95        16.53049
284.41        16.48209
284.86        16.52847
285.32        16.65022
285.77        16.75395
286.22        16.70852
286.68        16.51508
287.13         16.1914
287.59        15.87286
288.04        15.66598
288.50        15.57131
288.95        15.69703
289.41        16.00957
289.86        15.93408
290.32        15.35722
290.77        16.42368
291.22        15.57156
291.68        15.73708
292.13        15.87576
292.59        16.05979
293.04        16.27209
293.50        16.56923
293.95        16.97189
294.40        17.43343
294.86        17.91337
295.31        18.34013
295.77        18.69989
296.22        19.01663
296.68         19.3315
297.13        19.70167
297.58        20.15512
298.04         20.6782
298.49         21.2744
298.95          21.964
299.40        22.72743
299.85        23.56094
300.31        24.40664
300.76        25.16969
301.21        25.83825
301.67        26.45875
302.12        27.08873
302.58        27.87659
303.03        28.83988
303.48        29.97541
303.94        31.22456
304.39         32.4679
304.84        33.68273
305.30        34.91497
305.75          36.206
306.20        37.67958
306.66        39.33647
307.11        41.09816
307.57        42.88186
308.02        44.54596
308.47        46.06809
308.93        47.54247
309.38        48.99596
309.83        50.43537
310.29         52.0491
310.74        53.66895
311.19        55.34539
311.65        57.07488
312.10         58.8351
312.55        60.62483
313.00        62.40482
313.46        64.11182
313.91        65.71179
314.36        67.21494
314.82        68.65107
315.27        70.08469
315.72        71.53342
316.18         72.9714
316.63        74.37178
317.08        75.69375
317.53         76.9145
317.99        78.04401
318.44         79.0675
318.89        79.95097
319.35        80.69979
319.80        81.33222
320.25        81.90807
320.70        82.52957
321.16        83.21174
321.61        83.94128
322.06        84.66024
322.51        85.27718
322.97        85.75772
323.42        86.16367
323.87        86.51288
324.32         86.8495
324.78         87.1788
325.23        87.51926
325.68         87.8721
326.13        88.26692
326.59        88.68484
327.04        89.16524
327.49        89.65351
327.94        90.08309
328.39        90.43473
328.85        90.69704
329.30        90.95272
329.75         91.2323
330.20        91.55369
330.66        91.87213
331.11        92.22807
331.56        92.57085
332.01         92.8939
332.46        93.21194
332.92        93.49311
333.37        93.80335
333.82        94.11362
334.27        94.42909
334.72        94.76896
335.17        95.16573
335.63        95.60009
336.08        96.11242
336.53        96.66446
336.98        97.23386
337.43         97.8018
337.88        98.36088
338.34         98.8714
338.79        99.32144
339.24        99.68684
339.69        99.98201
340.14        100.2313
340.59        100.4809
341.05        100.7551
341.50        101.0538
341.95        101.3955
342.40        101.8069
342.85         102.286
343.30        102.8256
343.75        103.3657
344.20        103.8142
344.66        104.1547
345.11         104.384
345.56        104.5688
346.01        104.8174
346.46        105.1509
346.91         105.533
347.36        105.8753
347.81        106.0624
348.26        106.0819
348.72        105.9242
349.17        105.8001
349.62        105.7884
350.07        105.9627
350.52        106.2598
350.97        106.5759
351.42        106.7402
351.87        106.6981
352.32        106.4997
352.77        106.2128
353.22         105.938
353.67        105.7115
354.13        105.5271
354.58        105.3241
355.03        105.0617
355.48         104.733
355.93        104.3523
356.38        103.9892
356.83        103.7435
357.28         103.612
357.73        103.5459
358.18        103.4135
358.63        103.0092
359.08        102.3053
359.53        101.3934
359.98        100.4156
360.43        99.58521
360.88        98.96113
361.33        98.47352
361.78        98.07809
362.23        97.70298
362.68        97.30486
363.13        96.90233
363.58        96.43973
364.03        95.82262
364.48        95.04475
364.93        94.13838
365.38        93.18922
365.83         92.3491
366.28         91.6609
366.73        91.07565
367.18        90.56875
367.63        90.09224
368.08        89.61723
368.53        89.16796
368.98        88.66973
369.43        87.99564
369.88        87.12827
370.33        86.08957
370.78        85.02998
371.23        84.23135
371.68        83.77277
372.13        83.58345
372.58         83.4905
373.03        83.20124
373.48        82.63893
373.93        81.89455
374.38         81.0966
374.83        80.46511
375.28        80.06665
375.72        79.80234
376.17        79.61782
376.62        79.38103
377.07        79.03938
377.52        78.61716
377.97        78.12878
378.42         77.6077
378.87         77.0844
379.32        76.56702
379.77        76.04276
380.22         75.4796
380.67        74.87247
381.11        74.23956
381.56        73.64188
382.01        73.19844
382.46        72.93752
382.91        72.81989
383.36        72.74248
383.81        72.54501
384.26        72.18639
384.71        71.71063
385.15        71.18107
385.60        70.76128
386.05        70.46623
386.50        70.25412
386.95         70.0703
387.40        69.83637
387.85        69.54181
388.29         69.1823
388.74        68.88607
389.19        68.64977
389.64        68.47206
390.09        68.32444
390.54          68.187
390.98        68.02006
391.43        67.85204
391.88        67.68471
392.33        67.51308
392.78        67.33699
393.23        67.16146
393.67        66.92737
394.12        66.73219
394.57        66.62308
395.02        66.56543
395.47         66.3996
395.91        66.15014
396.36        65.95873
396.81        65.86067
397.26        65.81229
397.71        65.73923
398.15         65.5724
398.60        65.37809
399.05        64.97816
399.50        64.56993
399.95        64.70156
400.39        65.24327
400.84        65.51325
401.29        65.37446
401.74         64.8603
402.18        64.16981
402.63        63.91871
403.08        64.08708
403.53        63.97043
403.97        63.55631
404.42        63.36371
404.87        63.39592
405.32        63.40999
405.76        63.37547
406.21        63.37738
406.66        63.39102
407.11        63.32785
407.55        63.20112
408.00         63.1321
408.45        63.11328
408.90        62.82434
409.34        62.38211
409.79        62.37474
410.24        62.72251
410.68        62.85236
411.13        62.73297
411.58        62.67934
412.03        62.71671
412.47        62.75135
412.92        62.76511
413.37        62.79572
413.81        62.83024
414.26        62.90445
414.71        63.00386
415.15        63.12774
415.60        63.24345
416.05        63.35091
416.49        63.44118
416.94        63.50262
417.39        63.52351
417.83         63.4817
418.28        63.38366
418.73        63.23805
419.17         63.0806
419.62        62.98036
420.07        62.95868
420.51        62.99673
420.96        63.08772
421.41        63.18104
421.85        63.23708
422.30        63.27157
422.74        63.28697
423.19         63.4646
423.64        63.76595
424.08        64.01749
424.53        64.11842
424.98        64.22784
425.42        64.36093
425.87        64.27237
426.31        64.07029
426.76        64.28838
427.21        64.84083
427.65        64.95648
428.10        64.59937
428.54        64.70595
428.99        64.76571
429.44        64.89319
429.88        64.87373
430.33        64.86334
430.77        64.83489
431.22        64.86378
431.66        64.96044
432.11        65.27679
432.56        65.78156
433.00        65.87511
433.45        65.38818
433.89        65.50136
434.34        66.29238
434.78        65.19795
435.23        64.73028
435.67        65.69673
436.12        66.77798
436.57        66.99376
437.01        65.93412
437.46        65.62708
437.90        66.90797
438.35        66.19913
438.79         66.9383
439.24        66.83804
439.68        66.87843
440.13        66.86206
440.57         66.8418
441.02        66.96032
441.46        67.13776
441.91        67.21606
442.35          67.158
442.80        67.36765
443.24         67.7477
443.69        67.92981
444.13        67.85247
444.58        67.74507
445.02        67.51842
445.47        67.57294
445.91        67.79725
446.36        67.85905
446.80        67.73669
447.24        67.58727
447.69        67.48994
448.13        67.66986
448.58        67.88892
449.02        67.95481
449.47        67.83207
449.91        67.83862
450.36        67.99519
450.80        68.02783
451.25        67.95316
451.69         67.9708
452.13        68.03157
452.58        67.80878
453.02        67.37138
453.47         67.1269
453.91        67.09954
454.36        67.10094
454.80        67.08019
455.24        67.06014
455.69        67.04333
456.13        66.94477
456.58        66.81144
457.02        66.86298
457.46        66.78174
457.91        66.72296
458.35         66.6794
458.79        66.59011
459.24         66.5137
459.68        66.36034
460.13        66.18653
460.57        66.27327
461.01        65.94226
461.46        66.08733
461.90         66.1813
462.34        65.79333
462.79        66.04813
463.23        65.90353
463.68        66.27583
464.12        65.99079
464.56        65.38664
465.01        65.50926
465.45        66.11471
465.89        65.99076
466.34        65.26868
466.78         65.1095
467.22        65.56238
467.67        65.29194
468.11        65.35361
468.55        64.97648
468.99        64.59059
469.44        64.35706
469.88        64.31282
470.32        64.29613
470.77        64.26941
471.21        64.27969
471.65        64.30507
472.10        64.33478
472.54        64.32764
472.98        64.24937
473.42        64.10601
473.87        63.91299
474.31        63.69915
474.75         63.6498
475.20        63.73377
475.64         63.7793
476.08        63.78852
476.52        63.82624
476.97        63.83861
477.41        64.16476
477.85        64.20118
478.29        64.11819
478.74        63.54506
479.18        63.82638
479.62        63.84831
480.06        63.95887
480.50        63.89768
480.95        63.78217
481.39        63.52011
481.83        63.94458
482.27        63.98492
482.72         63.3752
483.16        63.63802
483.60         63.8491
484.04        63.88662
484.48        63.63017
484.93        63.65323
485.37        63.55708
485.81        64.00642
486.25        63.54288
486.69        65.60264
487.14         65.1455
487.58        64.08919
488.02        63.63177
488.46        63.70678
488.90        63.34611
489.34        63.47318
489.79        63.36844
490.23        63.71364
490.67        63.78275
491.11        63.69194
491.55        63.48109
491.99        63.22638
492.43        63.06533
492.88        63.02672
493.32        63.09255
493.76         63.1816
494.20        63.25495
494.64        63.30486
495.08        63.05521
495.52        63.04799
495.96        63.00921
496.41        63.03584
496.85        63.00329
497.29        62.87046
497.73        62.79243
498.17        62.48616
498.61        62.61397
499.05        62.97891
499.49        62.86526
499.93        62.39919
500.37        62.49034
500.82        63.06609
501.26         63.3483
501.70        63.18574
502.14        63.05599
502.58        62.44604
503.02        62.28514
503.46        62.37578
503.90        62.55956
504.34        62.71402
504.78        62.80181
505.22        62.81778
505.66        62.68211
506.10        62.42417
506.54        62.39515
506.98        62.67954
507.42        62.04629
507.86        62.51501
508.30        62.49909
508.74         62.4567
509.18        62.44254
509.62        62.42636
510.06         62.4179
510.50        62.38016
510.94        62.26447
511.38        62.09605
511.82        61.98414
512.26        61.94274
512.70        61.91652
513.14        61.90583
513.58        61.92981
514.02        61.98173
514.46        62.05578
514.90         62.1122
515.34        62.12284
515.78        62.08401
516.22        61.97981
516.66         61.6983
517.10        61.89251
517.54        61.71341
517.98        61.81728
518.42        61.91382
518.86        61.96843
519.30        61.96371
519.74        61.88111
520.18        61.78278
520.62        61.84072
521.06        62.02192
521.50        62.07592
521.93         61.9878
522.37        61.93421
522.81        61.91887
523.25         61.8347
523.69        61.69936
524.13        61.59616
524.57        61.53809
525.01        61.50363
525.45        61.49599
525.89        61.51881
526.32        61.56611
526.76        61.64242
527.20        61.72515
527.64        61.78508
528.08        61.81313
528.52        61.79887
528.96        61.76299
529.40        61.77073
529.83        61.80894
530.27        61.81624
530.71        61.77781
531.15        61.74281
531.59        61.71179
532.03        61.65012
532.46        61.57814
532.90        61.56369
533.34        61.60639
533.78         61.6846
534.22        61.75388
534.66        61.74582
535.09        61.64203
535.53         61.4919
535.97        61.32874
536.41        61.22074
536.85        61.18864
537.28        61.21159
537.72        61.27408
538.16        61.35167
538.60        61.42598
539.04        61.49874
539.47        61.54202
539.91        61.56542
540.35        61.55165
540.79         61.5062
541.22         61.4321
541.66        61.35244
542.10        61.27362
542.54        61.19318
542.97         61.1231
543.41        61.11211
543.85        61.15934
544.29        61.26231
544.72        61.37075
545.16         61.4598
545.60        61.51151
546.04        61.46272
546.47        61.36917
546.91        61.51677
547.35        61.84222
547.79        61.89365
548.22        61.65028
548.66         61.7033
549.10        61.64175
549.53        61.60058
549.97        61.48552
550.41        61.38937
550.84        61.30799
551.28        61.37351
551.72        61.38322
552.15         61.3595
552.59         61.4081
553.03        61.59029
553.46         61.5934
553.90        61.60871
554.34        61.51952
554.77        61.51657
555.21        61.35239
555.65         61.3513
556.08        61.43233
556.52        61.56151
556.96         61.6913
557.39        61.82208
557.83        61.92846
558.27        61.88353
558.70        61.71667
559.14        61.62307
559.57         61.6144
560.01        61.58309
560.45        61.51802
560.88         61.5545
561.32        61.68396
561.75        61.58119
562.19        61.34018
562.63        61.37341
563.06        61.61345
563.50         61.5566
563.93        61.24644
564.37        61.16746
564.80        61.32234
565.24         61.5412
565.68        61.74636
566.11        61.86946
566.55        61.90583
566.98        61.87207
567.42        61.82709
567.85        61.80006
568.29        61.82991
568.72        61.84992
569.16        61.94228
569.60        61.95198
570.03        62.14809
570.47         62.3824
570.90        62.69774
571.34        62.53099
571.77         62.9465
572.21        62.86672
572.64        62.70275
573.08        62.48361
573.51        62.53965
573.95        62.81435
574.38         62.9265
574.82        63.23277
