SpectraSmart Spectrum 2.9.0.0
--------- Device Information -----------
Spectrum Name :  反射率_0
Saving Time :  2024/04/21 00:41:51
Spectro-Module Model Name : SE2030-DUVN
Spectro-Module Serial Number : OS361AC55029948
Wavelength Start : 200
Wavelength End : 1025
Wavelength Unit : Wavelength(nm)
Spectrum Unit : Reflectance(%)
-----------Spectrum Setting ------------
Integration Time : 20ms
Average : 10
Boxcar : 0
Background removal :  enabled
linearity correction :  enabled
SC :  disabled
Intensity correction :  disabled
DWT denoise :  enabled
savitzky-golay :  disabled
FFT :  disabled
Running average :  disabled
Kalman :  disabled
High pass :  disabled
---------------BEGIN--------------------
Wavelength(nm)             Reflectance(%)
200.29               0
200.75       -126.3195
201.21       -54.04908
201.67       -11.77418
202.13        10.89795
202.58        24.56017
203.04        36.10051
203.50        44.45919
203.96        43.41219
204.42        31.00685
204.88        8.984608
205.34       -14.23494
205.80       -28.52733
206.26       -31.63239
206.72       -20.36889
207.18       -2.623754
207.64       -2.318179
208.10       -27.74029
208.55       -70.67683
209.01       -97.90242
209.47       -70.70285
209.93       -24.20273
210.39        13.58416
210.85        37.85321
211.31        49.00473
211.77        51.02077
212.23         46.4556
212.69        31.50549
213.14       -1.743646
213.60       -71.20505
214.06       -288.1561
214.52       -810.6804
214.98       -373.0853
215.44       -97.43896
215.90       -3.914146
216.36        27.34092
216.81        30.91453
217.27        12.34093
217.73       -86.38354
218.19        1109.014
218.65        473.3574
219.11       -1015.385
219.57        -38.4711
220.02        23.62037
220.48        35.12886
220.94        30.38038
221.40        9.283782
221.86       -42.77225
222.32       -78.96238
222.77       -34.35971
223.23         5.66971
223.69        26.41805
224.15        34.32784
224.61        35.86205
225.06        34.89737
225.52        32.23913
225.98        28.32615
226.44        23.74368
226.90        17.29751
227.36        12.51375
227.81        15.88216
228.27        24.45508
228.73        33.56555
229.19        39.23859
229.65         39.1405
230.10        33.93146
230.56        24.94227
231.02        13.52138
231.48        5.766473
231.93        6.157027
232.39        12.29193
232.85        19.58273
233.31        24.18554
233.77         26.1953
234.22        27.29915
234.68        27.39991
235.14        26.15714
235.60        23.89022
236.05         19.7233
236.51        14.43195
236.97        16.35352
237.43        26.78371
237.88        33.93911
238.34        32.74894
238.80        56.66032
239.26        44.18396
239.71        40.06606
240.17        28.21724
240.63        16.65235
241.08        11.36489
241.54        16.97494
242.00        31.78406
242.46        40.08755
242.91        37.42465
243.37        24.00968
243.83        4.441348
244.28       -2.239234
244.74        13.28171
245.20        39.88767
245.66        63.09426
246.11        69.07904
246.57        57.03669
247.03        31.28175
247.48       -2.372554
247.94       -34.56303
248.40       -65.80376
248.85          -117.9
249.31       -245.2656
249.77       -310.4747
250.22        -108.146
250.68       -32.83434
251.14       -8.205311
251.59        3.124441
252.05        11.56296
252.51        20.69095
252.96        27.88987
253.42        24.60276
253.88        8.998188
254.33       -9.775105
254.79       -17.89708
255.25       -9.206475
255.70        7.113159
256.16        22.48672
256.62        33.74611
257.07        39.52251
257.53        41.60474
257.99         41.8768
258.44        40.97255
258.90        39.84407
259.35        38.42775
259.81        36.95505
260.27        35.59526
260.72        34.65115
261.18         34.2478
261.63        34.05707
262.09        33.86899
262.55        33.24181
263.00          32.171
263.46        30.97194
263.91        29.79774
264.37        29.12914
264.83        28.91442
265.28         28.9152
265.74        28.97484
266.19        28.79489
266.65        28.34733
267.11        27.70604
267.56        26.88407
268.02        25.95913
268.47        24.95834
268.93        23.92386
269.38        22.91688
269.84        22.08302
270.30        21.44767
270.75        20.96757
271.21        20.64533
271.66        20.42047
272.12        20.25922
272.57        20.14271
273.03        19.97189
273.48        19.59223
273.94        19.01043
274.39        18.27234
274.85        17.53917
275.31        17.00703
275.76        16.72151
276.22        16.64126
276.67        16.67566
277.13        16.73472
277.58        16.75282
278.04        16.74867
278.49        16.70585
278.95        16.64692
279.40        16.54161
279.86        16.39923
280.31         16.1591
280.77        15.79563
281.22        15.30842
281.68        14.78029
282.13        14.27189
282.59        13.91692
283.04        13.72196
283.50        13.64769
283.95        13.66934
284.41        13.75404
284.86        13.87186
285.32        14.03494
285.77        14.16061
286.22        14.12894
286.68        13.95236
287.13         13.6391
287.59        13.36968
288.04        13.32407
288.50        13.49709
288.95        13.97349
289.41        14.62056
289.86        14.71337
290.32        14.11878
290.77        15.06561
291.22        14.04374
291.68        14.20092
292.13        14.51746
292.59        15.02723
293.04        15.63673
293.50        16.27468
293.95         16.9404
294.40        17.64488
294.86        18.42522
295.31        19.32621
295.77        20.35532
296.22        21.47684
296.68         22.6834
297.13        23.96564
297.58         25.3299
298.04         26.7935
298.49        28.33718
298.95        29.94017
299.40        31.58682
299.85        33.28933
300.31        35.07286
300.76          36.964
301.21        38.96728
301.67        41.08094
302.12        43.26729
302.58        45.56101
303.03        47.93736
303.48         50.4321
303.94        53.01791
304.39         55.6014
304.84        58.16364
305.30        60.72567
305.75        63.29058
306.20        65.97073
306.66        68.76626
307.11        71.57504
307.57        74.33571
308.02        76.89359
308.47        79.24377
308.93        81.47151
309.38        83.58063
309.83        85.63651
310.29        87.71845
310.74        89.73456
311.19        91.70831
311.65        93.64407
312.10        95.51178
312.55        97.30736
313.00        98.99386
313.46        100.5145
313.91        101.8371
314.36        102.9905
314.82        104.0088
315.27        104.9377
315.72        105.8189
316.18        106.6575
316.63        107.4745
317.08        108.3004
317.53        109.1321
317.99        109.9508
318.44        110.7381
318.89        111.4439
319.35          112.05
319.80        112.5835
320.25        113.0255
320.70        113.3554
321.16        113.5771
321.61        113.7195
322.06        113.8626
322.51        114.1454
322.97        114.5765
323.42        115.1556
323.87        115.7605
324.32        116.2004
324.78         116.404
325.23        116.4708
325.68        116.4717
326.13        116.5635
326.59        116.7674
327.04        117.0905
327.49        117.4744
327.94        117.8579
328.39        118.2191
328.85        118.5626
329.30        118.9382
329.75        119.2734
330.20        119.5634
330.66        119.7565
331.11        120.0074
331.56        120.4321
332.01        121.0518
332.46        121.8266
332.92        122.5424
333.37        122.9918
333.82        123.0684
334.27        122.8763
334.72         122.628
335.17        122.6829
335.63        123.1105
336.08        123.8585
336.53        124.7723
336.98        125.6414
337.43        126.3639
337.88        126.9929
338.34        127.4501
338.79        127.6775
339.24        127.6673
339.69        127.4596
340.14        127.2167
340.59        127.2078
341.05        127.5053
341.50        128.0542
341.95        128.7642
342.40        129.4707
342.85        130.0962
343.30        130.6664
343.75         131.147
344.20        131.4977
344.66        131.7197
345.11        131.7818
345.56        131.7416
346.01        131.7051
346.46        131.7214
346.91        131.7704
347.36        131.7932
347.81        131.7861
348.26        131.7605
348.72         131.367
349.17        131.3773
349.62        131.4485
350.07        131.7959
350.52        132.3213
350.97        132.8238
351.42        132.9699
351.87        132.6707
352.32        132.0294
352.77        131.2322
353.22        130.5686
353.67        130.1154
354.13        129.8055
354.58        129.4983
355.03        129.0255
355.48        128.3505
355.93        127.5534
356.38        126.7322
356.83        126.0177
357.28        125.4312
357.73        124.9105
358.18        124.3796
358.63         123.733
359.08        122.9451
359.53        122.0603
359.98        121.1203
360.43        120.1772
360.88        119.2518
361.33        118.3341
361.78        117.4248
362.23        116.5303
362.68        115.6531
363.13        114.7913
363.58        113.9471
364.03        113.1174
364.48        112.2899
364.93        111.4567
365.38         110.585
365.83        109.6288
366.28        108.5858
366.73        107.4741
367.18        106.3481
367.63        105.2967
368.08        104.3483
368.53        103.4916
368.98        102.6734
369.43        101.7929
369.88          100.82
370.33        99.77551
370.78        98.72311
371.23        97.79243
371.68        97.02512
372.13        96.37955
372.58        95.78844
373.03        95.13275
373.48        94.37006
373.93        93.53754
374.38        92.66205
374.83        91.79959
375.28        90.98956
375.72        90.20765
376.17        89.50167
376.62         88.8606
377.07        88.26313
377.52        87.69152
377.97        87.13113
378.42        86.57231
378.87        86.02107
379.32        85.49128
379.77        84.95684
380.22        84.36508
380.67        83.70096
381.11        82.97689
381.56        82.24809
382.01        81.63816
382.46        81.18694
382.91        80.86638
383.36         80.5898
383.81         80.2172
384.26        79.71291
384.71        79.11551
385.15        78.48898
385.60        77.99833
386.05        77.64854
386.50        77.39101
386.95        77.14216
387.40        76.78353
387.85        76.30132
388.29        75.70145
388.74        75.15258
389.19        74.68802
389.64        74.30758
390.09        73.96564
390.54        73.63007
390.98        73.24496
391.43        72.85564
391.88        72.48892
392.33        72.14289
392.78        71.84592
393.23        71.60905
393.67        71.26869
394.12        70.96426
394.57        70.99217
395.02        71.21702
395.47        71.00035
395.91        70.39365
396.36        70.00266
396.81        69.88773
397.26        69.74069
397.71        69.47514
398.15        69.12588
398.60        68.77456
399.05         68.2049
399.50        67.62975
399.95        67.68659
400.39          68.222
400.84        68.35552
401.29        67.99702
401.74        67.52081
402.18        67.07413
402.63        66.85226
403.08        66.83084
403.53        66.63223
403.97        66.25325
404.42        66.01324
404.87        65.92548
405.32        65.88216
405.76        65.87229
406.21        65.86731
406.66        65.81062
407.11        65.82307
407.55        65.82348
408.00        65.29961
408.45        64.44147
408.90        64.10156
409.34        64.30796
409.79        64.46295
410.24        64.46593
410.68         64.5058
411.13        64.54463
411.58        64.46098
412.03        64.28873
412.47        64.17651
412.92        64.13056
413.37        64.11514
413.81        64.11266
414.26        64.15189
414.71        64.20943
415.15        64.30472
415.60        64.37923
416.05         64.3791
416.49        64.29734
416.94        64.14822
417.39        63.98078
417.83        63.86221
418.28        63.81456
418.73        63.81544
419.17        63.84469
419.62        63.87737
420.07         63.8987
420.51        63.91171
420.96        63.93246
421.41        63.93182
421.85        63.88505
422.30        63.85027
422.74        63.81998
423.19        63.85979
423.64        63.97223
424.08        64.22503
424.53        64.49849
424.98        64.66669
425.42        64.71463
425.87         64.6116
426.31        64.46017
426.76        64.54629
427.21        64.82973
427.65        64.95045
428.10        64.86332
428.54        64.81849
428.99        64.83994
429.44        64.86298
429.88         64.8477
430.33        64.63334
430.77        64.29659
431.22        64.45802
431.66        64.98064
432.11         65.1236
432.56        64.93772
433.00        64.87632
433.45         64.7412
433.89        64.88087
434.34        65.50024
434.78        64.00748
435.23        64.02884
435.67        65.68677
436.12        65.59218
436.57        65.94308
437.01         65.5712
437.46        65.33591
437.90        65.91461
438.35        65.96656
438.79        65.90684
439.24        65.94647
439.68        66.11165
440.13        66.12357
440.57        65.99061
441.02        65.94992
441.46        66.02289
441.91        66.13292
442.35        66.22088
442.80        66.59008
443.24         67.0941
443.69        67.26392
444.13        67.07709
444.58        66.87693
445.02        66.73163
445.47        66.80673
445.91        67.05209
446.36        67.08582
446.80        66.86094
447.24        66.97657
447.69        66.86074
448.13        66.83126
448.58        67.15273
449.02        67.06102
449.47        66.77225
449.91        66.79311
450.36        67.10931
450.80        67.13205
451.25        66.90446
451.69        66.92519
452.13        67.15252
452.58        67.09237
453.02        66.77036
453.47        66.61909
453.91        66.65339
454.36        66.62301
454.80        66.51772
455.24         66.5313
455.69        66.60894
456.13        66.40029
456.58        66.03637
457.02        65.77005
457.46         65.9659
457.91        65.74922
458.35        65.32888
458.79        65.11482
459.24         65.1301
459.68        65.18598
460.13        65.28902
460.57        65.24562
461.01        65.01794
461.46        65.53809
461.90        65.04918
462.34        65.28318
462.79        64.93954
463.23        65.03365
463.68        65.23817
464.12        65.10661
464.56        64.70712
465.01        64.72952
465.45        64.99187
465.89        64.85648
466.34        64.44502
466.78         64.1856
467.22        64.10075
467.67        64.53447
468.11        64.26936
468.55        64.25642
468.99        64.13262
469.44        63.99556
469.88        63.84068
470.32        63.58552
470.77        63.30597
471.21         63.1524
471.65        63.15141
472.10        63.26242
472.54        63.39676
472.98        63.44516
473.42        63.38541
473.87        63.24117
474.31        63.05441
474.75        63.05268
475.20        63.20076
475.64        63.25047
476.08         63.2016
476.52        63.17481
476.97        63.11621
477.41        63.22815
477.85         63.3593
478.29        62.96655
478.74        62.39975
479.18        62.90282
479.62        62.90433
480.06         63.0131
480.50        62.98555
480.95        63.01186
481.39        63.11838
481.83        63.06408
482.27        63.17549
482.72        63.09451
483.16         62.8532
483.60        63.18447
484.04         63.2613
484.48         63.1143
484.93        63.12361
485.37        63.11969
485.81        63.44615
486.25        62.82458
486.69        64.09235
487.14        64.58613
487.58        63.95371
488.02        63.16039
488.46        62.68543
488.90        62.80174
489.34        62.70354
489.79        62.16529
490.23        62.59648
490.67        62.64238
491.11         62.7657
491.55        62.72142
491.99        62.57679
492.43        62.54131
492.88        62.61862
493.32        62.72622
493.76        62.76596
494.20        62.76458
494.64         62.7412
495.08         62.3015
495.52        62.07054
495.96        62.15591
496.41        62.57819
496.85        62.51908
497.29        62.01259
497.73        62.03624
498.17        62.24413
498.61        62.41261
499.05        62.37241
499.49        62.24366
499.93        62.10644
500.37        62.12883
500.82        62.27251
501.26        62.38979
501.70        62.43874
502.14        62.12357
502.58        62.01648
503.02        61.91614
503.46        61.94582
503.90        62.04189
504.34        62.12312
504.78        62.16519
505.22         62.1713
505.66        61.99438
506.10        61.70958
506.54        61.83273
506.98        62.34377
507.42        61.77018
507.86        62.18213
508.30        61.59064
508.74        61.85955
509.18        61.69873
509.62        61.52052
510.06        61.46797
510.50        61.52513
510.94        61.57753
511.38        61.58284
511.82        61.58009
512.26        61.55667
512.70        61.48495
513.14        61.38968
513.58        61.32894
514.02        61.31305
514.46        61.32218
514.90        61.32772
515.34        61.32017
515.78        61.29814
516.22        61.24745
516.66        61.02359
517.10        61.22897
517.54        60.98981
517.98        60.98407
518.42        60.97247
518.86        61.01266
519.30        61.10295
519.74        61.19687
520.18        61.27656
520.62        61.38968
521.06        61.48023
521.50        61.33895
521.93        61.03985
522.37        60.89957
522.81        60.95485
523.25        61.05309
523.69        61.13029
524.13          61.143
524.57        61.07258
525.01        60.93895
525.45         60.8008
525.89        60.74903
526.32        60.80059
526.76        60.92742
527.20        61.07337
527.64        61.15322
528.08        61.14359
528.52        61.07554
528.96        60.98452
529.40        60.91637
529.83        60.88534
530.27        60.90496
530.71        60.94474
531.15        60.95667
531.59        60.93041
532.03        60.88373
532.46        60.83339
532.90        60.81739
533.34        60.83591
533.78        60.87677
534.22        60.90511
534.66         60.8688
535.09        60.75407
535.53        60.60345
535.97        60.44958
536.41        60.35941
536.85        60.34961
537.28        60.39887
537.72         60.4805
538.16        60.55098
538.60        60.59232
539.04        60.61782
539.47        60.61545
539.91        60.61825
540.35        60.61549
540.79        60.60195
541.22        60.58149
541.66        60.57825
542.10        60.58881
542.54        60.60506
542.97        60.61293
543.41        60.61482
543.85        60.60189
544.29        60.61441
544.72        60.63314
545.16        60.61783
545.60        60.54494
546.04        60.59342
546.47        60.39572
546.91        60.57031
547.35        60.90211
547.79        61.09764
548.22        61.07135
548.66        60.83615
549.10        60.51271
549.53        60.44498
549.97        60.63803
550.41        60.64433
550.84        60.44409
551.28        60.43605
551.72        60.65868
552.15        60.34967
552.59        60.73896
553.03        60.57068
553.46        60.71811
553.90        60.68633
554.34        60.62957
554.77        60.53381
555.21        60.45576
555.65        60.41786
556.08        60.57426
556.52        60.69739
556.96        60.67961
557.39         60.7706
557.83        60.91116
558.27        60.90569
558.70        60.76263
559.14        60.68454
559.57        60.67991
560.01        60.63083
560.45        60.54068
560.88        60.58548
561.32        60.73834
561.75        60.62996
562.19         60.3672
562.63        60.34835
563.06        60.54353
563.50        60.63087
563.93        60.56206
564.37        60.45715
564.80        60.34546
565.24        60.38615
565.68        60.54706
566.11        60.62169
566.55        60.62049
566.98         60.6436
567.42        60.71638
567.85        60.77997
568.29        60.84445
568.72        60.84309
569.16        60.87537
569.60        60.83345
570.03        60.99137
570.47        61.21241
570.90        61.53174
571.34        61.32746
571.77        61.63007
572.21        61.64459
572.64        61.64191
573.08        61.46373
573.51        61.43604
573.95        61.92453
574.38        61.92688
574.82        62.28245
