SpectraSmart Spectrum 2.9.0.0
--------- Device Information -----------
Spectrum Name :  反射率_0
Saving Time :  2024/04/20 23:59:02
Spectro-Module Model Name : SE2030-DUVN
Spectro-Module Serial Number : OS361AC55029948
Wavelength Start : 200
Wavelength End : 1025
Wavelength Unit : Wavelength(nm)
Spectrum Unit : Reflectance(%)
-----------Spectrum Setting ------------
Integration Time : 20ms
Average : 10
Boxcar : 0
Background removal :  enabled
linearity correction :  enabled
SC :  disabled
Intensity correction :  disabled
DWT denoise :  enabled
savitzky-golay :  disabled
FFT :  disabled
Running average :  disabled
Kalman :  disabled
High pass :  disabled
---------------BEGIN--------------------
Wavelength(nm)             Reflectance(%)
200.29               0
200.75       -70.02296
201.21       -16.41642
201.67        13.60434
202.13        25.61179
202.58        27.32907
203.04        23.20089
203.50        15.84347
203.96         11.5411
204.42         12.9629
204.88        17.03722
205.34        20.40525
205.80        18.14106
206.26         8.46891
206.72       -6.355384
207.18       -26.02485
207.64        -48.1296
208.10        -66.0296
208.55       -78.99887
209.01        -71.5556
209.47       -34.55601
209.93        3.213305
210.39        29.98421
210.85         45.9734
211.31        52.95731
211.77        53.85755
212.23        49.84805
212.69        37.29727
213.14        8.359966
213.60       -54.79235
214.06       -252.8785
214.52       -725.3231
214.98       -320.7109
215.44       -69.67889
215.90        14.33258
216.36        42.66587
216.81        47.57743
217.27        35.51237
217.73       -34.02007
218.19        821.3611
218.65        373.4507
219.11       -756.4858
219.57        -12.4728
220.02        34.61121
220.48        42.07069
220.94        35.48128
221.40        12.81046
221.86       -42.05102
222.32       -82.73582
222.77       -39.00785
223.23        2.187462
223.69        23.76282
224.15        31.66746
224.61        32.56813
225.06        30.49611
225.52        26.60737
225.98        22.02701
226.44        17.54867
226.90        11.77525
227.36        7.739873
227.81        10.96155
228.27        18.70309
228.73        27.07825
229.19        32.37042
229.65         32.3189
230.10        27.58559
230.56        19.52559
231.02        9.678304
231.48        3.899431
231.93        5.966121
232.39        13.28484
232.85        20.96734
233.31        25.02566
233.77        25.75961
234.22        24.96783
234.68        23.15849
235.14        21.25401
235.60        20.06465
236.05        18.43874
236.51          16.724
236.97        21.84578
237.43        33.99033
237.88        42.57011
238.34        43.63427
238.80        64.75227
239.26        55.29903
239.71        51.77361
240.17        41.18894
240.63        30.94247
241.08        26.77645
241.54        32.41319
242.00        46.43188
242.46        55.58629
242.91        56.32962
243.37        49.55419
243.83        37.07261
244.28        28.52941
244.74        30.25915
245.20        36.80915
245.66         42.7698
246.11        43.04092
246.57        36.75437
247.03        26.29161
247.48        11.69959
247.94       -8.189582
248.40       -40.02248
248.85       -117.1546
249.31       -356.9401
249.77       -562.6915
250.22       -200.5736
250.68       -45.27966
251.14        6.286878
251.59        23.02656
252.05        26.71156
252.51        23.97458
252.96        15.16361
253.42        5.434233
253.88        1.033625
254.33        1.365417
254.79        8.617393
255.25        21.40078
255.70        34.42062
256.16        45.32408
256.62        52.57825
257.07        55.52654
257.53        55.93829
257.99         54.9169
258.44        53.47635
258.90        53.11567
259.35        53.23141
259.81        53.66988
260.27        53.64131
260.72        52.45105
261.18        50.68882
261.63        48.63404
262.09        46.88409
262.55        45.60828
263.00        44.67668
263.46        44.06598
263.91        43.51782
264.37        43.08719
264.83        42.65826
265.28         42.2087
265.74        41.78076
266.19        41.24074
266.65        40.62896
267.11         39.9162
267.56        39.10392
268.02        38.29271
268.47        37.46268
268.93        36.63308
269.38        35.77036
269.84        34.88074
270.30        33.95856
270.75        33.01566
271.21        32.10405
271.66        31.23558
272.12        30.44506
272.57        29.71628
273.03         29.0467
273.48        28.38985
273.94        27.76077
274.39        27.15038
274.85        26.60329
275.31        26.12465
275.76        25.70336
276.22        25.34602
276.67        25.03236
277.13        24.80402
277.58          24.615
278.04        24.47121
278.49        24.27779
278.95        23.97252
279.40        23.51835
279.86        22.98128
280.31         22.4098
280.77        21.95115
281.22        21.60593
281.68        21.38675
282.13        21.20532
282.59        20.99873
283.04        20.73319
283.50        20.45438
283.95        20.22858
284.41        20.17753
284.86         20.2999
285.32        20.54856
285.77        20.80422
286.22        20.90933
286.68        20.85698
287.13        20.67352
287.59        20.49542
288.04        20.42356
288.50        20.46037
288.95        20.69101
289.41        21.09073
289.86        21.12381
290.32        20.69186
290.77        21.80851
291.22        21.12579
291.68        21.36371
292.13        21.55348
292.59        21.79052
293.04        22.11378
293.50        22.66244
293.95        23.47043
294.40        24.46442
294.86        25.55764
295.31        26.59938
295.77         27.5459
296.22        28.43227
296.68        29.30508
297.13        30.23194
297.58        31.25233
298.04        32.34404
298.49        33.52286
298.95        34.83432
299.40        36.25466
299.85        37.77478
300.31        39.31076
300.76        40.71225
301.21        41.96122
301.67         43.1202
302.12        44.26718
302.58        45.61547
303.03        47.17508
303.48        48.91639
303.94        50.74368
304.39        52.46424
304.84        54.03625
305.30        55.52981
305.75        56.97496
306.20        58.50959
306.66        60.15463
307.11        61.81561
307.57        63.45536
308.02        64.96623
308.47        66.34077
308.93        67.65592
309.38        68.88961
309.83        70.02695
310.29        71.18215
310.74        72.24417
311.19        73.28448
311.65        74.35746
312.10        75.45569
312.55         76.5741
313.00        77.64281
313.46        78.55117
313.91        79.26426
314.36         79.8196
314.82        80.31577
315.27        80.90751
315.72        81.63122
316.18         82.4405
316.63        83.23093
317.08        83.83562
317.53          84.215
317.99        84.42703
318.44        84.56353
318.89        84.75893
319.35        85.05162
319.80         85.3968
320.25        85.75983
320.70        86.08923
321.16        86.35482
321.61        86.59995
322.06        86.79813
322.51        86.90738
322.97         86.9223
323.42        86.88404
323.87        86.85884
324.32        86.97942
324.78        87.25562
325.23        87.67332
325.68         88.1356
326.13        88.50474
326.59        88.71395
327.04        88.84695
327.49        88.90792
327.94        88.93934
328.39        88.97263
328.85        88.97436
329.30        89.03808
329.75        89.21256
330.20        89.50748
330.66        89.87167
331.11        90.30764
331.56        90.69456
332.01        90.99725
332.46        91.24156
332.92        91.38341
333.37        91.47803
333.82        91.51202
334.27        91.49867
334.72        91.52933
335.17         91.7556
335.63        92.18444
336.08         92.8234
336.53        93.55343
336.98        94.20718
337.43        94.71797
337.88        95.11327
338.34        95.39662
338.79        95.63361
339.24        95.83418
339.69        95.99122
340.14        96.12324
340.59        96.26849
341.05        96.44586
341.50        96.66186
341.95        96.93523
342.40        97.28776
342.85        97.71224
343.30        98.19702
343.75        98.66879
344.20        99.01644
344.66         99.2254
345.11        99.30684
345.56        99.34669
346.01        99.48377
346.46        99.74539
346.91        100.0849
347.36        100.4201
347.81        100.6266
348.26        100.6811
348.72        100.6394
349.17        100.5492
349.62        100.5054
350.07        100.5397
350.52        100.6155
350.97        100.7073
351.42         100.777
351.87        100.8009
352.32        100.7862
352.77        100.7169
353.22        100.5654
353.67        100.3321
354.13        100.0428
354.58        99.69492
355.03         99.3408
355.48        98.99975
355.93        98.66122
356.38        98.33761
356.83        98.04372
357.28        97.76286
357.73        97.47536
358.18        97.13126
358.63        96.65322
359.08        96.03636
359.53        95.32658
359.98        94.56115
360.43        93.79323
360.88        93.04825
361.33        92.30989
361.78        91.63154
362.23         91.0954
362.68        90.70291
363.13        90.43094
363.58        90.15195
364.03        89.65907
364.48        88.91371
364.93          87.977
365.38        86.99766
365.83        86.22511
366.28        85.71803
366.73        85.38882
367.18        85.11848
367.63        84.71765
368.08        84.12848
368.53        83.41728
368.98        82.62235
369.43        81.79023
369.88        80.94353
370.33        80.06238
370.78        79.18205
371.23        78.38418
371.68        77.70552
372.13        77.15002
372.58        76.68571
373.03          76.236
373.48        75.76885
373.93        75.29152
374.38        74.81899
374.83        74.38763
375.28        74.00426
375.72        73.63535
376.17        73.26594
376.62        72.82524
377.07        72.29263
377.52        71.67713
377.97        71.02772
378.42        70.44221
378.87        69.96141
379.32        69.57469
379.77        69.22239
380.22        68.79974
380.67        68.27864
381.11         67.6881
381.56        67.09433
382.01        66.62769
382.46        66.32423
382.91        66.14115
383.36        65.98428
383.81        65.70973
384.26         65.2822
384.71        64.74625
385.15         64.1704
385.60        63.71672
386.05        63.40059
386.50        63.18247
386.95        62.99206
387.40        62.72805
387.85         62.3741
388.29        61.93086
388.74        61.54464
389.19         61.2532
389.64        61.05895
390.09        60.93061
390.54        60.79727
390.98        60.53873
391.43        60.17265
391.88        59.73769
392.33        59.32766
392.78        59.04988
393.23        58.91644
393.67        58.91661
394.12        59.01765
394.57         58.8937
395.02        58.57983
395.47         58.4388
395.91        58.47206
396.36        58.36414
396.81        58.11987
397.26        57.93791
397.71          57.808
398.15         57.5827
398.60        57.32269
399.05        57.06303
399.50        56.84857
399.95        56.64143
400.39        56.48124
400.84        56.55447
401.29        56.76371
401.74        56.58071
402.18        56.06181
402.63          55.813
403.08        55.83638
403.53          55.664
403.97        55.30132
404.42        55.05112
404.87        54.91907
405.32        54.82878
405.76        54.77422
406.21        54.70262
406.66        54.63034
407.11        54.74717
407.55        54.97482
408.00        54.93225
408.45        54.63774
408.90        54.31129
409.34         54.0744
409.79        54.12762
410.24         54.3805
410.68         54.4476
411.13        54.30285
411.58         54.1905
412.03        54.15503
412.47        54.16153
412.92        54.20446
413.37        54.29905
413.81        54.41969
414.26        54.57406
414.71        54.73928
415.15        54.92289
415.60        55.07384
416.05        55.15121
416.49        55.14753
416.94        55.06889
417.39        54.95664
417.83         54.8721
418.28        54.83393
418.73        54.82006
419.17        54.82376
419.62        54.84216
420.07         54.8734
420.51        54.92633
420.96        54.98866
421.41        55.02516
421.85        55.01789
422.30        54.92902
422.74        54.82034
423.19         55.0613
423.64         55.5716
424.08        55.88921
424.53        55.91916
424.98        56.04623
425.42        56.28308
425.87        56.29785
426.31        56.17061
426.76        56.30539
427.21        56.66735
427.65        56.86086
428.10        56.84692
428.54        56.90239
428.99        57.05424
429.44        57.19724
429.88        57.28007
430.33        57.22337
430.77        57.06148
431.22        57.16887
431.66        57.49855
432.11        57.75699
432.56        57.97286
433.00        58.08588
433.45        57.87671
433.89        58.02665
434.34        58.80182
434.78        57.14792
435.23        57.84125
435.67        58.94779
436.12        58.71713
436.57        58.92491
437.01        58.80073
437.46         58.6227
437.90        58.96493
438.35        59.31892
438.79        59.25434
439.24        59.32545
439.68        59.38611
440.13        59.30275
440.57        59.15217
441.02        59.46264
441.46        60.08705
441.91        60.14754
442.35        59.75324
442.80        60.04858
443.24        60.88977
443.69        61.24325
444.13        61.04433
444.58        60.93669
445.02         60.9858
445.47        61.16831
445.91        61.41641
446.36        61.51914
446.80        61.45291
447.24        61.36886
447.69         61.3176
448.13        61.39367
448.58        61.41956
449.02        61.41732
449.47         61.3544
449.91         61.3535
450.36        61.43498
450.80        61.46747
451.25        61.48208
451.69         61.5941
452.13         61.7729
452.58        61.80997
453.02        61.70363
453.47        61.64247
453.91        61.62692
454.36        61.57479
454.80        61.47788
455.24        61.35165
455.69         61.2194
456.13        61.06544
456.58        61.00099
457.02        60.85483
457.46         61.2857
457.91        61.20646
458.35        60.98243
458.79        60.90667
459.24        61.02386
459.68        61.12329
460.13        61.19151
460.57         61.0563
461.01        60.69471
461.46        60.82754
461.90        60.37578
462.34        60.23844
462.79        60.16814
463.23        60.46054
463.68        60.96246
464.12        60.91493
464.56        60.42999
465.01        60.55431
465.45         61.0508
465.89         61.0176
466.34        60.57858
466.78        60.19124
467.22        59.88491
467.67        60.61324
468.11         60.1703
468.55        60.26921
468.99        60.24151
469.44        60.23703
469.88        60.23587
470.32        60.14327
470.77        60.00039
471.21        59.88869
471.65        59.82737
472.10        59.79132
472.54        59.75686
472.98        59.72108
473.42        59.68406
473.87        59.63196
474.31        59.55104
474.75        59.59082
475.20        59.69148
475.64         59.6087
476.08        59.40866
476.52        59.29404
476.97        59.22679
477.41        59.38698
477.85        59.75841
478.29        59.16483
478.74        58.92534
479.18        59.35126
479.62        59.29013
480.06        59.49387
480.50        59.52882
480.95        59.57695
481.39        59.56249
481.83        59.81192
482.27         60.1154
482.72        59.68033
483.16        60.05098
483.60        60.10646
484.04        60.05676
484.48        59.72133
484.93        59.73721
485.37        59.76445
485.81        59.91666
486.25        59.52583
486.69        60.31007
487.14        59.97057
487.58        59.70138
488.02        59.38323
488.46         59.8116
488.90        59.73904
489.34        59.73172
489.79        59.23624
490.23        59.53165
490.67        59.48402
491.11         59.4185
491.55        59.29648
491.99        59.17113
492.43        59.16159
492.88        59.26694
493.32        59.43964
493.76        59.57211
494.20        59.65281
494.64        59.69012
495.08        59.29621
495.52        59.12375
495.96        59.17754
496.41        59.53533
496.85        59.50333
497.29        59.08847
497.73        59.20409
498.17        59.43755
498.61        59.31911
499.05        58.81745
499.49        58.49006
499.93        58.46113
500.37        58.75827
500.82        59.25794
501.26        59.35256
501.70        59.52029
502.14         59.1764
502.58        59.04803
503.02         58.8754
503.46        58.79336
503.90        58.76981
504.34        58.77114
504.78        58.81496
505.22        58.91058
505.66        58.97939
506.10        58.97918
506.54        59.12383
506.98        59.45904
507.42        58.84771
507.86        59.23438
508.30        59.16364
508.74        59.09081
509.18        59.05295
509.62        59.02053
510.06        59.00589
510.50        58.97252
510.94        58.87471
511.38        58.73852
511.82        58.66661
512.26        58.66611
512.70        58.68036
513.14        58.68615
513.58        58.66541
514.02        58.61053
514.46        58.53408
514.90        58.43297
515.34        58.34458
515.78        58.28572
516.22        58.20898
516.66        57.99313
517.10        58.30386
517.54        58.20032
517.98        58.40567
518.42        58.59083
518.86        58.69701
519.30          58.702
519.74        58.59472
520.18        58.45808
520.62        58.49394
521.06         58.6807
521.50        58.76888
521.93        58.73104
522.37        58.71104
522.81        58.70476
523.25        58.62189
523.69         58.4777
524.13        58.34645
524.57         58.2459
525.01        58.15995
525.45        58.10969
525.89        58.12889
526.32        58.21385
526.76        58.35325
527.20        58.50936
527.64        58.62215
528.08        58.67114
528.52        58.67299
528.96        58.63387
529.40        58.56009
529.83        58.46173
530.27        58.36788
530.71        58.28972
531.15        58.24342
531.59        58.23464
532.03        58.26435
532.46        58.31114
532.90        58.35055
533.34        58.36661
533.78        58.36427
534.22        58.34318
534.66        58.30378
535.09        58.24354
535.53        58.18685
535.97        58.12879
536.41        58.08006
536.85        58.04545
537.28        58.01748
537.72        58.01344
538.16        58.06656
538.60        58.16851
539.04        58.29259
539.47        58.37947
539.91        58.40176
540.35        58.33595
540.79        58.19675
541.22        58.03187
541.66        57.93617
542.10        57.92899
542.54        57.98426
542.97        58.05798
543.41        58.10934
543.85         58.1169
544.29        58.10675
544.72        58.08333
545.16        58.08736
545.60         58.1133
546.04        58.12709
546.47        58.14397
546.91        58.21616
547.35        58.31752
547.79        58.41132
548.22        58.44185
548.66        58.33005
549.10        58.13614
549.53        58.07033
549.97        58.14347
550.41        58.16281
550.84        58.13296
551.28        58.15118
551.72        58.20283
552.15         58.2781
552.59        58.39904
553.03        58.16949
553.46        58.42731
553.90        58.19957
554.34        58.26368
554.77        58.16013
555.21        58.10306
555.65        58.12178
556.08        58.20892
556.52        58.39966
556.96        58.60188
557.39         58.6369
557.83        58.52293
558.27        58.41113
558.70        58.35919
559.14        58.32936
559.57        58.32417
560.01        58.49747
560.45        58.72335
560.88        58.62559
561.32        58.31028
561.75        58.10073
562.19        58.09633
562.63        58.24237
563.06        58.45056
563.50        58.49305
563.93        58.34801
564.37        58.23056
564.80        58.16497
565.24        58.18468
565.68        58.27488
566.11         58.3181
566.55        58.32387
566.98        58.42112
567.42        58.59093
567.85        58.55431
568.29        58.39478
568.72        58.42632
569.16        58.67097
569.60        58.67667
570.03        58.71915
570.47        58.78312
570.90        58.69307
571.34         58.8605
571.77        58.91966
572.21        58.68669
572.64        58.67386
573.08        58.77675
573.51         58.6814
573.95        59.06353
574.38        58.82424
574.82        59.33467
