SpectraSmart Spectrum 2.9.0.0
--------- Device Information -----------
Spectrum Name :  反射率_0
Saving Time :  2024/04/21 00:47:32
Spectro-Module Model Name : SE2030-DUVN
Spectro-Module Serial Number : OS361AC55029948
Wavelength Start : 200
Wavelength End : 1025
Wavelength Unit : Wavelength(nm)
Spectrum Unit : Reflectance(%)
-----------Spectrum Setting ------------
Integration Time : 20ms
Average : 10
Boxcar : 0
Background removal :  enabled
linearity correction :  enabled
SC :  disabled
Intensity correction :  disabled
DWT denoise :  enabled
savitzky-golay :  disabled
FFT :  disabled
Running average :  disabled
Kalman :  disabled
High pass :  disabled
---------------BEGIN--------------------
Wavelength(nm)             Reflectance(%)
200.29               0
200.75       -100.1731
201.21       -28.06558
201.67        10.96167
202.13        22.83006
202.58        17.85994
203.04        2.308199
203.50       -19.70275
203.96       -35.36603
204.42       -37.19218
204.88       -30.29836
205.34       -20.08727
205.80       -13.83466
206.26        -13.4034
206.72       -14.62542
207.18       -18.40917
207.64       -27.20516
208.10       -38.77422
208.55       -52.60939
209.01       -54.48498
209.47       -30.77689
209.93       -2.717728
210.39        18.06133
210.85        30.82874
211.31        36.49058
211.77        37.26825
212.23        34.48074
212.69        24.67669
213.14        -1.42447
213.60        -64.7691
214.06       -275.6617
214.52       -805.0168
214.98       -382.6838
215.44        -105.417
215.90       -10.66252
216.36        21.31862
216.81        25.81339
217.27        9.036697
217.73       -82.41273
218.19        1027.071
218.65        436.4477
219.11       -938.4295
219.57       -36.53545
220.02        20.59213
220.48        30.61331
220.94        25.08656
221.40        3.146545
221.86       -50.13269
222.32       -86.42756
222.77       -40.18076
223.23       0.8826759
223.69        22.00066
224.15        29.83916
224.61        30.97987
225.06        29.35909
225.52        25.73283
225.98        20.49843
226.44        14.38512
226.90        6.306965
227.36       0.4144051
227.81        4.306559
228.27        14.54997
228.73        25.54624
229.19        32.86927
229.65        34.28087
230.10        30.78214
230.56        24.03284
231.02        15.29582
231.48        9.459463
231.93        10.06787
232.39        15.23913
232.85        21.09701
233.31        24.32926
233.77        25.09593
234.22        24.92716
234.68        24.05454
235.14        22.83035
235.60        21.80064
236.05        19.99634
236.51        17.74558
236.97        21.93637
237.43         33.0281
237.88         40.3625
238.34        39.75888
238.80        61.53492
239.26        51.14222
239.71        48.30296
240.17        38.85951
240.63        29.84075
241.08        26.27468
241.54        31.56774
242.00        44.22007
242.46        51.24561
242.91          48.908
243.37        37.58554
243.83        19.14682
244.28        5.244097
244.74        4.763281
245.20        12.12719
245.66        20.78248
246.11        24.50051
246.57        22.13119
247.03        16.15517
247.48        7.362244
247.94        -3.09188
248.40       -17.41078
248.85       -50.70406
249.31       -149.2719
249.77       -222.7469
250.22       -70.16207
250.68        -8.53908
251.14        11.72968
251.59        19.22987
252.05        22.63637
252.51        25.35573
252.96        26.59136
253.42         24.7217
253.88        20.46852
254.33        16.45317
254.79        18.74243
255.25        29.00062
255.70        41.55125
256.16        52.46403
256.62        59.99596
257.07        63.47773
257.53        64.56332
257.99        64.28959
258.44        63.28069
258.90         62.7441
259.35        62.19373
259.81        61.80375
260.27         61.1511
260.72        59.91639
261.18        58.61974
261.63        57.22684
262.09        56.08321
262.55         55.0626
263.00        54.04513
263.46        53.16001
263.91        52.31208
264.37        51.82993
264.83        51.57565
265.28        51.38956
265.74        51.13469
266.19        50.39729
266.65        49.22272
267.11        47.70052
267.56        46.01632
268.02        44.55274
268.47        43.36781
268.93        42.41678
269.38        41.56369
269.84        40.65585
270.30        39.64126
270.75        38.57858
271.21         37.5937
271.66        36.80071
272.12        36.23511
272.57        35.80034
273.03        35.38416
273.48        34.78611
273.94        33.99824
274.39         33.0619
274.85        32.11896
275.31        31.30508
275.76        30.65788
276.22         30.1753
276.67        29.78513
277.13        29.46673
277.58        29.15407
278.04        28.87008
278.49         28.5855
278.95        28.34274
279.40         28.0878
279.86        27.84117
280.31        27.49993
280.77        27.00957
281.22        26.35291
281.68        25.63979
282.13        24.94984
282.59        24.47458
283.04        24.21832
283.50        24.13657
283.95        24.17254
284.41        24.26769
284.86        24.37521
285.32        24.52889
285.77        24.64937
286.22        24.64227
286.68        24.52433
287.13        24.28084
287.59        24.08558
288.04        24.09969
288.50        24.32195
288.95        24.80684
289.41        25.42468
289.86         25.4999
290.32        24.92713
290.77        25.67723
291.22        24.70804
291.68        24.80702
292.13        25.09916
292.59        25.62255
293.04        26.32103
293.50        27.17791
293.95        28.18496
294.40        29.32288
294.86        30.57516
295.31        31.89849
295.77        33.27016
296.22        34.67006
296.68         36.0863
297.13        37.50296
297.58        38.93986
298.04        40.40728
298.49        41.94462
298.95        43.63379
299.40        45.46324
299.85        47.41191
300.31        49.40346
300.76        51.29254
301.21           53.06
301.67        54.76877
302.12        56.47585
302.58        58.38022
303.03        60.48444
303.48        62.77594
303.94        65.16285
304.39        67.44675
304.84        69.58289
305.30        71.62801
305.75         73.6217
306.20        75.73994
306.66         78.0076
307.11         80.3113
307.57        82.55617
308.02        84.51872
308.47        86.20048
308.93        87.71782
309.38           89.16
309.83        90.74084
310.29        92.54096
310.74        94.41973
311.19        96.29825
311.65        98.02483
312.10        99.52662
312.55        100.8564
313.00        102.0167
313.46        103.0184
313.91        103.8668
314.36        104.5713
314.82        105.2122
315.27         105.906
315.72        106.6942
316.18        107.5629
316.63        108.4389
317.08        109.1935
317.53         109.788
317.99        110.2467
318.44        110.6419
318.89        111.0774
319.35        111.5732
319.80         112.101
320.25        112.5792
320.70        112.8873
321.16        112.9947
321.61        112.9667
322.06        112.9003
322.51         112.955
322.97        113.1614
323.42        113.5235
323.87        113.9434
324.32        114.2735
324.78         114.455
325.23        114.5728
325.68        114.6991
326.13         114.985
326.59        115.4328
327.04        116.0374
327.49        116.6676
327.94        117.1507
328.39         117.431
328.85        117.5218
329.30        117.5656
329.75        117.6559
330.20        117.8417
330.66        118.0595
331.11        118.3492
331.56        118.6229
332.01        118.8672
332.46        119.1082
332.92        119.3364
333.37        119.6853
333.82         120.118
334.27        120.6139
334.72        121.1272
335.17        121.5871
335.63        121.9432
336.08        122.2846
336.53         122.624
336.98        123.0408
337.43         123.551
337.88        124.1153
338.34        124.6806
338.79        125.2265
339.24        125.7036
339.69        126.1352
340.14        126.4946
340.59        126.7455
341.05        126.8979
341.50        126.9684
341.95        127.0576
342.40        127.3367
342.85        127.8337
343.30        128.5003
343.75        129.1804
344.20        129.6236
344.66        129.7843
345.11        129.7211
345.56        129.5901
346.01        129.6404
346.46        129.9404
346.91          130.38
347.36        130.8242
347.81        131.1682
348.26        131.3809
348.72        131.1469
349.17        131.2036
349.62        131.1677
350.07        131.2709
350.52        131.4418
350.97        131.5887
351.42        131.5596
351.87        131.3103
352.32        130.8953
352.77        130.4085
353.22         129.985
353.67        129.6588
354.13         129.413
354.58        129.1352
355.03        128.7043
355.48        128.1021
355.93        127.3779
356.38        126.6541
356.83        126.1093
357.28        125.7631
357.73        125.5432
358.18        125.3013
358.63        124.8064
359.08        124.0124
359.53         123.008
359.98        121.9214
360.43        120.9446
360.88        120.1261
361.33        119.3967
361.78        118.7073
362.23        117.9826
362.68        117.1955
363.13        116.3861
363.58        115.5291
364.03        114.5746
364.48        113.5262
364.93        112.3946
365.38        111.2704
365.83        110.3091
366.28        109.5382
366.73        108.9049
367.18         108.308
367.63        107.5817
368.08         106.687
368.53        105.6901
368.98         104.638
369.43        103.5902
369.88        102.5726
370.33        101.5619
370.78        100.6014
371.23        99.78856
371.68        99.14426
372.13        98.64002
372.58        98.20324
373.03        97.69788
373.48         97.0759
373.93        96.37441
374.38        95.59906
374.83        94.77872
375.28        93.95506
375.72        93.11279
376.17        92.35738
376.62        91.76167
377.07        91.31292
377.52        90.96164
377.97        90.62319
378.42        90.16636
378.87        89.56672
379.32        88.88585
379.77        88.15087
380.22        87.38265
380.67        86.59353
381.11        85.77875
381.56        85.00133
382.01        84.39954
382.46        84.00839
382.91        83.79268
383.36        83.63741
383.81        83.35661
384.26        82.89903
384.71        82.30964
385.15        81.65771
385.60        81.12228
386.05        80.72029
386.50        80.40956
386.95        80.12001
387.40         79.7529
387.85        79.30067
388.29        78.76287
388.74        78.31564
389.19        77.99014
389.64        77.78508
390.09        77.65858
390.54         77.5344
390.98        77.28043
391.43        76.90677
391.88        76.44375
392.33        75.96607
392.78        75.53095
393.23        75.15146
393.67        74.90553
394.12        74.79557
394.57        74.34019
395.02        73.65951
395.47        73.49014
395.91        73.76527
396.36        73.69748
396.81         73.2639
397.26        72.92821
397.71        72.71932
398.15        72.46024
398.60        72.23723
399.05        71.99129
399.50        71.78423
399.95        71.75301
400.39         71.8584
400.84        71.95045
401.29        71.92607
401.74        71.50464
402.18         70.8101
402.63        70.42693
403.08        70.36434
403.53        70.11373
403.97        69.68091
404.42        69.42778
404.87        69.34885
405.32        69.31277
405.76        69.30236
406.21         69.2681
406.66        69.18011
407.11        69.24665
407.55         69.3755
408.00        68.94812
408.45        68.11652
408.90        67.75317
409.34        67.87875
409.79        67.86995
410.24        67.67471
410.68        67.58652
411.13        67.58728
411.58        67.51787
412.03        67.39681
412.47        67.34658
412.92        67.35472
413.37        67.39813
413.81        67.43549
414.26        67.46246
414.71        67.45229
415.15        67.42513
415.60        67.36897
416.05        67.32103
416.49        67.28927
416.94          67.256
417.39        67.19675
417.83        67.06266
418.28         66.8556
418.73        66.59991
419.17        66.33691
419.62        66.14368
420.07        66.04207
420.51        65.99995
420.96        66.02843
421.41        66.08786
421.85        66.13386
422.30        66.22434
422.74        66.29613
423.19        66.34698
423.64        66.35876
424.08        66.38539
424.53        66.38836
424.98        66.40228
425.42         66.4427
425.87        66.45911
426.31         66.4599
426.76        66.51373
427.21        66.60952
427.65        66.64035
428.10        66.52169
428.54        66.54313
428.99         66.3381
429.44        66.09942
429.88        65.79195
430.33        65.93869
430.77        66.32999
431.22        66.39455
431.66        66.16532
432.11        66.19395
432.56        66.53234
433.00        66.71149
433.45        66.47575
433.89        66.35547
434.34        66.49772
434.78        65.47471
435.23        65.10478
435.67        66.09408
436.12        66.64672
436.57        66.92353
437.01        66.41421
437.46        66.07885
437.90        66.60717
438.35        66.92448
438.79        66.66487
439.24         66.6257
439.68        66.65273
440.13        66.59566
440.57        66.46573
441.02        66.49461
441.46        66.65485
441.91        66.65261
442.35        66.49886
442.80        66.82975
443.24         67.4489
443.69        67.50977
444.13        67.03345
444.58        66.70843
445.02        66.62402
445.47        66.75229
445.91        66.99194
446.36        67.08238
446.80        66.98607
447.24        66.83897
447.69        66.70828
448.13        66.80213
448.58        66.88906
449.02        66.79249
449.47        66.51298
449.91        66.41544
450.36        66.53409
450.80        66.58855
451.25        66.57082
451.69        66.63324
452.13        66.71338
452.58        66.50133
453.02        66.06612
453.47        65.81023
453.91        65.75297
454.36        65.70375
454.80        65.62503
455.24        65.51678
455.69        65.35447
456.13        65.24587
456.58        65.23237
457.02        65.05172
457.46        64.37329
457.91        65.08035
458.35        65.00121
458.79        65.17706
459.24        65.00853
459.68        64.85027
460.13        64.78819
460.57        64.57448
461.01        64.23984
461.46        64.52588
461.90         64.1703
462.34         63.9981
462.79        64.06297
463.23        63.68369
463.68        64.27977
464.12        63.98996
464.56        63.39855
465.01        63.51746
465.45        64.10451
465.89        64.18014
466.34        63.79154
466.78        63.48152
467.22        63.25742
467.67         63.5544
468.11        62.86227
468.55        62.81108
468.99          62.907
469.44        62.89141
469.88        62.73677
470.32        62.59806
470.77        62.50003
471.21        62.37867
471.65        62.24341
472.10        62.11491
472.54         61.9998
472.98        61.93729
473.42        61.93332
473.87        61.96399
474.31        61.98468
474.75        62.07132
475.20         62.1763
475.64        62.13972
476.08        61.96944
476.52        61.87073
476.97         61.8419
477.41        61.77582
477.85        61.63115
478.29         61.7599
478.74        61.13577
479.18        61.46022
479.62        61.70942
480.06        61.59303
480.50        61.74873
480.95        61.77254
481.39        61.88438
481.83        61.67789
482.27        62.18891
482.72        61.55275
483.16        61.69359
483.60        61.89205
484.04        61.82747
484.48        61.59346
484.93        61.64871
485.37         61.3878
485.81        61.88756
486.25        61.49619
486.69        63.25872
487.14        63.51488
487.58        62.31504
488.02        61.64656
488.46        61.43767
488.90        61.70474
489.34        61.38191
489.79        60.62931
490.23        60.92081
490.67        61.03481
491.11        61.36845
491.55        61.30702
491.99        60.92324
492.43        60.77401
492.88        60.87719
493.32        60.93847
493.76        60.88494
494.20        60.87633
494.64        60.93234
495.08          60.641
495.52        60.59805
495.96         60.6975
496.41        60.97982
496.85        60.93843
497.29        60.57694
497.73        60.45918
498.17        60.29905
498.61        60.42008
499.05        60.63851
499.49        60.44155
499.93        59.97754
500.37         60.1226
500.82        60.73161
501.26        60.87658
501.70        60.52753
502.14        60.00337
502.58        59.90417
503.02        59.74402
503.46        59.65247
503.90        59.72003
504.34        59.87254
504.78        59.99012
505.22        60.05197
505.66        60.02671
506.10        59.93677
506.54        59.97046
506.98        60.16761
507.42        59.73077
507.86        60.31565
508.30        59.81335
508.74        60.05405
509.18        59.90575
509.62        59.80369
510.06        59.76818
510.50        59.78225
510.94        59.76711
511.38        59.69046
511.82        59.60608
512.26         59.5105
512.70        59.37164
513.14        59.22578
513.58        59.15038
514.02        59.15778
514.46        59.22331
514.90        59.29495
515.34        59.32853
515.78        59.31187
516.22        59.22724
516.66        58.95712
517.10        59.16662
517.54        58.94753
517.98        59.00535
518.42        59.05362
518.86        59.09643
519.30        59.12284
519.74        59.10554
520.18        59.08001
520.62        59.17042
521.06        59.33612
521.50        59.34923
521.93        59.21564
522.37        59.13713
522.81         59.1257
523.25        59.06738
523.69        58.96429
524.13        58.87334
524.57        58.80153
525.01         58.7383
525.45        58.69415
525.89        58.68337
526.32        58.70335
526.76        58.75317
527.20        58.81397
527.64         58.8572
528.08        58.87319
528.52        58.86986
528.96        58.85265
529.40        58.82547
529.83        58.78971
530.27        58.77006
530.71        58.75665
531.15        58.73195
531.59        58.69672
532.03        58.66592
532.46        58.63626
532.90        58.61397
533.34        58.59638
533.78         58.5809
534.22        58.57483
534.66        58.58937
535.09        58.61532
535.53        58.66804
535.97        58.71418
536.41        58.71836
536.85        58.67506
537.28        58.59359
537.72        58.50845
538.16        58.47834
538.60        58.51219
539.04        58.58982
539.47        58.65733
539.91        58.68118
540.35         58.6362
540.79        58.54836
541.22        58.44292
541.66        58.37186
542.10        58.34856
542.54        58.35736
542.97        58.38801
543.41        58.45622
543.85        58.54527
544.29         58.6542
544.72        58.74989
545.16        58.81042
545.60        58.81721
546.04         58.7793
546.47         58.7229
546.91        58.68958
547.35        58.69336
547.79        58.73948
548.22        58.77467
548.66         58.7588
549.10        58.68211
549.53        58.53299
549.97        58.36657
550.41        58.27437
550.84        58.26717
551.28        58.32442
551.72        58.41912
552.15        58.44625
552.59        58.38972
553.03        58.53571
553.46        58.40375
553.90        58.38207
554.34        58.32649
554.77        58.24143
555.21         58.1791
555.65        58.20762
556.08        58.32631
556.52        58.54292
556.96        58.76706
557.39        58.82318
557.83        58.72311
558.27        58.59267
558.70        58.48122
559.14        58.38869
559.57        58.32174
560.01        58.36804
560.45        58.47387
560.88        58.44548
561.32        58.35145
561.75        58.36421
562.19        58.48848
562.63        58.55481
563.06        58.52103
563.50        58.35974
563.93         58.1273
564.37        58.04818
564.80        58.11462
565.24        58.23641
565.68        58.36916
566.11        58.46834
566.55        58.52839
566.98         58.6012
567.42        58.68099
567.85        58.59797
568.29        58.47366
568.72        58.53135
569.16        58.75454
569.60        59.07765
570.03        59.02442
570.47        59.10091
570.90        59.14199
571.34        59.27459
571.77        59.63309
572.21        59.31473
572.64        59.51622
573.08        59.30909
573.51        59.28633
573.95        59.66651
574.38        59.49612
574.82        60.34759
