SpectraSmart Spectrum 2.9.0.0
--------- Device Information -----------
Spectrum Name :  反射率_0
Saving Time :  2024/04/21 00:36:08
Spectro-Module Model Name : SE2030-DUVN
Spectro-Module Serial Number : OS361AC55029948
Wavelength Start : 200
Wavelength End : 1025
Wavelength Unit : Wavelength(nm)
Spectrum Unit : Reflectance(%)
-----------Spectrum Setting ------------
Integration Time : 20ms
Average : 10
Boxcar : 0
Background removal :  enabled
linearity correction :  enabled
SC :  disabled
Intensity correction :  disabled
DWT denoise :  enabled
savitzky-golay :  disabled
FFT :  disabled
Running average :  disabled
Kalman :  disabled
High pass :  disabled
---------------BEGIN--------------------
Wavelength(nm)             Reflectance(%)
200.29               0
200.75       -23.80608
201.21       -2.050698
201.67        8.077162
202.13        13.72831
202.58        17.88578
203.04        22.56688
203.50        26.19623
203.96        24.01485
204.42        14.59715
204.88      -0.8787778
205.34       -15.65411
205.80       -21.45567
206.26       -15.90325
206.72        4.420217
207.18        29.91155
207.64        33.35007
208.10        4.355441
208.55       -47.81166
209.01        -86.3391
209.47       -65.10026
209.93        -19.1295
210.39        19.97264
210.85        45.71807
211.31        57.80395
211.77        60.33723
212.23        56.30004
212.69        41.95397
213.14        9.133439
213.60       -61.09839
214.06       -283.0703
214.52       -822.7991
214.98       -375.8909
215.44       -91.42888
215.90        5.400167
216.36        38.38181
216.81        43.97968
217.27        29.49295
217.73       -53.66454
218.19        960.8471
218.65         420.308
219.11       -831.5048
219.57       -10.67735
220.02        40.62033
220.48        48.49447
220.94        40.78435
221.40        14.65997
221.86       -47.88752
222.32       -92.07694
222.77       -39.99725
223.23        7.971215
223.69        32.64985
224.15        41.05161
224.61         40.9787
225.06        37.05786
225.52        31.10606
225.98        25.45476
226.44        21.36614
226.90          17.025
227.36        15.10217
227.81        19.92129
228.27        28.18843
228.73        36.45826
229.19        41.43071
229.65        41.09846
230.10        36.08323
230.56        27.50269
231.02        16.81285
231.48        10.17422
231.93        11.69203
232.39        18.75478
232.85        26.47641
233.31        30.86242
233.77        32.11639
234.22        31.97173
234.68        30.72652
235.14        28.86545
235.60        27.02022
236.05        24.21475
236.51        20.88604
236.97        24.03168
237.43        34.35817
237.88        41.43247
238.34        41.05802
238.80        62.65099
239.26        52.99747
239.71        50.75082
240.17        42.19073
240.63        33.85848
241.08        30.37052
241.54        34.93744
242.00        46.08766
242.46        51.36959
242.91        47.21738
243.37        33.86643
243.83        14.90312
244.28         6.03186
244.74        15.92008
245.20         35.3704
245.66        54.01464
246.11        62.42262
246.57         59.6616
247.03         48.9607
247.48        32.07079
247.94        10.99981
248.40       -18.99741
248.85       -87.54909
249.31       -301.8335
249.77       -512.8626
250.22       -200.6245
250.68       -56.99032
251.14       -6.074722
251.59        13.70571
252.05        23.28138
252.51        30.21748
252.96        35.03904
253.42         36.8249
253.88        35.10398
254.33        31.19318
254.79        30.99069
255.25        37.02053
255.70        45.21424
256.16        52.48359
256.62        57.57133
257.07        59.91059
257.53         60.6824
257.99        60.62298
258.44        59.71531
258.90        58.56728
259.35          56.932
259.81        55.28061
260.27        53.82282
260.72        52.89904
261.18        52.67357
261.63        52.60243
262.09        52.47318
262.55        51.68373
263.00        50.22545
263.46        48.55901
263.91        46.88246
264.37        45.85846
264.83        45.44135
265.28        45.34063
265.74        45.37068
266.19        45.10701
266.65        44.53426
267.11        43.72816
267.56        42.76925
268.02        41.86425
268.47         41.0205
268.93          40.216
269.38        39.36299
269.84        38.40193
270.30        37.32046
270.75        36.16594
271.21        35.07014
271.66        34.15434
272.12        33.47025
272.57        32.95255
273.03        32.50827
273.48        31.95814
273.94         31.2861
274.39        30.50991
274.85        29.75055
275.31        29.11983
275.76         28.6363
276.22        28.29655
276.67        27.99817
277.13        27.67366
277.58        27.27398
278.04        26.85544
278.49        26.45731
278.95        26.21191
279.40        26.07993
279.86        26.03646
280.31        25.94337
280.77         25.6892
281.22        25.22888
281.68        24.67692
282.13        24.08912
282.59         23.6216
283.04        23.28385
283.50        23.04706
283.95        22.89673
284.41        22.84004
284.86        22.84854
285.32        22.93653
285.77        23.01317
286.22        22.95809
286.68        22.78039
287.13        22.48375
287.59        22.22706
288.04        22.14893
288.50        22.24865
288.95        22.59033
289.41        23.08928
289.86        23.12819
290.32        22.59911
290.77        23.50043
291.22        22.62296
291.68        22.72374
292.13        22.87812
292.59        23.15427
293.04        23.55126
293.50        24.14408
293.95        24.94857
294.40        25.91294
294.86        26.98028
295.31        28.04491
295.77         29.0711
296.22         30.0726
296.68        31.06483
297.13        32.06872
297.58        33.11686
298.04        34.20863
298.49        35.38369
298.95        36.72572
299.40        38.21928
299.85        39.83335
300.31        41.47926
300.76        43.00195
301.21        44.36863
301.67        45.63638
302.12        46.85435
302.58        48.19196
303.03        49.66769
303.48        51.29785
303.94        53.01878
304.39        54.68472
304.84        56.27531
305.30        57.83491
305.75        59.44419
306.20        61.31736
306.66        63.45642
307.11        65.72417
307.57        67.92397
308.02        69.70827
308.47        71.04063
308.93        72.07378
309.38        72.97436
309.83        74.03666
310.29         75.4353
310.74        76.98463
311.19        78.58292
311.65        80.01588
312.10        81.20399
312.55        82.21495
313.00        83.13266
313.46        84.08706
313.91        85.09362
314.36        86.11328
314.82        87.06357
315.27        87.82214
315.72         88.3804
316.18        88.78922
316.63        89.16438
317.08        89.68962
317.53        90.39909
317.99        91.22692
318.44        92.04638
318.89        92.64021
319.35        92.95561
319.80        93.07151
320.25        93.09418
320.70        93.20219
321.16        93.44393
321.61        93.77882
322.06          94.157
322.51        94.50666
322.97        94.78755
323.42        95.06282
323.87         95.3176
324.32        95.53697
324.78        95.70715
325.23         95.8587
325.68        96.01077
326.13        96.23082
326.59        96.50869
327.04        96.87457
327.49        97.26295
327.94        97.59168
328.39         97.8393
328.85        98.00515
329.30        98.17912
329.75        98.39243
330.20        98.66241
330.66        98.92994
331.11        99.25418
331.56        99.60775
332.01         99.9837
332.46        100.3937
332.92        100.7436
333.37        101.0049
333.82        101.1281
334.27         101.144
334.72        101.1775
335.17        101.4382
335.63        101.9477
336.08         102.703
336.53        103.5429
336.98        104.2366
337.43        104.7098
337.88        105.0192
338.34        105.2339
338.79         105.531
339.24        105.9385
339.69        106.4048
340.14        106.8801
340.59        107.2975
341.05        107.6422
341.50        107.9523
341.95        108.2616
342.40        108.6215
342.85        109.0406
343.30        109.4919
343.75        109.9326
344.20        110.3025
344.66        110.5951
345.11        110.8177
345.56        111.0018
346.01        111.1922
346.46        111.4114
346.91         111.642
347.36        111.8724
347.81        112.1253
348.26        112.4014
348.72        112.5525
349.17        112.8314
349.62        113.0524
350.07        113.2901
350.52         113.525
350.97        113.6949
351.42        113.6989
351.87        113.5189
352.32        113.1907
352.77        112.8099
353.22        112.5197
353.67        112.3559
354.13        112.3019
354.58        112.2448
355.03        112.0551
355.48        111.7002
355.93        111.2146
356.38        110.7037
356.83        110.3251
357.28        110.0974
357.73        109.9641
358.18        109.7778
358.63        109.3086
359.08        108.5254
359.53        107.5268
359.98        106.4935
360.43        105.6934
360.88        105.1867
361.33        104.8828
361.78         104.659
362.23        104.3214
362.68        103.8055
363.13        103.1678
363.58        102.4481
364.03        101.7063
364.48        100.9673
364.93        100.2078
365.38        99.42948
365.83          98.647
366.28        97.86829
366.73        97.10126
367.18         96.3623
367.63        95.66759
368.08        95.01933
368.53        94.41827
368.98        93.82093
369.43        93.15013
369.88        92.38726
370.33        91.54652
370.78        90.69677
371.23        89.97343
371.68        89.42155
372.13         89.0091
372.58        88.66433
373.03        88.25998
373.48        87.75587
373.93         87.1863
374.38        86.59647
374.83        86.07028
375.28        85.63268
375.72        85.23034
376.17        84.86062
376.62        84.45327
377.07        83.98205
377.52        83.46094
377.97        82.89692
378.42        82.31592
378.87        81.74898
379.32        81.20605
379.77        80.70033
380.22        80.23571
380.67        79.79874
381.11        79.38428
381.56        78.97735
382.01        78.57488
382.46        78.18145
382.91        77.80367
383.36        77.41957
383.81         76.9944
384.26        76.52283
384.71        76.01375
385.15        75.50137
385.60        75.10145
386.05         74.8083
386.50        74.59853
386.95        74.40327
387.40        74.12089
387.85        73.73864
388.29        73.24827
388.74        72.81803
389.19        72.48856
389.64        72.26646
390.09        72.12198
390.54        71.98543
390.98        71.73447
391.43        71.38811
391.88        70.97581
392.33         70.5898
392.78        70.33482
393.23        70.21873
393.67        70.22706
394.12        70.32106
394.57        70.13544
395.02        69.70189
395.47        69.40203
395.91        69.27749
396.36        69.05248
396.81        68.76679
397.26        68.64133
397.71        68.58675
398.15        68.39454
398.60        68.13676
399.05        67.64723
399.50        67.14027
399.95        67.28786
400.39         67.9319
400.84        68.10383
401.29        67.71344
401.74        67.25661
402.18        66.85506
402.63        66.53111
403.08        66.29714
403.53         65.9861
403.97        65.62265
404.42        65.42962
404.87        65.39463
405.32         65.4074
405.76         65.4441
406.21         65.4679
406.66        65.44859
407.11        65.54553
407.55        65.66716
408.00        65.31255
408.45        64.62662
408.90        64.25146
409.34        64.28455
409.79        64.51476
410.24        64.77617
410.68        64.84437
411.13        64.66736
411.58        64.35178
412.03        64.01033
412.47          63.827
412.92        63.83633
413.37         63.9884
413.81         64.1783
414.26        64.30145
414.71        64.30959
415.15        64.26489
415.60        64.17088
416.05        64.08678
416.49        64.03929
416.94        63.99463
417.39        63.97442
417.83         64.0079
418.28        64.09618
418.73         64.2325
419.17        64.35515
419.62        64.36915
420.07        64.25228
420.51        64.02869
420.96        63.80088
421.41        63.65305
421.85        63.58171
422.30        63.67467
422.74        63.82708
423.19        63.81316
423.64        63.67023
424.08        63.84492
424.53        64.22742
424.98        64.36636
425.42        64.23046
425.87        64.03909
426.31        63.90259
426.76        63.86216
427.21        63.95934
427.65        64.25229
428.10        64.56073
428.54        64.66585
428.99        64.57647
429.44        64.24438
429.88        63.83987
430.33        63.94354
430.77        64.37871
431.22        64.62174
431.66        64.60899
432.11        64.60143
432.56        64.68453
433.00         64.6761
433.45        64.42605
433.89        64.48118
434.34        64.97867
434.78         63.8987
435.23         64.2451
435.67        64.88201
436.12        65.10062
436.57        65.15269
437.01        64.73803
437.46        64.46367
437.90        65.04679
438.35        64.93137
438.79         65.1984
439.24        65.22184
439.68        65.26602
440.13        65.31674
440.57         65.3766
441.02        65.39795
441.46        65.40119
441.91        65.56055
442.35        65.74979
442.80        66.03192
443.24        66.29661
443.69        66.25377
444.13         65.9541
444.58        65.86584
445.02        65.88333
445.47        65.98705
445.91        66.08681
446.36          66.166
446.80        66.19589
447.24        66.18281
447.69        66.15459
448.13        66.24464
448.58        66.26801
449.02        66.25668
449.47        66.17712
449.91        66.18253
450.36        66.27402
450.80        66.21214
451.25        66.06236
451.69        66.11729
452.13        66.33395
452.58        66.32872
453.02         66.0965
453.47        65.95268
453.91        65.89487
454.36         65.7569
454.80        65.55145
455.24        65.39454
455.69        65.31613
456.13        65.25488
456.58         65.1982
457.02        65.18811
457.46        64.89813
457.91        64.83257
458.35        64.95096
458.79        64.89966
459.24        64.73376
459.68        64.55277
460.13        64.42928
460.57        64.29761
461.01        64.18327
461.46        63.90967
461.90        64.23377
462.34        63.55264
462.79        63.84029
463.23         63.7517
463.68        63.83286
464.12        63.63496
464.56        63.28805
465.01        63.41808
465.45        63.84203
465.89        64.00833
466.34        63.90279
466.78        63.79367
467.22        63.68655
467.67        63.59313
468.11        63.01171
468.55        62.82278
468.99        62.84661
469.44        62.74619
469.88        62.51196
470.32        62.36196
470.77        62.31223
471.21        62.25813
471.65        62.18924
472.10        62.13507
472.54        62.08415
472.98        62.01554
473.42        61.92846
473.87        61.90258
474.31        61.89352
474.75        61.78683
475.20        61.62008
475.64        61.68792
476.08        61.96843
476.52        62.02324
476.97        61.76653
477.41        62.01788
477.85        62.22101
478.29        61.61871
478.74        61.24195
479.18        61.66686
479.62        61.85711
480.06         61.9451
480.50        61.85838
480.95        61.82708
481.39        61.92919
481.83        61.61113
482.27        62.09311
482.72        61.59027
483.16        61.66318
483.60        61.91034
484.04        61.89435
484.48        61.66645
484.93        61.65189
485.37        61.49493
485.81        61.80851
486.25        61.30267
486.69        63.35947
487.14        63.53546
487.58        62.20219
488.02        61.91939
488.46        61.12982
488.90        61.46435
489.34        61.28081
489.79        61.11876
490.23        61.31224
490.67        61.35222
491.11        61.42893
491.55        61.28291
491.99        61.01186
492.43        60.89616
492.88        60.96505
493.32        61.12351
493.76        61.25354
494.20        61.31244
494.64        61.29544
495.08        60.88004
495.52        60.70802
495.96         60.6885
496.41        60.91304
496.85        60.99205
497.29        60.85391
497.73         60.8571
498.17        60.70615
498.61        60.76748
499.05        60.87511
499.49        60.73844
499.93         60.4468
500.37         60.3044
500.82         60.3336
501.26        60.61502
501.70        61.00676
502.14        60.64964
502.58        60.15967
503.02        59.92099
503.46        60.07507
503.90        60.21862
504.34        60.26389
504.78        60.29733
505.22         60.2916
505.66        60.21832
506.10        60.14593
506.54        60.09919
506.98        60.06811
507.42        60.08758
507.86         60.5977
508.30        59.86594
508.74        60.33982
509.18        60.13182
509.62        59.97173
510.06        59.88287
510.50        59.87546
510.94        59.84253
511.38        59.75187
511.82        59.68332
512.26        59.63233
512.70        59.56079
513.14        59.48759
513.58        59.47375
514.02        59.52565
514.46        59.59636
514.90        59.63657
515.34        59.74009
515.78        59.69011
516.22        59.63395
516.66        59.38279
517.10        59.58934
517.54         59.3512
517.98        59.37381
518.42        59.38941
518.86        59.42065
519.30        59.46112
519.74        59.47687
520.18        59.48511
520.62        59.58313
521.06        59.72395
521.50        59.68639
521.93        59.49666
522.37        59.38942
522.81        59.38598
523.25        59.36518
523.69        59.30905
524.13         59.2437
524.57        59.16909
525.01        59.08122
525.45        59.01596
525.89        59.02773
526.32        59.11896
526.76        59.27363
527.20        59.43224
527.64         59.5038
528.08        59.46647
528.52        59.34927
528.96        59.20496
529.40        59.10861
529.83        59.08103
530.27        59.13158
530.71         59.2088
531.15        59.22889
531.59        59.17566
532.03        59.07835
532.46        58.98426
532.90         58.9775
533.34        59.06215
533.78        59.21498
534.22        59.36795
534.66        59.39016
535.09        59.24994
535.53        59.12558
535.97           58.87
536.41        58.75023
536.85        58.73445
537.28        58.79407
537.72        58.89326
538.16        58.97835
538.60         59.0276
539.04        59.05694
539.47        59.05306
539.91        59.04356
540.35        59.01812
540.79        58.97347
541.22        58.91876
541.66        58.88528
542.10        58.87619
542.54        58.88731
542.97        58.90019
543.41        58.91361
543.85        58.91544
544.29        58.91569
544.72        58.90835
545.16        58.91217
545.60        58.91595
546.04         58.9197
546.47        58.93329
546.91        58.94831
547.35        58.96692
547.79        59.06192
548.22        59.16798
548.66        59.11343
549.10         58.9404
549.53        58.87521
549.97        58.93232
550.41        58.93128
550.84        58.86803
551.28        58.86063
551.72        58.91192
552.15        58.94702
552.59          58.969
553.03        59.07349
553.46        59.07988
553.90        59.09332
554.34        59.05078
554.77        58.95347
555.21        58.85542
555.65        58.81231
556.08        58.82702
556.52        58.95232
556.96        59.10302
557.39        59.04647
557.83        58.81623
558.27        58.70821
558.70        58.65704
559.14        58.66253
559.57        58.68428
560.01         58.9137
560.45        59.21087
560.88         59.1559
561.32        58.85466
561.75        58.65542
562.19        58.65916
562.63         58.7928
563.06        58.96201
563.50        58.95818
563.93        58.79345
564.37        58.59046
564.80        58.61909
565.24        58.72712
565.68        58.92992
566.11         59.0064
566.55        58.96894
566.98        59.02426
567.42        59.16323
567.85        59.11172
568.29        58.96339
568.72        58.97596
569.16        59.17499
569.60        59.33548
570.03        59.36971
570.47        59.49165
570.90        59.63257
571.34        59.71459
571.77        59.61045
572.21         59.8634
572.64        59.66784
573.08        59.57978
573.51        59.41062
573.95        59.80668
574.38        59.78034
574.82        60.42687
