SpectraSmart Spectrum 2.9.0.0
--------- Device Information -----------
Spectrum Name :  反射率_0
Saving Time :  2024/04/21 00:06:59
Spectro-Module Model Name : SE2030-DUVN
Spectro-Module Serial Number : OS361AC55029948
Wavelength Start : 200
Wavelength End : 1025
Wavelength Unit : Wavelength(nm)
Spectrum Unit : Reflectance(%)
-----------Spectrum Setting ------------
Integration Time : 20ms
Average : 10
Boxcar : 0
Background removal :  enabled
linearity correction :  enabled
SC :  disabled
Intensity correction :  disabled
DWT denoise :  enabled
savitzky-golay :  disabled
FFT :  disabled
Running average :  disabled
Kalman :  disabled
High pass :  disabled
---------------BEGIN--------------------
Wavelength(nm)             Reflectance(%)
200.29               0
200.75        78.76311
201.21        75.64308
201.67        69.00777
202.13        65.03029
202.58          62.702
203.04         60.4868
203.50          57.543
203.96        53.11383
204.42        47.41977
204.88        41.41945
205.34         35.3369
205.80         27.9499
206.26        18.35721
206.72        7.794864
207.18       -3.698133
207.64       -15.69273
208.10       -24.44154
208.55       -29.05486
209.01       -20.16267
209.47        6.799448
209.93        32.71313
210.39        50.41247
210.85        61.17753
211.31        67.21102
211.77        70.78851
212.23        73.42831
212.69        74.22191
213.14        68.20296
213.60        40.15641
214.06        -69.9819
214.52       -393.0631
214.98       -198.8112
215.44       -38.83483
215.90         19.9399
216.36        40.91953
216.81        44.87322
217.27        36.36245
217.73       -13.23922
218.19        598.0092
218.65        278.4842
219.11       -532.5019
219.57        1.940765
220.02        35.98147
220.48        41.57293
220.94        37.47843
221.40        22.72665
221.86       -11.66032
222.32       -31.23645
222.77        2.582445
223.23        30.35017
223.69        43.94074
224.15        48.36198
224.61        48.01269
225.06        45.35079
225.52        41.04539
225.98        35.63984
226.44        29.85722
226.90        22.87918
227.36        17.94499
227.81        20.93733
228.27        29.06352
228.73        37.76136
229.19        43.58147
229.65        44.77872
230.10        42.13044
230.56        37.08892
231.02        30.29359
231.48        24.77193
231.93        23.37989
232.39        25.41878
232.85        28.68924
233.31         31.0951
233.77         32.6246
234.22        34.34428
234.68        35.90004
235.14        36.45454
235.60        36.01923
236.05        34.06942
236.51        31.37933
236.97        34.79879
237.43        44.99922
237.88        52.72383
238.34         54.6598
238.80        72.53685
239.26        66.29881
239.71        64.85561
240.17        58.32288
240.63          52.124
241.08        50.41415
241.54        55.30557
242.00        65.69365
242.46        72.98956
242.91          75.145
243.37        72.46455
243.83        66.53683
244.28        63.67147
244.74        67.17979
245.20        73.83806
245.66        78.53956
246.11        75.95121
246.57        65.66846
247.03         49.3521
247.48        29.88744
247.94        12.18128
248.40        -3.99828
248.85       -28.59678
249.31       -80.20838
249.77       -81.56121
250.22        8.718672
250.68        35.55596
251.14        43.14203
251.59        47.29598
252.05        51.72736
252.51         57.2815
252.96        62.90301
253.42        64.60708
253.88        60.09422
254.33        52.92658
254.79        49.47106
255.25        51.89174
255.70        57.10935
256.16        62.62249
256.62        66.90067
257.07        69.28602
257.53        70.64645
257.99        71.13889
258.44        70.88749
258.90        70.76271
259.35         70.1974
259.81        69.59646
260.27        68.50682
260.72        66.59358
261.18        64.53923
261.63        62.35884
262.09        60.56834
262.55        59.13988
263.00        57.92274
263.46        57.01292
263.91        56.20828
264.37        55.72507
264.83        55.42037
265.28        55.17794
265.74        54.95577
266.19        54.45303
266.65        53.70658
267.11        52.70977
267.56         51.5449
268.02         50.4534
268.47        49.43658
268.93        48.49489
269.38        47.48718
269.84        46.26387
270.30        44.81107
270.75        43.21732
271.21        41.71809
271.66        40.58655
272.12        39.90165
272.57        39.52982
273.03        39.29009
273.48        38.85742
273.94        38.18855
274.39        37.34698
274.85        36.48368
275.31        35.74907
275.76        35.17112
276.22        34.71542
276.67        34.31139
277.13        33.96347
277.58        33.60126
278.04        33.26656
278.49        32.87665
278.95        32.40819
279.40        31.81339
279.86        31.15497
280.31        30.44129
280.77        29.78707
281.22        29.18736
281.68        28.69197
282.13        28.24308
282.59        27.83991
283.04        27.45079
283.50        27.10346
283.95        26.84864
284.41        26.79617
284.86        26.93077
285.32        27.22497
285.77        27.51823
286.22        27.60666
286.68         27.4818
287.13        27.16734
287.59         26.8802
288.04        26.84118
288.50        27.06612
288.95        27.57284
289.41        28.21089
289.86         28.2892
290.32        27.70185
290.77        28.36911
291.22        27.36801
291.68        27.39346
292.13        27.60707
292.59         28.0392
293.04        28.66423
293.50        29.51302
293.95        30.58198
294.40        31.84574
294.86        33.22388
295.31        34.56936
295.77        35.84501
296.22        37.06052
296.68         38.2986
297.13        39.69077
297.58        41.27826
298.04        43.01354
298.49        44.82992
298.95         46.6417
299.40        48.39967
299.85         50.1505
300.31        51.89382
300.76        53.59595
301.21         55.2791
301.67        56.97137
302.12        58.72297
302.58           60.73
303.03         62.9727
303.48        65.42872
303.94        67.96769
304.39        70.32483
304.84         72.4434
305.30        74.40727
305.75        76.26627
306.20        78.21995
306.66        80.31619
307.11         82.4383
307.57        84.54144
308.02        86.47456
308.47        88.23451
308.93        89.89714
309.38        91.47161
309.83         93.0502
310.29        94.67913
310.74        96.27328
311.19        97.78968
311.65        99.13882
312.10        100.2848
312.55        101.2685
313.00        102.1501
313.46        103.0279
313.91        103.9127
314.36        104.7897
314.82         105.633
315.27        106.3868
315.72         107.053
316.18        107.6598
316.63        108.2309
317.08        108.8032
317.53        109.3814
317.99        109.9394
318.44        110.4692
318.89        110.9458
319.35        111.3568
319.80        111.7224
320.25        112.0257
320.70        112.2461
321.16        112.3798
321.61        112.4526
322.06        112.5153
322.51        112.6581
322.97        112.8854
323.42        113.2175
323.87        113.5715
324.32        113.8248
324.78        113.9279
325.23        113.9559
325.68        113.9733
326.13        114.1202
326.59        114.4036
327.04        114.8368
327.49        115.3086
327.94        115.6728
328.39        115.8857
328.85        115.9534
329.30        116.0211
329.75        116.1871
330.20        116.4894
330.66        116.8532
331.11        117.2798
331.56        117.6213
332.01        117.8491
332.46        118.0057
332.92        118.1113
333.37        118.3532
333.82        118.7212
334.27        119.1851
334.72         119.709
335.17        120.2347
335.63        120.7038
336.08        121.1934
336.53        121.6838
336.98         122.195
337.43         122.728
337.88        123.2671
338.34        123.7599
338.79        124.1952
339.24        124.5393
339.69         124.806
340.14        125.0443
340.59        125.3348
341.05        125.6982
341.50        126.1246
341.95        126.5647
342.40        126.9391
342.85        127.2282
343.30        127.4581
343.75        127.6683
344.20        127.9247
344.66        128.2498
345.11        128.5947
345.56        128.9318
346.01        129.2198
346.46        129.4522
346.91        129.6206
347.36        129.7121
347.81        129.7996
348.26        129.9106
348.72        129.6949
349.17        129.8096
349.62        129.8272
350.07        129.9433
350.52        130.1037
350.97        130.2521
351.42        130.2856
351.87        130.1598
352.32        129.9052
352.77        129.5318
353.22         129.052
353.67         128.493
354.13        127.8928
354.58         127.262
355.03        126.6776
355.48        126.1625
355.93        125.6891
356.38        125.2847
356.83        124.9798
357.28        124.7458
357.73        124.5608
358.18        124.2754
358.63         123.659
359.08        122.6884
359.53        121.4506
359.98        120.1592
360.43        119.1418
360.88        118.4688
361.33        118.0402
361.78        117.6962
362.23         117.176
362.68         116.408
363.13        115.4811
363.58        114.4732
364.03        113.5045
364.48        112.6113
364.93        111.7353
365.38        110.8709
365.83        110.0223
366.28         109.181
366.73        108.3608
367.18        107.5183
367.63        106.5745
368.08        105.5311
368.53        104.4287
368.98        103.3385
369.43        102.3572
369.88        101.5052
370.33          100.75
370.78        100.0594
371.23        99.39394
371.68        98.73538
372.13        98.08298
372.58        97.44067
373.03        96.80264
373.48        96.15524
373.93        95.49888
374.38        94.78611
374.83        93.95859
375.28        93.03799
375.72        92.04881
376.17        91.14178
376.62        90.44794
377.07        89.97302
377.52        89.65485
377.97        89.38275
378.42        88.98413
378.87         88.4201
379.32        87.75549
379.77        87.05344
380.22        86.39023
380.67           85.78
381.11        85.19603
381.56        84.62629
382.01        84.08536
382.46        83.58618
382.91        83.14088
383.36        82.73355
383.81        82.32787
384.26        81.90971
384.71        81.48125
385.15        81.03992
385.60        80.65185
386.05        80.29845
386.50        79.96453
386.95        79.62416
387.40        79.24761
387.85         78.8415
388.29        78.37806
388.74        77.97915
389.19        77.61118
389.64        77.26296
390.09        76.90868
390.54        76.55611
390.98        76.21111
391.43        75.92518
391.88        75.69283
392.33        75.46142
392.78        75.18665
393.23        74.87409
393.67        74.40425
394.12        73.96118
394.57        73.87535
395.02        74.03845
395.47        73.83896
395.91        73.31882
396.36        73.02976
396.81        73.00828
397.26        72.95915
397.71        72.79113
398.15        72.48302
398.60        72.11317
399.05        71.59328
399.50        71.09805
399.95        70.96709
400.39        71.17417
400.84        71.40919
401.29        71.52397
401.74        71.31591
402.18        70.83515
402.63        70.45536
403.08        70.22919
403.53        69.90836
403.97        69.52959
404.42        69.32775
404.87        69.26824
405.32        69.21404
405.76        69.13409
406.21        69.02019
406.66        68.89234
407.11        68.89999
407.55        68.99735
408.00         68.8914
408.45        68.58849
408.90        68.21074
409.34        67.86292
409.79        67.76377
410.24        67.87852
410.68        67.92963
411.13         67.8987
411.58        67.97218
412.03        68.11583
412.47        68.17097
412.92        68.08958
413.37        67.94267
413.81         67.7801
414.26         67.6937
414.71        67.74551
415.15        67.86456
415.60        67.98985
416.05        68.04533
416.49        68.00634
416.94        67.89455
417.39        67.74053
417.83        67.58015
418.28        67.43589
418.73        67.29752
419.17        67.17589
419.62        67.10055
420.07         67.0728
420.51        67.07904
420.96        67.12925
421.41        67.17073
421.85        67.16576
422.30        67.20248
422.74         67.2423
423.19        67.26601
423.64        67.28757
424.08        67.48327
424.53         67.7604
424.98        67.92537
425.42        67.96558
425.87        67.96891
426.31        67.98435
426.76        68.03403
427.21        68.13316
427.65        68.31294
428.10        68.49944
428.54        68.58647
428.99        68.59073
429.44        68.61386
429.88        68.62713
430.33        68.48016
430.77        68.23749
431.22        68.37284
431.66        68.75961
432.11        68.99172
432.56        69.03732
433.00        68.69575
433.45        67.96545
433.89        68.12451
434.34         69.1652
434.78        68.24697
435.23        67.99042
435.67         68.6614
436.12        69.23205
436.57        69.61389
437.01         69.3588
437.46          69.076
437.90        69.48543
438.35        69.51906
438.79        69.33916
439.24        69.27551
439.68        69.32836
440.13        69.45938
440.57        69.60968
441.02        69.72313
441.46        69.76875
441.91        69.75789
442.35        69.69205
442.80        69.94514
443.24        70.38422
443.69        70.54073
444.13        70.37379
444.58        70.16897
445.02        70.00137
445.47        70.06597
445.91        70.28561
446.36        70.33352
446.80        70.18355
447.24        70.00964
447.69        69.90213
448.13        70.05392
448.58        70.24924
449.02        70.42263
449.47        70.47686
449.91        70.52579
450.36        70.57463
450.80        70.44657
451.25         70.2316
451.69        70.21188
452.13        70.35806
452.58        70.30343
453.02        70.05183
453.47        69.92422
453.91        69.91488
454.36        69.85266
454.80        69.72827
455.24        69.62261
455.69         69.5406
456.13        69.45441
456.58        69.38947
457.02        69.33558
457.46        68.87698
457.91        69.15664
458.35        68.82118
458.79        68.80692
459.24        68.74983
459.68        68.76095
460.13        68.86324
460.57        68.75206
461.01        68.40527
461.46        68.75364
461.90        68.33282
462.34        68.20165
462.79        67.98099
463.23        68.14381
463.68        68.69774
464.12        68.49302
464.56        67.73845
465.01        67.77688
465.45        68.38982
465.89          68.312
466.34        67.67252
466.78        67.52153
467.22        67.84452
467.67        67.86953
468.11        67.43123
468.55        67.25145
468.99        67.28542
469.44        67.20629
469.88        67.01109
470.32        66.83849
470.77        66.72269
471.21        66.65957
471.65         66.6513
472.10        66.69749
472.54        66.74077
472.98        66.71239
473.42        66.60151
473.87        66.45529
474.31        66.29064
474.75        66.20285
475.20        66.18835
475.64         66.2693
476.08        66.42394
476.52        66.41901
476.97        66.17075
477.41         66.4668
477.85        66.43299
478.29        65.93903
478.74        65.86448
479.18        66.08441
479.62        66.05471
480.06        66.14434
480.50        66.10456
480.95        66.15016
481.39        66.23479
481.83        66.07944
482.27        66.51369
482.72        66.11679
483.16        66.27802
483.60        66.52531
484.04        66.39102
484.48        66.21599
484.93        66.35651
485.37        66.22389
485.81        67.06083
486.25        66.21385
486.69        67.97269
487.14        68.01437
487.58        66.65543
488.02        66.90225
488.46        66.04144
488.90        66.29224
489.34        66.00898
489.79        65.80093
490.23        66.38429
490.67        66.40805
491.11        66.20313
491.55        65.94159
491.99        65.73104
492.43        65.57429
492.88        65.49579
493.32        65.54913
493.76        65.64413
494.20        65.71812
494.64        65.76768
495.08        65.49699
495.52        65.45399
495.96        65.55888
496.41        65.86528
496.85        65.96588
497.29        65.79713
497.73         65.7901
498.17        65.62448
498.61         65.6436
499.05        65.68727
499.49        65.49695
499.93        65.17636
500.37        65.07807
500.82        65.19691
501.26        65.47935
501.70        65.79501
502.14        65.46067
502.58        65.10543
503.02        64.90383
503.46        64.99903
503.90        65.08326
504.34        65.09242
504.78        65.13118
505.22        65.20384
505.66        65.18924
506.10        65.08487
506.54        65.17391
506.98        65.49182
507.42        64.89986
507.86        65.31255
508.30        65.06618
508.74        65.11359
509.18        65.03551
509.62        64.97701
510.06         65.0008
510.50        65.07361
510.94         65.1136
511.38        65.08703
511.82        65.02632
512.26        64.92528
512.70        64.75293
513.14        64.55335
513.58        64.41893
514.02        64.37099
514.46        64.39058
514.90        64.42822
515.34        64.43289
515.78        64.39278
516.22        64.30959
516.66        64.07186
517.10         64.3091
517.54        64.21846
517.98        64.40341
518.42        64.57275
518.86         64.6688
519.30        64.66938
519.74        64.56121
520.18        64.41919
520.62         64.4413
521.06        64.60123
521.50        64.63637
521.93        64.53587
522.37        64.48938
522.81        64.49957
523.25        64.45231
523.69        64.35609
524.13        64.28117
524.57        64.23622
525.01        64.20216
525.45        64.18398
525.89        64.19012
526.32        64.21592
526.76        64.26402
527.20          64.318
527.64        64.35275
528.08        64.36078
528.52        64.35047
528.96        64.32943
529.40         64.3032
529.83        64.27416
530.27        64.27066
530.71        64.27773
531.15        64.27017
531.59        64.24442
532.03        64.21113
532.46        64.17416
532.90        64.15266
533.34        64.14281
533.78         64.1451
534.22        64.14172
534.66        64.09322
535.09        63.98639
535.53        63.90429
535.97        63.77883
536.41        63.72097
536.85        63.71623
537.28        63.75382
537.72        63.81276
538.16        63.86209
538.60        63.88784
539.04        63.89465
539.47         63.8765
539.91        63.87746
540.35        63.88788
540.79        63.90878
541.22        63.92037
541.66        63.90762
542.10        63.86485
542.54        63.79438
542.97        63.73415
543.41        63.77373
543.85        63.91701
544.29        64.15067
544.72         64.3735
545.16        64.47929
545.60        64.43024
546.04        64.20116
546.47         63.9323
546.91        63.94717
547.35        64.21282
547.79        64.48398
548.22        64.62008
548.66         64.4671
549.10        64.12587
549.53        64.02534
549.97        64.18137
550.41        64.20427
550.84        64.09937
551.28        64.10575
551.72        64.19463
552.15        64.27605
552.59        64.36965
553.03        64.12253
553.46        64.22425
553.90        64.15863
554.34        64.12795
554.77        64.08981
555.21        64.07475
555.65        64.13911
556.08        64.25086
556.52        64.33282
556.96        64.36452
557.39        64.43082
557.83        64.51309
558.27        64.45961
558.70        64.29269
559.14        64.15363
559.57        64.06872
560.01        64.08511
560.45        64.15601
560.88        64.15405
561.32        64.12722
561.75        64.08791
562.19        64.09288
562.63        64.23266
563.06        64.42365
563.50        64.34743
563.93        64.05041
564.37         63.9282
564.80        63.99516
565.24        64.14862
565.68        64.32455
566.11        64.41518
566.55        64.41866
566.98        64.43093
567.42        64.47751
567.85        64.39861
568.29        64.28607
568.72        64.34196
569.16        64.60095
569.60        64.69411
570.03         64.9251
570.47        65.10475
570.90        65.18207
571.34        65.43373
571.77        65.38333
572.21        64.99355
572.64        65.04939
573.08        65.08363
573.51        65.15506
573.95        65.66761
574.38        65.38104
574.82        66.41207
