SpectraSmart Spectrum 2.9.0.0
--------- Device Information -----------
Spectrum Name :  反射率_0
Saving Time :  2024/04/21 00:41:06
Spectro-Module Model Name : SE2030-DUVN
Spectro-Module Serial Number : OS361AC55029948
Wavelength Start : 200
Wavelength End : 1025
Wavelength Unit : Wavelength(nm)
Spectrum Unit : Reflectance(%)
-----------Spectrum Setting ------------
Integration Time : 20ms
Average : 10
Boxcar : 0
Background removal :  enabled
linearity correction :  enabled
SC :  disabled
Intensity correction :  disabled
DWT denoise :  enabled
savitzky-golay :  disabled
FFT :  disabled
Running average :  disabled
Kalman :  disabled
High pass :  disabled
---------------BEGIN--------------------
Wavelength(nm)             Reflectance(%)
200.29               0
200.75       -33.35999
201.21        3.568383
201.67        24.08492
202.13        32.37135
202.58        33.51482
203.04         31.3936
203.50        25.99743
203.96        17.68284
204.42        8.182824
204.88       -2.766582
205.34       -12.21978
205.80       -17.03829
206.26       -16.36183
206.72       -6.706911
207.18        7.163798
207.64        10.50995
208.10       -2.163057
208.55       -27.40051
209.01       -43.77591
209.47        -25.3737
209.93        5.085626
210.39        29.84361
210.85        45.17894
211.31        50.52993
211.77        48.01587
212.23        38.03178
212.69        16.39113
213.14       -20.95981
213.60        -80.3246
214.06       -231.0608
214.52       -517.5776
214.98       -187.1767
215.44        -24.3755
215.90        25.45769
216.36        40.94548
216.81        42.25126
217.27         32.0881
217.73       -22.38962
218.19        642.7632
218.65        294.0676
219.11       -582.8297
219.57       -4.624508
220.02        31.98237
220.48        37.09914
220.94        30.74626
221.40        10.68875
221.86       -35.69664
222.32       -63.94938
222.77       -20.35523
223.23        16.62957
223.69        35.50817
224.15        42.92913
224.61        44.74733
225.06        44.15194
225.52        41.66464
225.98        37.29636
226.44        31.51741
226.90        23.52895
227.36         16.9155
227.81        18.68093
228.27        26.47217
228.73        35.39261
229.19         41.4153
229.65        42.35023
230.10        38.95893
230.56        32.74643
231.02        24.79111
231.48        19.42913
231.93        19.86963
232.39        24.43874
232.85        29.83855
233.31        33.33295
233.77        35.06592
234.22        36.37092
234.68        37.14623
235.14        37.05107
235.60        36.29043
236.05         34.1527
236.51         31.3365
236.97        34.56247
237.43        44.47137
237.88        51.89634
238.34        53.18202
238.80        70.69368
239.26        62.10767
239.71        57.87562
240.17        47.10961
240.63        36.80115
241.08        32.74786
241.54        38.53853
242.00        52.64259
242.46        62.37349
242.91        64.37135
243.37        59.41473
243.83        49.17164
244.28        42.31349
244.74        44.35736
245.20        50.53877
245.66        55.90533
246.11         55.6978
246.57        49.37413
247.03        39.30899
247.48         26.4717
247.94        11.93026
248.40       -7.119388
248.85       -48.90485
249.31       -163.9522
249.77       -211.4761
250.22       -19.51089
250.68        47.34372
251.14        66.18382
251.59        70.85213
252.05        70.20969
252.51        65.61399
252.96        56.48943
253.42        46.37349
253.88        40.63395
254.33        39.81052
254.79          44.874
255.25        53.31696
255.70        61.33766
256.16        67.90586
256.62        72.33282
257.07        74.37796
257.53        75.19888
257.99        75.11397
258.44        74.06112
258.90        72.77494
259.35        70.91534
259.81        69.10057
260.27        67.38322
260.72        65.94833
261.18         65.1436
261.63        64.46165
262.09        63.92664
262.55        63.05666
263.00         61.7591
263.46         60.4105
263.91        59.02192
264.37        58.09854
264.83        57.56214
265.28        57.20324
265.74        56.93648
266.19        56.39693
266.65        55.61477
267.11        54.62393
267.56        53.51403
268.02        52.53012
268.47        51.66084
268.93        50.86919
269.38        50.01481
269.84        48.96389
270.30        47.68398
270.75        46.25287
271.21        44.82483
271.66        43.54574
272.12        42.50864
272.57        41.65847
273.03        40.95841
273.48        40.28836
273.94        39.63829
274.39        38.97745
274.85        38.38624
275.31        37.90173
275.76        37.49829
276.22        37.18287
276.67        36.81197
277.13        36.29405
277.58        35.57853
278.04        34.75791
278.49        33.92066
278.95        33.29403
279.40        32.85256
279.86        32.56818
280.31        32.26847
280.77        31.80566
281.22        31.12173
281.68        30.35699
282.13        29.58707
282.59        29.00784
283.04        28.62593
283.50         28.4016
283.95        28.28347
284.41        28.23827
284.86        28.22359
285.32        28.27012
285.77        28.31093
286.22        28.27342
286.68        28.17077
287.13        27.97919
287.59        27.82651
288.04        27.79895
288.50        27.89297
288.95        28.17965
289.41        28.59708
289.86        28.58301
290.32        28.05338
290.77        28.86294
291.22        28.04369
291.68        28.18064
292.13        28.41183
292.59        28.79499
293.04        29.31726
293.50        30.03029
293.95        30.94135
294.40         32.0141
294.86        33.18382
295.31        34.33263
295.77        35.43124
296.22        36.49192
296.68        37.57491
297.13        38.76966
297.58        40.11153
298.04         41.5679
298.49        43.10733
298.95        44.69997
299.40        46.30872
299.85        47.95882
300.31        49.61246
300.76        51.18335
301.21        52.67556
301.67        54.12674
302.12        55.61277
302.58        57.36205
303.03        59.36692
303.48        61.60197
303.94        63.90993
304.39        65.98887
304.84        67.78697
305.30        69.40924
305.75        70.97165
306.20        72.76443
306.66        74.83741
307.11        77.03321
307.57        79.23105
308.02        81.17295
308.47        82.83454
308.93        84.34561
309.38        85.74973
309.83        87.17704
310.29        88.71957
310.74        90.25974
311.19         91.8111
311.65        93.36701
312.10         94.8851
312.55        96.36662
313.00        97.74448
313.46        98.91311
313.91         99.8374
314.36        100.5609
314.82        101.1673
315.27        101.7819
315.72        102.4599
316.18        103.1801
316.63         103.916
317.08        104.6206
317.53        105.2701
317.99        105.8722
318.44        106.4354
318.89        106.9546
319.35        107.4247
319.80        107.8498
320.25        108.2075
320.70        108.4747
321.16        108.6477
321.61        108.7587
322.06        108.8594
322.51        109.0398
322.97        109.3053
323.42        109.6708
323.87         110.065
324.32        110.3834
324.78        110.5779
325.23        110.7198
325.68        110.8406
326.13        111.0268
326.59        111.2772
327.04        111.6178
327.49         111.993
327.94        112.3496
328.39        112.6677
328.85        112.9305
329.30        113.2152
329.75        113.5085
330.20        113.8131
330.66        114.0775
331.11        114.3664
331.56         114.645
332.01        114.9159
332.46        115.1951
332.92        115.4255
333.37        115.6598
333.82        115.8596
334.27        116.0392
334.72        116.2726
335.17        116.6788
335.63         117.247
336.08        118.0022
336.53        118.8097
336.98        119.4964
337.43        120.0026
337.88        120.3556
338.34        120.6066
338.79        120.9165
339.24        121.3017
339.69         121.731
340.14        122.1412
340.59        122.4376
341.05        122.6112
341.50        122.7138
341.95        122.8436
342.40        123.1564
342.85        123.6796
343.30        124.3536
343.75        125.0493
344.20        125.5689
344.66        125.8663
345.11        125.9764
345.56        125.9967
346.01        126.0837
346.46        126.2905
346.91        126.5507
347.36        126.7849
347.81        126.9613
348.26        127.0723
348.72        126.8294
349.17        126.8713
349.62        126.8772
350.07          127.04
350.52        127.3016
350.97        127.5332
351.42        127.5204
351.87        127.2138
352.32        126.6857
352.77        126.0966
353.22        125.6888
353.67        125.5142
354.13        125.5177
354.58        125.5209
355.03        125.2925
355.48        124.7834
355.93        124.0786
356.38         123.336
356.83         122.791
357.28        122.4811
357.73        122.3071
358.18        122.1211
358.63        121.6966
359.08        120.9784
359.53        120.0562
359.98        119.0263
360.43         118.024
360.88        117.1006
361.33        116.2226
361.78        115.3872
362.23        114.5941
362.68        113.8372
363.13         113.122
363.58        112.4273
364.03        111.7106
364.48        110.9502
364.93         110.142
365.38        109.2847
365.83        108.3854
366.28        107.4578
366.73         106.515
367.18        105.5698
367.63        104.6441
368.08        103.7522
368.53        102.8932
368.98        102.0899
369.43        101.3599
369.88        100.6926
370.33        100.0815
370.78        99.45991
371.23        98.73344
371.68        97.89264
372.13        96.96069
372.58        96.05598
373.03        95.35181
373.48        94.87185
373.93        94.56946
374.38         94.2814
374.83        93.74924
375.28        92.93074
375.72        91.89652
376.17        90.87878
376.62        90.13615
377.07        89.70291
377.52        89.47372
377.97        89.26978
378.42        88.81128
378.87        88.04766
379.32        87.10551
379.77        86.13229
380.22        85.31351
380.67        84.68604
381.11        84.18444
381.56        83.75394
382.01        83.33624
382.46         82.9125
382.91        82.51298
383.36        82.12254
383.81        81.70678
384.26        81.25906
384.71        80.77975
385.15        80.28417
385.60        79.87039
386.05        79.52833
386.50        79.23573
386.95         78.9576
387.40          78.646
387.85        78.29537
388.29        77.87728
388.74        77.50845
389.19        77.14919
389.64         76.7916
390.09        76.42023
390.54        76.04227
390.98        75.66154
391.43        75.33556
391.88        75.06593
392.33        74.83339
392.78         74.6077
393.23        74.38148
393.67        74.09123
394.12        73.87759
394.57        73.74251
395.02        73.86681
395.47        73.74614
395.91        73.43063
396.36         73.1141
396.81        72.82825
397.26        72.46952
397.71        72.07403
398.15        71.74841
398.60        71.58259
399.05        71.39706
399.50        71.23375
399.95        71.30869
400.39        71.51817
400.84        71.47686
401.29        71.15587
401.74        70.61565
402.18        70.03224
402.63         69.8578
403.08        70.01115
403.53        69.85789
403.97         69.3638
404.42        68.94787
404.87         68.6996
405.32        68.58623
405.76        68.60695
406.21        68.77513
406.66         68.9607
407.11        68.94651
407.55        68.71069
408.00        68.33146
408.45        67.91862
408.90        67.53427
409.34        67.26734
409.79        67.26774
410.24        67.44276
410.68        67.51591
411.13        67.44674
411.58        67.36203
412.03        67.28899
412.47        67.24196
412.92        67.21007
413.37        67.19595
413.81        67.17558
414.26        67.17358
414.71        67.17062
415.15        67.17947
415.60        67.17514
416.05        67.17179
416.49        67.17155
416.94         67.1633
417.39        67.13755
417.83        67.07327
418.28        66.97149
418.73        66.83288
419.17         66.6835
419.62        66.57769
420.07        66.52938
420.51        66.52222
420.96         66.5439
421.41        66.53192
421.85        66.45462
422.30         66.3516
422.74        66.24774
423.19        66.34361
423.64        66.61095
424.08        66.89695
424.53        67.08897
424.98         67.2964
425.42        67.51846
425.87        67.52241
426.31        67.38976
426.76        67.60091
427.21        68.03888
427.65        67.95676
428.10        67.42406
428.54        67.19753
428.99        67.34511
429.44         67.5634
429.88        67.70696
430.33        67.57552
430.77         67.2189
431.22        67.19271
431.66        67.46456
432.11        67.67188
432.56        67.78862
433.00        67.79492
433.45        67.48846
433.89        67.36367
434.34        67.67701
434.78        66.66176
435.23        66.87247
435.67        68.21966
436.12        67.61943
436.57        67.83802
437.01        67.79755
437.46        67.81431
437.90        68.15438
438.35        67.91722
438.79        68.07018
439.24        68.04934
439.68        68.09391
440.13        68.23131
440.57        68.39854
441.02        68.26983
441.46        67.95549
441.91        68.12203
442.35        68.61945
442.80        68.96732
443.24        69.39664
443.69        69.38243
444.13        69.08361
444.58        68.81405
445.02        68.67223
445.47        68.79613
445.91        69.08382
446.36        69.22009
446.80        69.16457
447.24        69.06023
447.69        68.97502
448.13         69.1282
448.58        69.27911
449.02        69.23781
449.47        68.98112
449.91        68.89755
450.36        69.03262
450.80        69.02077
451.25        68.86095
451.69        69.14904
452.13          69.149
452.58        69.04774
453.02        68.70415
453.47        68.53658
453.91        68.56175
454.36        68.60281
454.80        68.57004
455.24        68.45251
455.69        68.27156
456.13          67.856
456.58           67.38
457.02        67.52301
457.46        67.80669
457.91        67.82906
458.35        67.57823
458.79         67.5059
459.24        67.66003
459.68        67.60616
460.13        67.35045
460.57        67.51912
461.01        66.92294
461.46        67.04028
461.90        66.75827
462.34        66.47198
462.79        66.29623
463.23        66.44831
463.68         66.8721
464.12        66.68188
464.56        66.01817
465.01        66.07374
465.45        66.62953
465.89        66.60963
466.34        66.11036
466.78        65.91573
467.22         66.0099
467.67        66.15968
468.11        65.53843
468.55         65.4646
468.99        65.63557
469.44        65.59371
469.88        65.31629
470.32        65.03955
470.77        64.83511
471.21         64.6981
471.65        64.64436
472.10        64.67159
472.54        64.72556
472.98        64.72312
473.42        64.64297
473.87        64.57982
474.31         64.5164
474.75        64.38515
475.20        64.24107
475.64        64.34658
476.08        64.64259
476.52         64.6828
476.97        64.38551
477.41        64.31168
477.85        64.57079
478.29        63.69675
478.74        63.66951
479.18         64.1112
479.62        64.21317
480.06        64.35131
480.50        64.36709
480.95        64.32738
481.39         64.2765
481.83        64.29457
482.27         64.3205
482.72        64.40128
483.16        64.22279
483.60        64.57384
484.04         64.5443
484.48        64.22368
484.93        64.00121
485.37        63.92627
485.81        64.64516
486.25        63.88817
486.69        65.72984
487.14        65.84298
487.58        64.96075
488.02          64.104
488.46        63.93392
488.90        64.16409
489.34        63.73612
489.79        63.48098
490.23        63.94943
490.67        64.14379
491.11        64.24258
491.55        63.98779
491.99        63.52391
492.43        63.30398
492.88        63.37857
493.32        63.53907
493.76        63.64954
494.20        63.72183
494.64         63.7525
495.08        63.35519
495.52        63.15412
495.96        63.28196
496.41        63.75569
496.85        63.76695
497.29        63.31456
497.73        63.29289
498.17        63.36596
498.61        63.43689
499.05        63.35056
499.49        63.16835
499.93        62.97924
500.37         62.9587
500.82        63.08818
501.26         63.3162
501.70        63.51511
502.14          63.263
502.58         62.8141
503.02        62.63522
503.46        62.75731
503.90        62.91022
504.34        63.00385
504.78        63.07048
505.22        63.09081
505.66        63.02335
506.10        62.90576
506.54        62.87677
506.98        62.96227
507.42        62.74759
507.86        63.06716
508.30        62.79883
508.74        62.87784
509.18        62.73116
509.62        62.59826
510.06        62.53246
510.50        62.52448
510.94         62.4832
511.38        62.39906
511.82        62.34636
512.26        62.32113
512.70        62.28095
513.14        62.22501
513.58        62.17113
514.02        62.12198
514.46        62.07641
514.90        62.02515
515.34        61.99035
515.78        61.97873
516.22        61.95911
516.66        61.79132
517.10          62.078
517.54        61.95606
517.98         62.0887
518.42        62.19066
518.86        62.23674
519.30        62.21419
519.74        62.09817
520.18        61.95961
520.62        61.98593
521.06         62.1488
521.50          62.201
521.93         62.1167
522.37        62.05162
522.81         62.0075
523.25        61.88364
523.69        61.72093
524.13        61.63871
524.57        61.65268
525.01        61.72443
525.45        61.82217
525.89        61.89577
526.32        61.92348
526.76        61.92447
527.20        61.90331
527.64        61.86946
528.08        61.82952
528.52        61.78484
528.96        61.74012
529.40        61.69554
529.83        61.65459
530.27        61.65309
530.71        61.68096
531.15        61.71795
531.59        61.75842
532.03        61.80248
532.46        61.85057
532.90        61.91904
533.34        61.99735
533.78        62.07801
534.22        62.12281
534.66        62.07514
535.09        61.92489
535.53        61.71918
535.97        61.50494
536.41        61.37264
536.85        61.34472
537.28        61.39351
537.72        61.48495
538.16        61.56147
538.60        61.59928
539.04        61.61672
539.47        61.59766
539.91        61.56879
540.35        61.52183
540.79        61.45639
541.22        61.38985
541.66        61.36877
542.10        61.39522
542.54        61.45201
542.97        61.51513
543.41        61.57724
543.85        61.62496
544.29        61.67441
544.72        61.69755
545.16        61.70546
545.60        61.69335
546.04        61.59324
546.47        61.47586
546.91        61.61097
547.35        61.93066
547.79        62.06507
548.22        61.97469
548.66        61.91105
549.10        61.89713
549.53        61.83491
549.97         61.7533
550.41        61.69277
550.84        61.66614
551.28        61.68158
551.72         61.7089
552.15         61.7077
552.59        61.68806
553.03        61.53162
553.46        61.48825
553.90        61.40865
554.34         61.3602
554.77        61.32149
555.21        61.31286
555.65        61.34388
556.08        61.40398
556.52        61.50648
556.96        61.60245
557.39        61.65855
557.83        61.65931
558.27        61.52246
558.70        61.33707
559.14        61.30208
559.57        61.42345
560.01         61.7266
560.45        62.03388
560.88        61.94381
561.32        61.57181
561.75        61.24369
562.19        61.10001
562.63        61.23932
563.06        61.53233
563.50        61.44788
563.93        61.06626
564.37        60.93462
564.80        61.33844
565.24        61.51507
565.68        61.52502
566.11        61.56347
566.55        61.63617
566.98        61.70829
567.42        61.78025
567.85        61.60942
568.29        61.39816
568.72        61.46337
569.16         61.8504
569.60        61.95037
570.03        62.02734
570.47        62.16541
570.90        62.42445
571.34        62.27174
571.77        62.75727
572.21        62.55664
572.64        62.45685
573.08         62.4002
573.51        62.44406
573.95         62.8655
574.38        62.60241
574.82        63.23792
