SpectraSmart Spectrum 2.9.0.0
--------- Device Information -----------
Spectrum Name :  反射率_0
Saving Time :  2024/04/21 00:48:26
Spectro-Module Model Name : SE2030-DUVN
Spectro-Module Serial Number : OS361AC55029948
Wavelength Start : 200
Wavelength End : 1025
Wavelength Unit : Wavelength(nm)
Spectrum Unit : Reflectance(%)
-----------Spectrum Setting ------------
Integration Time : 20ms
Average : 10
Boxcar : 0
Background removal :  enabled
linearity correction :  enabled
SC :  disabled
Intensity correction :  disabled
DWT denoise :  enabled
savitzky-golay :  disabled
FFT :  disabled
Running average :  disabled
Kalman :  disabled
High pass :  disabled
---------------BEGIN--------------------
Wavelength(nm)             Reflectance(%)
200.29               0
200.75       -89.39877
201.21       -19.14679
201.67        18.33481
202.13        31.24648
202.58        29.78406
203.04         19.6398
203.50         3.32893
203.96       -10.79345
204.42       -16.99173
204.88       -18.40683
205.34       -16.24005
205.80       -12.42936
206.26       -7.143374
206.72        4.123673
207.18        17.36366
207.64          20.245
208.10        8.469191
208.55       -15.44615
209.01       -32.21057
209.47       -17.23627
209.93        9.347913
210.39        31.09615
210.85        44.65503
211.31        49.43582
211.77        47.23513
212.23         38.6443
212.69        18.83389
213.14       -20.76539
213.60       -96.51884
214.06       -314.7918
214.52       -795.3741
214.98       -336.3122
215.44       -74.84765
215.90        9.321205
216.36        37.57131
216.81        44.18091
217.27        36.99017
217.73        -12.8786
218.19        622.6514
218.65        302.6681
219.11        -653.559
219.57       -18.16712
220.02        22.51114
220.48        27.74833
220.94        19.61921
221.40       -4.987771
221.86       -60.37652
222.32       -89.92233
222.77        -33.4312
223.23        12.42477
223.69         34.9127
224.15        42.54165
224.61        42.60863
225.06        38.90527
225.52        32.89462
225.98         26.4231
226.44         20.6363
226.90         14.1065
227.36        9.894065
227.81        13.40405
228.27        21.59224
228.73        30.36349
229.19        35.98904
229.65         36.3091
230.10        32.02071
230.56        24.46046
231.02        14.85781
231.48        8.392233
231.93        8.874727
232.39        14.37746
232.85         20.6987
233.31        24.24119
233.77        25.14255
234.22        24.94499
234.68        24.01255
235.14        22.94043
235.60        22.33506
236.05        21.22342
236.51        19.58497
236.97        23.49279
237.43        33.34921
237.88        38.84113
238.34        35.87288
238.80        58.22433
239.26        47.62453
239.71        47.16701
240.17        41.36197
240.63        35.09605
241.08        31.05321
241.54        31.89479
242.00        38.35362
242.46        42.03056
242.91        40.95672
243.37        35.82551
243.83        28.76337
244.28        27.37201
244.74        34.83038
245.20        45.95826
245.66        54.72441
246.11         55.4749
246.57        47.93903
247.03        34.22011
247.48        16.09439
247.94       -3.682903
248.40       -28.53914
248.85       -82.07108
249.31       -236.4124
249.77       -347.6213
250.22       -108.8737
250.68       -11.30885
251.14        18.63034
251.59        24.35804
252.05        19.05324
252.51        5.296173
252.96        -15.1255
253.42       -27.10543
253.88       -19.06629
254.33        1.713997
254.79        24.98249
255.25        41.31066
255.70        50.03204
256.16        54.65594
256.62        57.38028
257.07        59.59841
257.53        61.83827
257.99        63.53544
258.44        64.01525
258.90        63.40693
259.35        61.52608
259.81        59.30243
260.27        57.09514
260.72        55.36296
261.18        54.41335
261.63        53.71646
262.09        53.10258
262.55         51.9999
263.00        50.35983
263.46        48.57732
263.91        46.85132
264.37        45.85006
264.83        45.49382
265.28        45.47586
265.74         45.5031
266.19        45.00423
266.65        43.97583
267.11        42.56851
267.56         41.0154
268.02        39.75656
268.47        38.85186
268.93         38.2002
269.38        37.61176
269.84        36.86066
270.30        35.87873
270.75        34.75943
271.21        33.65348
271.66        32.71569
272.12        32.00998
272.57        31.44887
273.03        30.95532
273.48        30.38262
273.94        29.72442
274.39        29.01249
274.85        28.33612
275.31        27.75576
275.76        27.28527
276.22         26.9256
276.67        26.63954
277.13        26.45286
277.58        26.30689
278.04        26.19933
278.49        26.05983
278.95        25.86669
279.40         25.5699
279.86        25.21987
280.31        24.77814
280.77        24.27165
281.22        23.70216
281.68         23.1491
282.13        22.64306
282.59        22.29868
283.04        22.10492
283.50        22.03284
283.95         22.0667
284.41        22.20588
284.86        22.40993
285.32        22.68335
285.77        22.89927
286.22        22.89202
286.68        22.67385
287.13        22.26998
287.59        21.90554
288.04        21.81907
288.50        22.02885
288.95        22.57049
289.41        23.29457
289.86        23.48799
290.32         23.0251
290.77        23.92469
291.22        23.05054
291.68        23.22639
292.13        23.55279
292.59        24.07612
293.04        24.74935
293.50        25.57398
293.95        26.55334
294.40        27.66581
294.86         28.9101
295.31        30.26556
295.77        31.70803
296.22        33.20708
296.68        34.72298
297.13        36.19698
297.58        37.63839
298.04        39.07104
298.49        40.54894
298.95        42.17881
299.40        43.96094
299.85         45.8688
300.31        47.83421
300.76        49.72351
301.21        51.51841
301.67        53.28183
302.12        55.05011
302.58        56.98983
303.03        59.09254
303.48        61.33955
303.94        63.66844
304.39        65.92793
304.84        68.07948
305.30        70.17462
305.75        72.18362
306.20        74.17772
306.66        76.17496
307.11        78.09576
307.57        79.96758
308.02         81.7543
308.47        83.47157
308.93        85.16212
309.38        86.75508
309.83        88.20765
310.29        89.56104
310.74        90.76586
311.19        91.88982
311.65        93.00661
312.10        94.11515
312.55        95.20401
313.00        96.22519
313.46        97.10299
313.91        97.81097
314.36        98.39571
314.82        98.92175
315.27        99.47706
315.72        100.0947
316.18        100.7431
316.63        101.3932
317.08        102.0013
317.53        102.5418
317.99        103.0247
318.44        103.4341
318.89        103.7277
319.35        103.9095
319.80        104.0089
320.25        104.0795
320.70        104.2177
321.16        104.4406
321.61        104.7345
322.06        105.0721
322.51        105.4129
322.97        105.7181
323.42        106.0339
323.87         106.305
324.32        106.4613
324.78        106.4769
325.23        106.4058
325.68        106.3186
326.13        106.3671
326.59        106.5641
327.04        106.9301
327.49        107.3509
327.94        107.6614
328.39        107.8186
328.85        107.8429
329.30        107.8847
329.75        108.0624
330.20        108.4149
330.66         108.849
331.11        109.3628
331.56        109.8185
332.01        110.1729
332.46         110.457
332.92        110.6319
333.37        110.7798
333.82         110.879
334.27        110.9377
334.72        111.0092
335.17        111.1839
335.63        111.4576
336.08         111.873
336.53        112.3739
336.98        112.9034
337.43        113.4296
337.88        113.9573
338.34         114.432
338.79        114.8309
339.24        115.1229
339.69        115.3158
340.14        115.4684
340.59        115.6844
341.05        115.9951
341.50        116.3905
341.95        116.8234
342.40        117.2141
342.85        117.5387
343.30        117.8159
343.75        118.0812
344.20        118.3951
344.66        118.7704
345.11         119.155
345.56        119.4972
346.01        119.7196
346.46        119.8142
346.91        119.8013
347.36         119.711
347.81        119.6512
348.26        119.6561
348.72        119.4789
349.17        119.5387
349.62        119.5513
350.07        119.6369
350.52        119.7718
350.97        119.8774
351.42        119.8172
351.87        119.5581
352.32        119.1399
352.77        118.6552
353.22        118.2471
353.67        117.9493
354.13        117.7381
354.58        117.5093
355.03         117.151
355.48        116.6396
355.93         116.018
356.38        115.3738
356.83        114.8325
357.28        114.4093
357.73        114.0511
358.18        113.6589
358.63        113.0841
359.08        112.2992
359.53        111.3639
359.98        110.3709
360.43        109.4529
360.88        108.6454
361.33        107.9117
361.78        107.2054
362.23        106.4532
362.68        105.6402
363.13        104.8005
363.58        103.9632
364.03        103.1672
364.48        102.4187
364.93        101.6926
365.38        100.9768
365.83        100.2602
366.28        99.53279
366.73        98.79587
367.18        98.03451
367.63        97.22594
368.08        96.37487
368.53         95.5001
368.98         94.6186
369.43        93.74568
369.88        92.88244
370.33        92.01807
370.78        91.17175
371.23        90.39122
371.68        89.69344
372.13        89.07145
372.58        88.48367
373.03        87.84847
373.48        87.13972
373.93        86.37827
374.38        85.60052
374.83        84.87902
375.28        84.24597
375.72        83.67065
376.17        83.15995
376.62        82.65203
377.07        82.11936
377.52         81.5606
377.97        80.99358
378.42        80.46502
378.87        79.99346
379.32        79.56976
379.77        79.14743
380.22        78.64645
380.67        78.04414
381.11         77.3652
381.56        76.66278
382.01        76.05153
382.46        75.57691
382.91        75.21836
383.36        74.91218
383.81        74.55488
384.26        74.11646
384.71        73.62009
385.15        73.11568
385.60        72.74176
386.05        72.49368
386.50        72.33246
386.95        72.15904
387.40        71.83001
387.85        71.33523
388.29        70.69641
388.74           70.12
389.19        69.70319
389.64        69.45725
390.09        69.32329
390.54        69.21639
390.98        68.99021
391.43        68.65086
391.88        68.24032
392.33        67.81797
392.78        67.45734
393.23        67.17443
393.67        66.92823
394.12        66.75996
394.57        66.52232
395.02        66.22175
395.47        65.99075
395.91        65.83383
396.36        65.62713
396.81        65.38534
397.26        65.19532
397.71        65.05888
398.15        64.89471
398.60        64.75726
399.05        64.63376
399.50        64.54421
399.95        64.40615
400.39        64.24355
400.84        64.31013
401.29         64.4894
401.74        64.06612
402.18         63.1876
402.63        62.83958
403.08        62.99911
403.53        62.83097
403.97        62.31101
404.42        61.94482
404.87        61.78535
405.32        61.68588
405.76        61.63138
406.21        61.73244
406.66         61.8784
407.11         61.7321
407.55        61.35284
408.00        61.15456
408.45        61.18202
408.90        61.06215
409.34        60.82548
409.79        60.82896
410.24        61.01666
410.68        61.10107
411.13        61.05766
411.58        60.99076
412.03        60.91203
412.47        60.90018
412.92        60.81316
413.37          60.766
413.81        60.70428
414.26        60.65995
414.71        60.61826
415.15        60.59172
415.60        60.56258
416.05        60.54816
416.49        60.55152
416.94        60.55807
417.39        60.55967
417.83        60.53587
418.28        60.48706
418.73        60.41947
419.17        60.34056
419.62        60.27456
420.07        60.22879
420.51        60.19118
420.96        60.18799
421.41        60.21144
421.85        60.23094
422.30        60.28595
422.74        60.33396
423.19        60.39483
423.64        60.45472
424.08        60.56736
424.53        60.64908
424.98        60.65747
425.42        60.59898
425.87        60.42701
426.31        60.23674
426.76        60.30691
427.21        60.63794
427.65        60.89124
428.10        60.89882
428.54        61.24237
428.99        61.03369
429.44         60.8522
429.88        60.53689
430.33        60.58169
430.77        60.85815
431.22        60.98668
431.66        60.96218
432.11        61.10396
432.56         61.4338
433.00        61.57179
433.45         61.3308
433.89        61.33908
434.34        61.72095
434.78        60.88738
435.23        60.65932
435.67        61.66364
436.12        61.65723
436.57        61.84992
437.01         61.5102
437.46        61.31449
437.90        61.94802
438.35        61.52645
438.79        61.82926
439.24        61.78662
439.68         61.8633
440.13        62.07811
440.57         62.3364
441.02        62.27109
441.46        61.95094
441.91        61.95404
442.35        62.19042
442.80         62.5016
443.24        62.79036
443.69        62.87832
444.13        62.72565
444.58        62.80263
445.02        62.60221
445.47        62.59348
445.91        62.59625
446.36        62.57435
446.80        62.52052
447.24        62.43505
447.69        62.38177
448.13        62.60147
448.58        62.86469
449.02        62.98679
449.47        62.90262
449.91        62.85364
450.36         62.8574
450.80        62.68737
451.25        62.42955
451.69        62.35511
452.13        62.44907
452.58        62.42403
453.02        62.25327
453.47         62.1339
453.91        62.05442
454.36        61.90463
454.80        61.72074
455.24        61.63533
455.69        61.67789
456.13        61.77097
456.58        61.87085
457.02        61.98017
457.46        61.77979
457.91        61.75661
458.35        61.87994
458.79        61.83099
459.24         61.6631
459.68        61.46989
460.13        61.30212
460.57        61.15839
461.01        61.08003
461.46        60.93269
461.90        60.75651
462.34        60.95152
462.79        60.29627
463.23        60.43576
463.68        60.86414
464.12        60.84698
464.56         60.4245
465.01        60.43462
465.45        60.75738
465.89         60.8121
466.34        60.62805
466.78        60.48319
467.22          60.381
467.67        60.41409
468.11        59.91917
468.55        59.85677
468.99        59.97385
469.44        59.93761
469.88        59.72643
470.32        59.52826
470.77        59.39379
471.21        59.29489
471.65        59.24426
472.10        59.25573
472.54        59.27119
472.98        59.23624
473.42        59.16132
473.87        59.00052
474.31        58.77673
474.75        58.84446
475.20        59.19122
475.64        58.92816
476.08        59.14048
476.52        59.07368
476.97        58.97241
477.41        59.04493
477.85        59.30401
478.29        58.70421
478.74        57.91293
479.18        58.83302
479.62        58.48622
480.06        58.77431
480.50        58.76114
480.95         58.8319
481.39        58.89797
481.83        59.03867
482.27        59.23016
482.72        58.91245
483.16        58.89061
483.60        59.13763
484.04        59.12972
484.48        58.96877
484.93        59.04718
485.37        58.71307
485.81        59.09225
486.25        58.23789
486.69        59.62379
487.14        59.83683
487.58        59.09927
488.02        59.04539
488.46        58.65359
488.90        58.80091
489.34        58.50392
489.79        57.94161
490.23        58.49987
490.67        58.52942
491.11        58.48648
491.55        58.37563
491.99        58.26079
492.43        58.20823
492.88        58.21647
493.32        58.25827
493.76        58.25621
494.20        58.23135
494.64        58.19507
495.08        57.79685
495.52        57.70698
495.96        57.70625
496.41        57.92108
496.85        58.16737
497.29        58.29091
497.73        58.31592
498.17        57.97679
498.61        57.89937
499.05        57.99089
499.49        57.86604
499.93        57.58038
500.37        57.54685
500.82        57.74642
501.26        57.87101
501.70        57.84207
502.14        57.89064
502.58        57.61972
503.02        57.54344
503.46        57.50399
503.90        57.45026
504.34        57.36959
504.78        57.34943
505.22        57.42138
505.66        57.47632
506.10        57.46355
506.54        57.57331
506.98        57.84671
507.42        57.20166
507.86        57.54348
508.30        57.42672
508.74         57.3756
509.18        57.35476
509.62        57.35622
510.06        57.38612
510.50        57.40247
510.94        57.35957
511.38        57.26341
511.82        57.18417
512.26        57.12872
512.70        57.05842
513.14        56.97615
513.58         56.9066
514.02        56.85366
514.46        56.81044
514.90        56.77181
515.34         56.7721
515.78        56.81642
516.22        56.85302
516.66        56.71657
517.10        57.01419
517.54        56.76988
517.98        56.74883
518.42        56.69379
518.86        56.68006
519.30        56.71507
519.74        56.75295
520.18        56.78918
520.62        56.88207
521.06        56.98079
521.50        56.88863
521.93        56.65552
522.37        56.54225
522.81        56.57471
523.25        56.62254
523.69         56.6489
524.13        56.62538
524.57         56.5387
525.01        56.44631
525.45         56.4031
525.89        56.26239
526.32        56.40355
526.76        56.50849
527.20        56.64358
527.64         56.7347
528.08        56.76257
528.52        56.74419
528.96         56.6925
529.40        56.63039
529.83         56.5674
530.27         56.5267
530.71        56.49736
531.15        56.46133
531.59        56.41863
532.03        56.38031
532.46        56.35638
532.90        56.37189
533.34         56.4217
533.78        56.49524
534.22        56.55843
534.66        56.56098
535.09        56.48658
535.53        56.36976
535.97        56.23688
536.41        56.14555
536.85        56.11205
537.28         56.1226
537.72        56.15368
538.16        56.16683
538.60        56.15043
539.04        56.11798
539.47        56.07484
539.91         56.0748
540.35        56.10817
540.79        56.16232
541.22        56.21209
541.66        56.23116
542.10        56.20926
542.54        56.15892
542.97        56.09255
543.41        56.05674
543.85        56.05388
544.29        56.08194
544.72         56.1171
545.16        56.14334
545.60        56.13898
546.04        56.12838
546.47        56.13729
546.91        56.13191
547.35        56.13125
547.79        56.31887
548.22        56.58067
548.66        56.50618
549.10        56.17587
549.53        56.10258
549.97        56.28726
550.41         56.3019
550.84        56.12336
551.28        56.04368
551.72         56.0894
552.15        56.04607
552.59        55.89674
553.03        56.22065
553.46        56.02503
553.90        56.05986
554.34        56.02696
554.77        55.95064
555.21        55.87149
555.65        55.86528
556.08         55.9445
556.52        56.07296
556.96        56.19442
557.39        56.28328
557.83        56.31108
558.27        56.16984
558.70        55.93944
559.14        55.85723
559.57        55.93882
560.01        56.13267
560.45        56.33523
560.88        56.36256
561.32        56.26453
561.75        56.14406
562.19        56.08355
562.63        56.14901
563.06        56.28006
563.50        56.21743
563.93        55.97644
564.37        55.86493
564.80        55.87976
565.24        55.90653
565.68        55.93243
566.11        55.97638
566.55        56.04758
566.98        56.15381
567.42        56.27543
567.85        56.27644
568.29        56.20846
568.72        56.15688
569.16        56.18208
569.60        56.23159
570.03        56.39874
570.47        56.52917
570.90        56.54201
571.34        56.88404
571.77        57.06383
572.21        56.67614
572.64        56.66786
573.08        56.53409
573.51        56.53826
573.95        56.89642
574.38        56.65842
574.82        57.28025
