SpectraSmart Spectrum 2.9.0.0
--------- Device Information -----------
Spectrum Name :  反射率_0
Saving Time :  2024/04/21 00:35:44
Spectro-Module Model Name : SE2030-DUVN
Spectro-Module Serial Number : OS361AC55029948
Wavelength Start : 200
Wavelength End : 1025
Wavelength Unit : Wavelength(nm)
Spectrum Unit : Reflectance(%)
-----------Spectrum Setting ------------
Integration Time : 20ms
Average : 10
Boxcar : 0
Background removal :  enabled
linearity correction :  enabled
SC :  disabled
Intensity correction :  disabled
DWT denoise :  enabled
savitzky-golay :  disabled
FFT :  disabled
Running average :  disabled
Kalman :  disabled
High pass :  disabled
---------------BEGIN--------------------
Wavelength(nm)             Reflectance(%)
200.29               0
200.75       -146.5246
201.21       -65.42107
201.67       -17.99769
202.13        3.305955
202.58        10.44163
203.04        11.02448
203.50        6.802135
203.96       0.7326936
204.42       -5.007709
204.88       -12.35807
205.34       -19.16434
205.80       -22.98152
206.26       -22.92367
206.72       -14.55434
207.18       -2.945814
207.64       -3.440571
208.10       -20.79851
208.55       -51.61284
209.01       -68.70935
209.47       -41.45382
209.93      -0.4709263
210.39        32.47522
210.85        52.51527
211.31        58.70307
211.77        53.62611
212.23        36.77054
212.69        1.953354
213.14       -54.31621
213.60       -135.0259
214.06       -320.7658
214.52       -637.7778
214.98       -231.6938
215.44       -48.17001
215.90        6.923077
216.36        22.45102
216.81        19.19193
217.27       -3.676753
217.73       -112.6489
218.19        1185.996
218.65        490.1377
219.11       -1083.182
219.57       -51.39819
220.02        14.11206
220.48        25.84585
220.94        20.12469
221.40        -3.87212
221.86       -61.89463
222.32       -98.61829
222.77       -45.06055
223.23       0.9077103
223.69        24.21117
224.15        32.73808
224.61        33.85366
225.06        31.78666
225.52         27.5963
225.98        22.18593
226.44        16.44647
226.90        9.143742
227.36        4.114033
227.81        8.239934
228.27         18.0855
228.73        28.48982
229.19        35.29488
229.65        36.32847
230.10        32.50065
230.56        25.35182
231.02        16.09119
231.48        9.722857
231.93        9.973957
232.39        14.97579
232.85        20.83987
233.31        24.21059
233.77        25.19856
234.22        25.33021
234.68        24.69696
235.14        23.37596
235.60        21.82552
236.05        19.12057
236.51        15.73125
236.97        19.08917
237.43        29.95477
237.88         37.1344
238.34         36.0608
238.80        58.89141
239.26        47.43653
239.71        44.15515
240.17        33.80247
240.63        23.63928
241.08        18.90599
241.54        23.43676
242.00        36.33052
242.46         44.3944
242.91        44.11472
243.37        36.46822
243.83        23.58957
244.28        15.80334
244.74        19.73463
245.20        29.57242
245.66        39.04655
246.11        42.59629
246.57        39.39197
247.03          31.249
247.48        19.63943
247.94        6.876776
248.40       -9.303875
248.85       -44.18081
249.31       -154.8865
249.77       -293.0364
250.22       -143.9621
250.68       -66.14354
251.14       -36.71679
251.59       -24.82907
252.05       -18.93274
252.51       -13.53534
252.96       -8.335081
253.42       -4.010336
253.88       -1.335463
254.33       0.4983064
254.79        5.652978
255.25        15.77119
255.70        26.85961
256.16        35.80077
256.62        42.22227
257.07        46.21515
257.53        48.75043
257.99        50.41936
258.44        50.97576
258.90        50.71707
259.35         49.5387
259.81         48.0766
260.27        46.69891
260.72        45.88612
261.18         45.7769
261.63        45.82682
262.09        45.78885
262.55        45.08995
263.00        43.74288
263.46        42.20464
263.91          40.665
264.37        39.72903
264.83        39.35413
265.28         39.2497
265.74        39.28494
266.19         39.1435
266.65        38.79431
267.11        38.28862
267.56        37.57453
268.02        36.64785
268.47        35.50632
268.93         34.2146
269.38        32.88707
269.84        31.76634
270.30        30.90919
270.75        30.26887
271.21        29.80218
271.66        29.36246
272.12         28.9194
272.57        28.48049
273.03        28.05625
273.48        27.63245
273.94        27.21912
274.39        26.77215
274.85        26.30669
275.31        25.79429
275.76        25.23783
276.22        24.69488
276.67        24.17989
277.13        23.77383
277.58        23.45355
278.04        23.20922
278.49        22.99109
278.95        22.79527
279.40        22.56821
279.86        22.33862
280.31        22.04434
280.77        21.66714
281.22         21.1958
281.68        20.71516
282.13        20.24836
282.59        19.89646
283.04        19.65789
283.50        19.50762
283.95        19.46922
284.41        19.59695
284.86        19.85903
285.32        20.23664
285.77        20.56484
286.22        20.61593
286.68        20.38866
287.13        19.93034
287.59        19.48911
288.04        19.34197
288.50        19.51565
288.95        20.04078
289.41         20.7587
289.86        20.93166
290.32         20.4257
290.77        21.33254
291.22        20.40357
291.68        20.55096
292.13        20.83883
292.59        21.30348
293.04        21.89777
293.50        22.62739
293.95        23.49228
294.40        24.46666
294.86        25.52499
295.31        26.61101
295.77        27.70198
296.22        28.79032
296.68        29.88241
297.13        30.98832
297.58        32.13447
298.04        33.33096
298.49         34.6016
298.95        36.00076
299.40         37.5166
299.85        39.13461
300.31        40.81213
300.76         42.4612
301.21        44.06559
301.67        45.66642
302.12        47.26588
302.58        48.96735
303.03        50.76237
303.48        52.65955
303.94        54.63901
304.39        56.62234
304.84        58.58855
305.30        60.56259
305.75        62.50654
306.20        64.46413
306.66         66.4358
307.11        68.35676
307.57        70.22601
308.02        71.98082
308.47        73.62952
308.93        75.22208
309.38        76.73003
309.83        78.15206
310.29        79.57101
310.74        80.89988
311.19        82.16956
311.65        83.37994
312.10        84.51817
312.55         85.5963
313.00        86.61095
313.46        87.55912
313.91        88.42527
314.36        89.21571
314.82        89.95559
315.27        90.67841
315.72        91.39733
316.18        92.10622
316.63         92.7663
317.08        93.31715
317.53        93.74649
317.99        94.07288
318.44        94.34787
318.89        94.64015
319.35          94.969
319.80        95.32359
320.25        95.67419
320.70        95.97456
321.16        96.20546
321.61        96.40273
322.06        96.58246
322.51        96.77767
322.97        96.98366
323.42        97.21552
323.87        97.45626
324.32        97.69657
324.78        97.91393
325.23        98.15372
325.68        98.38223
326.13        98.57242
326.59        98.69878
327.04        98.81167
327.49        98.93719
327.94        99.15633
328.39        99.48196
328.85        99.86066
329.30        100.2729
329.75         100.558
330.20        100.6821
330.66        100.6532
331.11        100.6092
331.56        100.6555
332.01        100.8378
332.46        101.1211
332.92        101.4232
333.37        101.7361
333.82        101.9925
334.27        102.2232
334.72        102.4515
335.17        102.7102
335.63         102.987
336.08        103.3279
336.53        103.7028
336.98         104.112
337.43        104.5492
337.88        105.0042
338.34        105.4594
338.79        105.9389
339.24        106.4099
339.69        106.8643
340.14        107.2622
340.59        107.5518
341.05        107.7337
341.50        107.8364
341.95        107.9258
342.40        108.1141
342.85        108.4308
343.30        108.8475
343.75        109.2964
344.20        109.6689
344.66        109.9389
345.11        110.1127
345.56        110.2409
346.01        110.4027
346.46        110.6168
346.91        110.8472
347.36        111.0247
347.81        111.0843
348.26        111.0207
348.72         110.747
349.17        110.5627
349.62        110.4385
350.07        110.4689
350.52        110.5962
350.97        110.7149
351.42        110.6504
351.87         110.357
352.32        109.8948
352.77          109.35
353.22        108.8508
353.67        108.4339
354.13        108.0768
354.58        107.7147
355.03        107.2988
355.48        106.8201
355.93        106.3114
356.38        105.8057
356.83        105.3437
357.28        104.9235
357.73         104.511
358.18         104.077
358.63        103.5859
359.08        103.0264
359.53        102.4145
359.98        101.7411
360.43        100.9865
360.88        100.1557
361.33        99.25957
361.78        98.35087
362.23        97.51532
362.68        96.77635
363.13        96.11715
363.58        95.48225
364.03        94.77741
364.48        93.97661
364.93        93.10303
365.38        92.21025
365.83        91.38772
366.28        90.65683
366.73        89.98747
367.18        89.32651
367.63        88.59236
368.08        87.77199
368.53        86.90472
368.98        86.03337
369.43        85.21032
369.88        84.44629
370.33        83.71773
370.78        83.01596
371.23        82.34337
371.68        81.70255
372.13        81.09548
372.58        80.51318
373.03         79.9283
373.48        79.32201
373.93        78.69261
374.38        78.03323
374.83        77.34595
375.28        76.65151
375.72        75.95685
376.17        75.30196
376.62        74.68044
377.07        74.08253
377.52        73.49004
377.97         72.9306
378.42        72.46327
378.87        72.10094
379.32        71.83343
379.77         71.5684
380.22        71.15907
380.67          70.576
381.11        69.85754
381.56        69.11835
382.01        68.57711
382.46        68.29253
382.91        68.19727
383.36        68.15119
383.81        67.93623
384.26        67.49804
384.71        66.90507
385.15        66.25137
385.60         65.7403
386.05        65.39692
386.50        65.16318
386.95        64.95922
387.40        64.67017
387.85        64.27939
388.29        63.80267
388.74        63.38183
389.19        63.04161
389.64        62.78268
390.09        62.56517
390.54        62.35659
390.98        62.10192
391.43        61.82418
391.88        61.53552
392.33         61.2408
392.78        60.94411
393.23        60.65121
393.67          60.327
394.12        60.05222
394.57        59.80836
395.02        59.58184
395.47        59.34366
395.91        59.09762
396.36        58.83868
396.81        58.59389
397.26        58.39931
397.71        58.21479
398.15         57.9942
398.60        57.80185
399.05        57.44514
399.50        57.07265
399.95        57.20715
400.39         57.7015
400.84        57.76767
401.29        57.33537
401.74        56.79859
402.18        56.29102
402.63          55.911
403.08        55.68249
403.53        55.41825
403.97        55.13895
404.42        55.06851
404.87        55.16102
405.32        55.24759
405.76        55.28639
406.21        55.25192
406.66        55.15354
407.11        55.16589
407.55        55.21562
408.00        54.93071
408.45        54.37748
408.90        53.84795
409.34        53.50275
409.79        53.56268
410.24        53.88484
410.68        53.96762
411.13        53.75869
411.58        53.53805
412.03          53.381
412.47        53.30252
412.92        53.31466
413.37        53.41524
413.81        53.53837
414.26        53.63253
414.71        53.66522
415.15        53.66314
415.60        53.62717
416.05        53.60649
416.49         53.6135
416.94        53.61803
417.39         53.6033
417.83        53.54112
418.28        53.42778
418.73        53.27627
419.17        53.10445
419.62        52.95043
420.07        52.83635
420.51        52.75918
420.96        52.73161
421.41         52.7563
421.85        52.80505
422.30        52.82733
422.74         52.8291
423.19        53.05742
423.64        53.43316
424.08        53.60881
424.53        53.48856
424.98        53.39678
425.42        53.36666
425.87        53.05472
426.31        52.62582
426.76        52.73296
427.21        53.27903
427.65        53.45982
428.10        53.22665
428.54        53.20406
428.99        53.41316
429.44        53.48484
429.88        53.39058
430.33        53.31197
430.77         53.2409
431.22        53.23186
431.66         53.2609
432.11        53.40668
432.56        53.67508
433.00        53.54507
433.45        52.87372
433.89        52.98465
434.34        54.02117
434.78        52.56761
435.23        52.43864
435.67        53.69607
436.12        53.86131
436.57        54.12432
437.01        53.56723
437.46        53.30983
437.90        53.93773
438.35        53.75943
438.79        53.94024
439.24        53.85394
439.68        53.82145
440.13        53.74263
440.57        53.67156
441.02        53.82304
441.46        54.13774
441.91        54.30695
442.35        54.29454
442.80         54.6227
443.24        55.14217
443.69        55.17934
444.13         54.7616
444.58        54.45985
445.02        54.35276
445.47        54.41908
445.91        54.59155
446.36         54.6881
446.80        54.67534
447.24        54.63983
447.69        54.62255
448.13        54.77349
448.58        54.89428
449.02        54.84805
449.47        54.61164
449.91        54.44826
450.36        54.39219
450.80        54.22813
451.25        54.02565
451.69        54.02167
452.13        54.18467
452.58        54.22915
453.02        54.11745
453.47         54.0293
453.91        53.94283
454.36         53.7464
454.80        53.50447
455.24        53.30282
455.69        53.16127
456.13         53.2163
456.58        53.43774
457.02        52.97133
457.46        52.84096
457.91        52.67131
458.35        52.81333
458.79        52.78598
459.24        52.62456
459.68        52.53939
460.13         52.5637
460.57        52.44898
461.01        52.17659
461.46        52.27324
461.90        52.12722
462.34        51.72625
462.79        51.62605
463.23        51.58606
463.68         51.8392
464.12        51.60456
464.56        51.05552
465.01        51.12475
465.45        51.60376
465.89        51.63612
466.34        51.26068
466.78        50.96673
467.22        50.81773
467.67        50.90686
468.11        50.66739
468.55        50.67015
468.99        50.68421
469.44        50.59287
469.88        50.37578
470.32        50.06903
470.77        49.75701
471.21        49.55892
471.65        49.50583
472.10        49.56223
472.54        49.65408
472.98        49.68056
473.42        49.61747
473.87        49.50532
474.31        49.36464
474.75        49.31299
475.20        49.34554
475.64        49.35952
476.08        49.32781
476.52         49.3131
476.97        49.30184
477.41        49.26989
477.85        49.15963
478.29        49.23562
478.74        48.69622
479.18        48.85581
479.62        49.20014
480.06         49.3962
480.50        49.37352
480.95        49.28358
481.39        49.10874
481.83        49.54189
482.27        49.44825
482.72        49.46067
483.16        49.61246
483.60        49.75974
484.04        49.39557
484.48        49.07629
484.93          49.282
485.37        48.64603
485.81          49.424
486.25        49.10342
486.69         51.3009
487.14        51.35691
487.58        50.40008
488.02        49.44052
488.46        49.29527
488.90        49.08149
489.34        48.66122
489.79        48.11275
490.23        48.50761
490.67        48.63097
491.11        48.75208
491.55        48.72925
491.99        48.59806
492.43        48.54307
492.88        48.57435
493.32        48.58294
493.76        48.50703
494.20        48.46087
494.64        48.47808
495.08        48.05357
495.52        47.97293
495.96        48.07741
496.41        48.45224
496.85        48.44744
497.29        48.07019
497.73        47.99369
498.17         47.9719
498.61        48.03711
499.05        48.04995
499.49        47.83896
499.93        47.52769
500.37        47.56822
500.82        47.89443
501.26        48.14095
501.70        48.20238
502.14         47.8119
502.58        47.48125
503.02        47.28624
503.46        47.34616
503.90        47.47196
504.34        47.58249
504.78        47.66869
505.22        47.70858
505.66        47.66346
506.10        47.56784
506.54        47.56351
506.98        47.67745
507.42        47.40173
507.86        47.83916
508.30        47.40121
508.74        47.56535
509.18         47.3837
509.62        47.23553
510.06        47.15045
510.50        47.12509
510.94        47.08664
511.38        47.02253
511.82        46.99816
512.26        47.00668
512.70        47.01225
513.14        47.00126
513.58          46.967
514.02        46.90742
514.46        46.82362
514.90        46.71463
515.34        46.64247
515.78        46.62681
516.22        46.57448
516.66        46.35651
517.10        46.72422
517.54         46.4849
517.98        46.57259
518.42        46.62635
518.86        46.66217
519.30        46.67035
519.74        46.63325
520.18        46.57919
520.62        46.59716
521.06        46.65919
521.50         46.5905
521.93        46.42049
522.37        46.34406
522.81        46.37569
523.25        46.41373
523.69        46.42354
524.13        46.39305
524.57        46.31547
525.01        46.19913
525.45         46.0848
525.89        46.03691
526.32        46.06888
526.76         46.1638
527.20        46.28238
527.64        46.37026
528.08        46.40838
528.52        46.39369
528.96        46.35079
529.40        46.35238
529.83        46.38731
530.27        46.38093
530.71        46.32115
531.15        46.26785
531.59        46.22495
532.03        46.15437
532.46        46.08648
532.90         46.1016
533.34        46.19947
533.78        46.34989
534.22        46.49368
534.66        46.53994
535.09        46.46719
535.53         46.3273
535.97        46.16027
536.41        46.04291
536.85        45.99865
537.28        45.99911
537.72        46.03996
538.16        46.11376
538.60        46.20457
539.04        46.31537
539.47        46.39129
539.91        46.38564
540.35        46.28203
540.79        46.10297
541.22        45.90883
541.66        45.81106
542.10        45.83271
542.54        45.94067
542.97        46.07892
543.41        46.18289
543.85        46.22339
544.29        46.22612
544.72        46.20138
545.16        46.19764
545.60        46.21781
546.04        46.22335
546.47        46.21981
546.91         46.2757
547.35        46.36627
547.79         46.3678
548.22        46.27032
548.66        46.22667
549.10        46.22453
549.53        46.10171
549.97        45.90746
550.41        45.82727
550.84        45.88739
551.28        45.97727
551.72        46.04192
552.15        46.11306
552.59        46.20255
553.03        45.93942
553.46        46.00622
553.90         45.9328
554.34        45.91877
554.77        45.92842
555.21        45.97088
555.65        46.03855
556.08        46.10923
556.52        46.18431
556.96         46.2364
557.39        46.26865
557.83         46.2643
558.27        46.14212
558.70         45.9453
559.14        45.79795
559.57        45.72962
560.01        45.80052
560.45        45.94331
560.88        45.94991
561.32        45.87049
561.75        45.85248
562.19        45.93786
562.63        46.07824
563.06        46.20851
563.50        46.18837
563.93         46.0252
564.37          45.874
564.80        45.76695
565.24         45.7881
565.68        45.92637
566.11        45.93525
566.55          45.972
566.98        46.07476
567.42        46.28468
567.85         46.1681
568.29        46.16067
568.72        46.18331
569.16        46.38586
569.60        46.46876
570.03        46.65125
570.47        46.80562
570.90        46.94928
571.34        47.08343
571.77         47.4872
572.21        47.22269
572.64        47.53009
573.08        47.34856
573.51        46.89445
573.95        47.15428
574.38        47.22234
574.82        47.92502
