SpectraSmart Spectrum 2.9.0.0
--------- Device Information -----------
Spectrum Name :  反射率_0
Saving Time :  2024/04/21 00:55:32
Spectro-Module Model Name : SE2030-DUVN
Spectro-Module Serial Number : OS361AC55029948
Wavelength Start : 200
Wavelength End : 1025
Wavelength Unit : Wavelength(nm)
Spectrum Unit : Reflectance(%)
-----------Spectrum Setting ------------
Integration Time : 20ms
Average : 10
Boxcar : 0
Background removal :  enabled
linearity correction :  enabled
SC :  disabled
Intensity correction :  disabled
DWT denoise :  enabled
savitzky-golay :  disabled
FFT :  disabled
Running average :  disabled
Kalman :  disabled
High pass :  disabled
---------------BEGIN--------------------
Wavelength(nm)             Reflectance(%)
200.29               0
200.75       -103.5064
201.21       -54.97215
201.67       -27.75352
202.13       -16.04747
202.58       -12.77704
203.04       -13.57102
203.50       -15.53006
203.96       -13.39385
204.42       -6.336248
204.88         1.84735
205.34        8.152924
205.80        8.639073
206.26        2.385069
206.72       -7.563563
207.18       -23.39698
207.64        -48.1778
208.10       -76.71117
208.55       -106.4622
209.01       -109.1317
209.47       -61.66734
209.93       -6.216912
210.39        35.52821
210.85        60.89256
211.31         70.9264
211.77        69.68106
212.23        57.75469
212.69        29.32428
213.14       -22.15472
213.60        -109.178
214.06       -339.2817
214.52       -817.9409
214.98       -342.2717
215.44       -81.83921
215.90        2.425214
216.36        29.68433
216.81        32.20053
217.27        14.70398
217.73       -77.29922
218.19        1041.615
218.65        452.4473
219.11        -995.968
219.57       -43.10717
220.02        18.34344
220.48        30.90868
220.94        28.78746
221.40        13.75687
221.86       -25.31274
222.32       -54.53246
222.77       -23.02244
223.23        5.748837
223.69        20.77947
224.15        26.61961
224.61        27.89912
225.06        27.74154
225.52        26.08582
225.98        21.93548
226.44        15.54261
226.90        6.167784
227.36       -1.210222
227.81        2.697849
228.27        14.20501
228.73        26.52315
229.19        34.61088
229.65        35.96495
230.10        31.61037
230.56        23.21478
231.02        12.04724
231.48        3.874648
231.93        3.237158
232.39        8.136662
232.85        14.28956
233.31        17.87634
233.77        18.94242
234.22        19.21205
234.68        18.76082
235.14        17.58606
235.60        16.14982
236.05         13.4203
236.51        9.995823
236.97        14.00888
237.43         26.1891
237.88        34.55722
238.34        34.38723
238.80        58.16946
239.26        46.33074
239.71        42.15783
240.17         30.0227
240.63         17.6954
241.08         11.0681
241.54        14.53654
242.00        27.86753
242.46        37.17071
242.91        38.92894
243.37        35.03795
243.83        27.25283
244.28        23.24473
244.74        27.29162
245.20        33.75085
245.66        38.91816
246.11        40.00115
246.57        36.55422
247.03        30.56777
247.48        20.96521
247.94         4.58933
248.40        -26.3046
248.85       -106.9192
249.31       -366.6638
249.77       -604.3886
250.22       -216.5431
250.68       -45.78056
251.14        10.57069
251.59         26.2676
252.05        25.03971
252.51        13.45077
252.96       -7.248581
253.42       -24.21235
253.88       -25.28262
254.33          -15.27
254.79       0.9174411
255.25        16.98382
255.70        29.10332
256.16        37.65224
256.62        42.87794
257.07        45.02136
257.53        45.43657
257.99        44.83958
258.44         43.5516
258.90        42.38095
259.35        41.10198
259.81        39.95313
260.27        38.95586
260.72        38.22454
261.18         37.9002
261.63        37.68913
262.09        37.45342
262.55        36.79667
263.00        35.71204
263.46        34.50544
263.91        33.31716
264.37        32.63647
264.83        32.41005
265.28        32.40927
265.74        32.47245
266.19        32.27338
266.65        31.78967
267.11        31.08852
267.56        30.21701
268.02         29.3145
268.47        28.39844
268.93        27.47699
269.38        26.53538
269.84        25.60608
270.30         24.7004
270.75        23.83581
271.21        23.08389
271.66        22.48345
272.12        22.05152
272.57        21.75349
273.03        21.51046
273.48        21.19005
273.94        20.77715
274.39        20.28034
274.85        19.79611
275.31        19.42267
275.76        19.17025
276.22        19.01911
276.67        18.88337
277.13        18.69379
277.58        18.41045
278.04        18.07372
278.49        17.71287
278.95        17.41533
279.40        17.16488
279.86        16.95949
280.31        16.71951
280.77        16.38642
281.22        15.94554
281.68        15.48562
282.13        15.05574
282.59        14.77769
283.04        14.65098
283.50        14.62769
283.95         14.6933
284.41        14.83732
284.86        15.02858
285.32        15.27481
285.77        15.46504
286.22        15.43826
286.68        15.21049
287.13         14.8136
287.59        14.47045
288.04        14.42517
288.50        14.68075
288.95        15.28189
289.41         16.0717
289.86        16.29628
290.32        15.81167
290.77        16.82316
291.22        15.86261
291.68        15.96547
292.13        16.14441
292.59        16.45658
293.04        16.90379
293.50        17.56785
293.95        18.46724
294.40        19.55038
294.86        20.74752
295.31        21.92928
295.77        23.05277
296.22        24.13806
296.68        25.21477
297.13        26.33319
297.58        27.53355
298.04        28.81223
298.49         30.1987
298.95        31.75422
299.40        33.46524
299.85        35.31777
300.31        37.24481
300.76        39.12303
301.21        40.92907
301.67        42.71097
302.12        44.50652
302.58        46.46999
303.03        48.60632
303.48        50.91289
303.94        53.33231
304.39        55.72424
304.84        58.05987
305.30         60.3906
305.75        62.72258
306.20        65.16663
306.66        67.72718
307.11        70.29486
307.57        72.83594
308.02        75.24197
308.47        77.50525
308.93        79.69234
309.38        81.74545
309.83        83.63205
310.29        85.41857
310.74        87.03584
311.19        88.58641
311.65        90.19254
312.10        91.86379
312.55        93.58711
313.00        95.25242
313.46        96.68065
313.91        97.82266
314.36        98.74173
314.82        99.59784
315.27        100.6347
315.72        101.9081
316.18        103.3351
316.63         104.745
317.08        105.8633
317.53        106.6166
317.99        107.0915
318.44        107.4245
318.89        107.8214
319.35        108.3473
319.80        108.9473
320.25        109.5649
320.70        110.1155
321.16        110.5602
321.61        110.9555
322.06        111.3135
322.51        111.6519
322.97        111.9676
323.42        112.2908
323.87        112.6104
324.32        112.9343
324.78        113.2447
325.23        113.5796
325.68        113.9322
326.13        114.3229
326.59        114.7214
327.04        115.1736
327.49        115.6138
327.94        115.9727
328.39        116.2355
328.85        116.3912
329.30        116.5559
329.75        116.7793
330.20         117.091
330.66        117.4379
331.11        117.8705
331.56         118.317
332.01        118.7624
332.46        119.2177
332.92        119.6379
333.37        120.1034
333.82        120.5679
334.27        121.0306
334.72        121.4947
335.17        121.9717
335.63        122.4352
336.08        122.9504
336.53        123.5003
336.98         124.109
337.43        124.7721
337.88        125.4704
338.34        126.1423
338.79        126.7553
339.24        127.2624
339.69        127.6822
340.14        128.0356
340.59        128.3639
341.05        128.6926
341.50        129.0277
341.95        129.3942
342.40        129.8345
342.85        130.3485
343.30        130.9176
343.75        131.4904
344.20        131.9874
344.66        132.3891
345.11        132.6877
345.56        132.9057
346.01        133.0841
346.46        133.2533
346.91        133.3869
347.36        133.4659
347.81        133.5675
348.26        133.7159
348.72        133.5145
349.17        133.7183
349.62        133.8518
350.07        134.1316
350.52        134.4979
350.97        134.8321
351.42          134.93
351.87        134.7358
352.32         134.314
352.77        133.7819
353.22         133.322
353.67        132.9846
354.13        132.7387
354.58        132.4854
355.03        132.1208
355.48        131.6241
355.93        131.0458
356.38        130.4598
356.83        129.9679
357.28        129.5793
357.73        129.2389
358.18        128.8714
358.63        128.3695
359.08        127.7061
359.53        126.9235
359.98         126.063
360.43        125.1781
360.88        124.2977
361.33        123.4237
361.78        122.5697
362.23         121.758
362.68        120.9981
363.13        120.2847
363.58        119.6219
364.03        119.0106
364.48        118.4271
364.93        117.8463
365.38        117.2109
365.83        116.4397
366.28        115.5183
366.73        114.4778
367.18        113.3671
367.63        112.2693
368.08         111.228
368.53        110.2435
368.98        109.3214
369.43        108.4482
369.88        107.6105
370.33        106.8094
370.78        106.0409
371.23        105.3114
371.68        104.6225
372.13        103.9611
372.58        103.3186
373.03         102.673
373.48        102.0103
373.93        101.3413
374.38        100.6439
374.83        99.89655
375.28         99.1169
375.72        98.29757
376.17        97.55002
376.62        96.94644
377.07        96.47526
377.52        96.08795
377.97        95.68536
378.42        95.11883
378.87        94.37428
379.32        93.52985
379.77        92.66382
380.22        91.86726
380.67        91.15801
381.11        90.50591
381.56        89.91465
382.01         89.4212
382.46        89.03215
382.91         88.7459
383.36        88.48588
383.81        88.12717
384.26         87.6408
384.71        87.05236
385.15        86.43166
385.60        85.96313
386.05        85.65402
386.50        85.45636
386.95        85.27248
387.40        84.95809
387.85        84.49339
388.29        83.88578
388.74        83.33732
389.19        82.90321
389.64        82.59196
390.09           82.36
390.54        82.13895
390.98        81.80537
391.43        81.38023
391.88        80.91576
392.33        80.52125
392.78        80.14876
393.23        79.77879
393.67        79.72926
394.12        80.08248
394.57        79.05096
395.02        79.24736
395.47        78.94849
395.91        78.88945
396.36        78.63548
396.81        78.21716
397.26        77.85054
397.71        77.53348
398.15        77.20771
398.60        76.95699
399.05        76.67879
399.50        76.45111
399.95        76.44218
400.39        76.58959
400.84        76.72913
401.29        76.73199
401.74        76.17856
402.18        75.26933
402.63        74.93591
403.08        75.14375
403.53        74.97185
403.97        74.40367
404.42        74.06142
404.87        73.94605
405.32        73.83234
405.76        73.70814
406.21         73.5369
406.66        73.36189
407.11        73.48476
407.55        73.81095
408.00        73.77118
408.45         73.3656
408.90        72.94613
409.34        72.62062
409.79        72.46807
410.24        72.44131
410.68        72.31669
411.13        72.08624
411.58        71.92122
412.03        71.84622
412.47        71.81825
412.92         71.8111
413.37        71.85418
413.81        71.90619
414.26        71.96021
414.71        71.98832
415.15        72.00468
415.60        71.98328
416.05        71.95114
416.49        71.91309
416.94        71.85007
417.39        71.76292
417.83        71.64236
418.28        71.49524
418.73        71.33382
419.17        71.15676
419.62        70.96909
420.07        70.77831
420.51        70.57993
420.96         70.4385
421.41        70.37221
421.85        70.34658
422.30        70.46022
422.74        70.61057
423.19        70.59222
423.64        70.44702
424.08        70.61145
424.53        70.95749
424.98        71.06123
425.42        70.90807
425.87        70.61221
426.31        70.34093
426.76        70.46605
427.21         70.9163
427.65        71.12536
428.10         70.9916
428.54        70.90289
428.99        70.88376
429.44        70.69924
429.88        70.39078
430.33        70.16205
430.77        70.01147
431.22        70.14067
431.66        70.43347
432.11        70.51515
432.56        70.49752
433.00         70.5121
433.45        70.30195
433.89        70.60493
434.34        71.62794
434.78        69.27879
435.23        69.76419
435.67        70.76116
436.12        71.29516
436.57        71.53677
437.01        70.85551
437.46         70.5062
437.90        71.24587
438.35        70.97974
438.79        71.07449
439.24        70.95193
439.68        70.96936
440.13         70.9926
440.57        71.01716
441.02        71.08623
441.46         71.1446
441.91        71.16832
442.35        71.09534
442.80        71.20983
443.24        71.46177
443.69        71.58292
444.13        71.47255
444.58        71.74687
445.02        71.36908
445.47        71.38302
445.91        71.43375
446.36        71.52306
446.80        71.35178
447.24        71.21189
447.69        71.08987
448.13        71.23695
448.58        71.39553
449.02        71.36842
449.47        71.13441
449.91        71.03469
450.36         71.0996
450.80        71.07702
451.25        70.98845
451.69        70.97059
452.13         71.0069
452.58        70.92033
453.02        70.72374
453.47        70.60759
453.91         70.5688
454.36        70.51524
454.80         70.4288
455.24        70.34387
455.69        70.27879
456.13        70.16697
456.58        70.01903
457.02        69.97859
457.46        69.67536
457.91        69.50001
458.35        69.46074
458.79        69.35675
459.24        69.23042
459.68        69.18144
460.13         69.2496
460.57        69.11014
461.01         68.7256
461.46        68.95039
461.90        68.65589
462.34        68.22507
462.79        68.36798
463.23         68.4237
463.68        68.57877
464.12        68.27298
464.56        67.67686
465.01         67.7438
465.45        68.27123
465.89        68.35292
466.34        68.00611
466.78        67.84045
467.22        67.91623
467.67        67.66981
468.11        67.48969
468.55        67.32288
468.99        67.27615
469.44        67.17948
469.88        67.03543
470.32        66.92192
470.77        66.83259
471.21        66.74819
471.65        66.66388
472.10        66.55173
472.54        66.41754
472.98         66.4441
473.42         66.3304
473.87        66.42297
474.31        66.53358
474.75        66.39458
475.20        66.08059
475.64         66.0785
476.08        66.34443
476.52        66.39131
476.97        66.17674
477.41        66.12182
477.85        66.20284
478.29        65.94843
478.74        65.39144
479.18        65.65779
479.62        66.03241
480.06        66.25522
480.50         66.0942
480.95        66.04847
481.39        66.13653
481.83        65.98712
482.27        66.13358
482.72        66.13876
483.16        66.17777
483.60         66.1679
484.04        66.27294
484.48        65.90308
484.93        65.93472
485.37        65.27477
485.81        66.08001
486.25        65.46481
486.69        67.19946
487.14        67.32162
487.58        66.31112
488.02        65.55115
488.46        65.68674
488.90        65.58379
489.34        65.12234
489.79        64.73595
490.23        65.19093
490.67        65.42614
491.11        65.58199
491.55        65.42711
491.99        65.06618
492.43        64.92448
492.88        65.03631
493.32        65.18063
493.76        65.23777
494.20        65.25761
494.64        65.24345
495.08         64.8234
495.52         64.6033
495.96        64.66805
496.41        65.03922
496.85        65.09278
497.29          64.785
497.73        64.68155
498.17        64.50199
498.61        64.65685
499.05        64.93359
499.49        64.80834
499.93        64.38645
500.37        64.28381
500.82        64.58505
501.26        64.73655
501.70        64.90031
502.14        64.57986
502.58        64.42004
503.02        64.26691
503.46        64.24583
503.90        64.21391
504.34        64.15209
504.78        64.16524
505.22         64.2673
505.66        64.35661
506.10        64.38586
506.54        64.48112
506.98        64.66654
507.42        64.02762
507.86        64.46059
508.30        63.99012
508.74        64.17734
509.18        64.13367
509.62        64.14125
510.06        64.14765
510.50        64.10975
510.94        63.97932
511.38        63.77108
511.82         63.6053
512.26        63.49763
512.70        63.39084
513.14        63.29799
513.58        63.26179
514.02        63.28138
514.46        63.34539
514.90        63.40931
515.34        63.43155
515.78        63.40427
516.22        63.32368
516.66        63.06719
517.10        63.25986
517.54        63.07957
517.98        63.15485
518.42        63.22956
518.86          63.312
519.30        63.38762
519.74        63.42124
520.18        63.42316
520.62        63.48808
521.06         63.5704
521.50        63.44505
521.93        63.16073
522.37        63.00034
522.81        62.99468
523.25        63.00128
523.69        62.99648
524.13        63.00006
524.57        63.00124
525.01        62.99569
525.45        62.99199
525.89        63.00151
526.32        63.02616
526.76        63.06883
527.20        63.11393
527.64        63.14965
528.08        63.17311
528.52        63.16306
528.96        63.14636
529.40         63.2141
529.83        63.33814
530.27        63.40805
530.71        63.39526
531.15        63.36422
531.59        63.31226
532.03        63.19127
532.46        63.03384
532.90        62.93886
533.34        62.91967
533.78        62.95449
534.22        63.00553
534.66        63.01303
535.09        62.95525
535.53        62.87149
535.97        62.78963
536.41        62.76939
536.85        62.82139
537.28        62.92342
537.72         63.0303
538.16        63.07285
538.60        63.03333
539.04        62.93541
539.47        62.80603
539.91        62.73836
540.35        62.73192
540.79        62.76577
541.22        62.80151
541.66        62.80558
542.10         62.7689
542.54        62.68632
542.97        62.56739
543.41        62.61102
543.85         62.5699
544.29        62.62909
544.72        62.70011
545.16        62.78304
545.60        62.84793
546.04        62.94385
546.47        63.05413
546.91         63.0106
547.35        62.86258
547.79        62.95095
548.22         63.1749
548.66        63.08392
549.10        62.72573
549.53        62.51929
549.97        62.51978
550.41        62.46318
550.84        62.43522
551.28        62.50907
551.72        62.66932
552.15        62.73073
552.59        62.67301
553.03        62.73332
553.46        62.56768
553.90          62.491
554.34         62.3998
554.77        62.32259
555.21        62.30245
555.65        62.23246
556.08        62.38689
556.52        62.51968
556.96        62.65637
557.39        62.77219
557.83        62.83335
558.27         62.7031
558.70        62.45147
559.14        62.32253
559.57        62.33784
560.01        62.46325
560.45         62.5904
560.88        62.54396
561.32        62.39488
561.75        62.18551
562.19        62.04903
562.63        62.27295
563.06        62.70601
563.50        62.69555
563.93        62.27479
564.37        62.05554
564.80        62.08512
565.24        62.22443
565.68        62.41418
566.11        62.51056
566.55        62.50627
566.98        62.56572
567.42        62.69848
567.85         62.5799
568.29        62.47961
568.72        62.51497
569.16         62.7339
569.60        62.88147
570.03        62.91103
570.47        62.93959
570.90        62.92771
571.34        63.18425
571.77         63.3221
572.21        63.34941
572.64        63.38406
573.08        63.21446
573.51        63.31892
573.95        63.64959
574.38        63.55055
574.82        63.84434
