SpectraSmart Spectrum 2.9.0.0
--------- Device Information -----------
Spectrum Name :  反射率_0
Saving Time :  2024/04/21 00:19:18
Spectro-Module Model Name : SE2030-DUVN
Spectro-Module Serial Number : OS361AC55029948
Wavelength Start : 200
Wavelength End : 1025
Wavelength Unit : Wavelength(nm)
Spectrum Unit : Reflectance(%)
-----------Spectrum Setting ------------
Integration Time : 20ms
Average : 10
Boxcar : 0
Background removal :  enabled
linearity correction :  enabled
SC :  disabled
Intensity correction :  disabled
DWT denoise :  enabled
savitzky-golay :  disabled
FFT :  disabled
Running average :  disabled
Kalman :  disabled
High pass :  disabled
---------------BEGIN--------------------
Wavelength(nm)             Reflectance(%)
200.29               0
200.75        15.00022
201.21        30.49503
201.67        38.87925
202.13        44.68202
202.58        49.94664
203.04         56.0118
203.50        62.20332
203.96        65.04008
204.42        62.68569
204.88        56.39817
205.34        48.75874
205.80        42.66484
206.26        38.74454
206.72        37.47263
207.18        37.86658
207.64        36.55239
208.10        33.06968
208.55        28.96818
209.01        29.66153
209.47        40.34123
209.93        52.15048
210.39        60.34087
210.85        65.18004
211.31        67.37189
211.77        67.84523
212.23        67.47089
212.69        64.61613
213.14        54.00441
213.60        21.75386
214.06       -94.54848
214.52       -394.6371
214.98       -155.6247
215.44        1.961684
215.90        54.66978
216.36        72.08904
216.81        74.10429
217.27        63.93137
217.73        10.67113
218.19        671.8249
218.65        341.5675
219.11       -682.3151
219.57       -1.703319
220.02        42.87183
220.48        51.85534
220.94        49.66265
221.40        37.30692
221.86        6.096664
222.32       -15.93353
222.77        10.40284
223.23        33.88094
223.69        45.72394
224.15         49.6632
224.61        49.43526
225.06        47.38102
225.52        43.95997
225.98        39.30999
226.44         33.8872
226.90        26.77307
227.36        21.18731
227.81        23.26794
228.27        30.62972
228.73        38.88672
229.19        44.21276
229.65        44.39619
230.10        40.04827
230.56        32.42318
231.02        22.79897
231.48        16.58614
231.93        17.54638
232.39        23.47398
232.85        30.14235
233.31        34.08184
233.77        35.45725
234.22        35.81146
234.68        35.35395
235.14        34.36002
235.60        33.32615
236.05        31.43312
236.51        29.06264
236.97        32.45779
237.43        42.12533
237.88         48.7579
238.34        48.85499
238.80        68.04765
239.26        60.65877
239.71        60.05331
240.17        54.49836
240.63        48.57135
241.08        45.45163
241.54        47.50872
242.00        55.28105
242.46        62.02366
242.91        66.77192
243.37        70.42743
243.83        75.74047
244.28        87.63418
244.74        104.2439
245.20        120.8502
245.66        130.7447
246.11        127.4522
246.57        111.5695
247.03        84.61005
247.48        52.15139
247.94        23.70437
248.40       0.1221672
248.85       -29.82439
249.31       -85.75484
249.77       -93.91664
250.22       -2.671384
250.68        27.80324
251.14        36.95516
251.59        40.83621
252.05        43.90826
252.51        47.16009
252.96        50.22521
253.42        52.49086
253.88        53.22353
254.33        53.05553
254.79        55.83335
255.25        62.31356
255.70        69.20299
256.16        74.84745
256.62        78.16764
257.07        78.68966
257.53        77.82326
257.99         76.1628
258.44        73.91241
258.90        72.03749
259.35        70.04671
259.81        68.26411
260.27        66.58148
260.72        65.04259
261.18        63.97768
261.63        62.97696
262.09        62.03631
262.55        60.62328
263.00        58.70047
263.46        56.70272
263.91        54.75225
264.37        53.49294
264.83        52.85606
265.28        52.53919
265.74         52.4086
266.19        52.06685
266.65        51.49615
267.11        50.74181
267.56        49.78634
268.02        48.70405
268.47        47.48441
268.93        46.15975
269.38        44.77835
269.84        43.49433
270.30          42.347
270.75        41.33486
271.21        40.45643
271.66         39.6179
272.12        38.82507
272.57        38.06216
273.03        37.38478
273.48        36.82135
273.94        36.37948
274.39        35.98582
274.85        35.57084
275.31         34.9618
275.76         34.1422
276.22        33.23272
276.67        32.33711
277.13        31.69291
277.58         31.2852
278.04        31.05153
278.49        30.86491
278.95        30.63817
279.40         30.2872
279.86        29.89381
280.31        29.39589
280.77        28.79723
281.22        28.09076
281.68        27.35602
282.13        26.65867
282.59         26.1801
283.04        25.91656
283.50        25.83686
283.95        25.86534
284.41         25.9163
284.86        25.94391
285.32        25.99253
285.77        26.02594
286.22        26.01689
286.68        25.98776
287.13        25.89734
287.59        25.86133
288.04        25.95009
288.50        26.14616
288.95        26.52787
289.41        27.01819
289.86        27.02665
290.32        26.46707
290.77        27.24465
291.22        26.34616
291.68        26.44852
292.13        26.68343
292.59        27.10878
293.04        27.70106
293.50        28.49128
293.95        29.48448
294.40        30.65064
294.86        31.94376
295.31        33.27419
295.77        34.61011
296.22        35.94393
296.68        37.30154
297.13        38.72451
297.58        40.23734
298.04        41.82206
298.49         43.4644
298.95        45.16537
299.40        46.89462
299.85        48.66074
300.31         50.4315
300.76        52.12674
301.21         53.7525
301.67        55.36134
302.12        56.99547
302.58        58.83064
303.03        60.86218
303.48        63.08398
303.94        65.42097
304.39        67.69725
304.84        69.86577
305.30        71.96913
305.75        74.00631
306.20        76.09656
306.66        78.25658
307.11        80.38997
307.57        82.44718
308.02        84.27429
308.47        85.88185
308.93        87.35782
309.38        88.74766
309.83        90.19682
310.29        91.77271
310.74        93.36201
311.19         94.9167
311.65        96.32938
312.10        97.54953
312.55        98.62677
313.00        99.57044
313.46        100.3977
313.91        101.1184
314.36        101.7468
314.82        102.3553
315.27        103.0473
315.72        103.8498
316.18        104.7306
316.63        105.6164
317.08        106.3842
317.53        106.9889
317.99        107.4549
318.44        107.8102
318.89        108.0887
319.35        108.3144
319.80        108.4963
320.25        108.6541
320.70        108.8277
321.16        109.0226
321.61        109.2512
322.06        109.5179
322.51        109.8307
322.97        110.1633
323.42        110.5453
323.87        110.9068
324.32        111.1528
324.78        111.2487
325.23         111.267
325.68        111.2659
326.13        111.3788
326.59        111.6153
327.04        111.9885
327.49        112.4325
327.94        112.8685
328.39        113.2617
328.85        113.6047
329.30        113.9387
329.75        114.1926
330.20        114.3623
330.66        114.4046
331.11        114.4617
331.56        114.6352
332.01        114.9544
332.46        115.3926
332.92        115.7942
333.37        116.0379
333.82        116.0408
334.27        115.8845
334.72        115.7119
335.17        115.7602
335.63        116.0673
336.08        116.6159
336.53        117.3054
336.98        118.0158
337.43         118.679
337.88        119.3185
338.34        119.8474
338.79          120.19
339.24        120.3177
339.69        120.2619
340.14        120.1527
340.59        120.2105
341.05        120.4948
341.50        120.9618
341.95        121.5302
342.40        122.0546
342.85        122.4839
343.30        122.8618
343.75        123.1952
344.20        123.5003
344.66        123.7923
345.11        124.0235
345.56        124.2264
346.01        124.4632
346.46        124.7456
346.91        125.0428
347.36        125.2679
347.81        125.3635
348.26        125.3312
348.72        124.9163
349.17        124.7577
349.62        124.6371
350.07        124.7522
350.52        125.0239
350.97        125.3125
351.42         125.381
351.87        125.1583
352.32        124.7146
352.77        124.1691
353.22        123.7017
353.67        123.3611
354.13         123.117
354.58        122.8465
355.03        122.4135
355.48        121.7972
355.93        121.0544
356.38        120.3241
356.83        119.8065
357.28        119.5233
357.73        119.3937
358.18        119.2415
358.63        118.7918
359.08        117.9895
359.53        116.9366
359.98         115.797
360.43        114.8163
360.88        114.0593
361.33        113.4486
361.78        112.9025
362.23        112.2922
362.68        111.5781
363.13        110.8111
363.58        110.0115
364.03        109.2042
364.48        108.3968
364.93        107.5643
365.38        106.7229
365.83        105.9094
366.28        105.1325
366.73        104.3968
367.18        103.6622
367.63        102.8609
368.08        101.9892
368.53        101.0737
368.98        100.1824
369.43        99.41006
369.88        98.76651
370.33         98.2161
370.78        97.68242
371.23        97.05105
371.68        96.29903
372.13        95.46412
372.58        94.62707
373.03         93.9017
373.48        93.30663
373.93        92.80417
374.38        92.31779
374.83        91.73274
375.28        91.03412
375.72        90.25475
376.17        89.50212
376.62        88.85054
377.07        88.30364
377.52        87.81168
377.97        87.33481
378.42        86.82517
378.87        86.28162
379.32        85.74586
379.77        85.20847
380.22         84.6361
380.67        84.01939
381.11        83.35509
381.56        82.70882
382.01        82.22086
382.46        81.92284
382.91        81.77966
383.36        81.64943
383.81        81.31032
384.26        80.71851
384.71        79.93861
385.15        79.11824
385.60        78.55389
386.05        78.27879
386.50        78.20846
386.95        78.17696
387.40        77.92937
387.85        77.42525
388.29        76.72374
388.74        76.07187
389.19        75.60651
389.64        75.34834
390.09        75.21302
390.54        75.11604
390.98        74.91682
391.43         74.6254
391.88        74.28571
392.33        73.92802
392.78        73.61403
393.23        73.36591
393.67        73.05197
394.12        72.77644
394.57         72.6968
395.02        72.71831
395.47        72.42033
395.91        71.88573
396.36        71.58708
396.81        71.57937
397.26        71.63435
397.71        71.61602
398.15         71.4208
398.60        71.10799
399.05         70.5498
399.50        69.97265
399.95         69.8948
400.39        70.22552
400.84        70.42136
401.29        70.34245
401.74        69.84666
402.18         69.1322
402.63        68.97385
403.08        69.29986
403.53        69.20462
403.97        68.65412
404.42        68.24793
404.87        68.05563
405.32         67.9316
405.76        67.87583
406.21        67.92345
406.66        67.99273
407.11        67.98646
407.55        67.87164
408.00        67.58411
408.45        67.20841
408.90        66.86674
409.34        66.64095
409.79        66.65314
410.24        66.80054
410.68        66.80306
411.13        66.62764
411.58        66.40577
412.03        66.21708
412.47         66.1659
412.92        66.25513
413.37        66.45227
413.81        66.64764
414.26        66.73864
414.71        66.67731
415.15        66.51022
415.60        66.26863
416.05        66.07035
416.49        65.95947
416.94        65.90119
417.39        65.85539
417.83        65.75467
418.28         65.5823
418.73        65.34856
419.17        65.11254
419.62        64.97813
420.07        64.97478
420.51        65.07317
420.96        65.18679
421.41          65.195
421.85        65.06108
422.30         64.7038
422.74        64.28273
423.19        64.50156
423.64        65.21909
424.08        65.50875
424.53        65.24837
424.98        65.24464
425.42        65.53109
425.87        65.39878
426.31        64.98586
426.76        65.17732
427.21        65.82166
427.65        65.81495
428.10        65.18389
428.54         64.8994
428.99        65.02193
429.44        65.07085
429.88        64.98501
430.33        64.84827
430.77        64.65552
431.22        64.72237
431.66        64.98446
432.11        65.05473
432.56        64.98288
433.00        65.01246
433.45        64.88533
433.89        64.75114
434.34        64.90656
434.78        63.32995
435.23        63.76906
435.67        64.82087
436.12        65.18538
436.57        65.19202
437.01        64.43204
437.46        64.05663
437.90        64.58879
438.35        65.04278
438.79        64.98141
439.24        64.97225
439.68        64.87025
440.13        64.60248
440.57        64.27833
441.02        64.26147
441.46        64.52394
441.91        64.67963
442.35        64.65639
442.80        64.97623
443.24        65.48489
443.69        65.51757
444.13        65.09081
444.58        64.79982
445.02        64.75606
445.47        64.63387
445.91        65.03405
446.36        65.09184
446.80        64.97283
447.24        64.81966
447.69        64.70136
448.13        64.77459
448.58        64.82427
449.02        64.76575
449.47        64.56554
449.91        64.46017
450.36        64.47758
450.80        64.40242
451.25        64.28356
451.69        64.33627
452.13        64.51258
452.58        64.48656
453.02        64.25935
453.47        64.11884
453.91         64.0614
454.36         63.9462
454.80         63.8131
455.24        63.66921
455.69        63.51612
456.13        63.55838
456.58        63.86509
457.02        63.21315
457.46        63.64399
457.91        63.47915
458.35        63.42999
458.79         63.3425
459.24        63.28489
459.68        63.23089
460.13         63.2078
460.57        63.13878
461.01        63.02201
461.46        63.07743
461.90        63.08225
462.34        62.85766
462.79        62.94746
463.23        62.97951
463.68        63.10008
464.12        62.77496
464.56        62.21355
465.01        62.30624
465.45        62.75822
465.89        63.07629
466.34        62.44877
466.78        62.24321
467.22        62.20573
467.67        62.78259
468.11        62.42783
468.55        62.35997
468.99        62.17943
469.44        62.07781
469.88        62.06366
470.32        62.02375
470.77         61.9561
471.21        61.88698
471.65        61.81494
472.10        61.73563
472.54         61.6566
472.98        61.60109
473.42        61.57497
473.87        61.61171
474.31        61.66077
474.75        61.68082
475.20        61.67125
475.64        61.72278
476.08        61.85001
476.52         61.8755
476.97        61.73819
477.41        61.86339
477.85        62.29166
478.29          61.495
478.74        61.46562
479.18        61.80338
479.62         61.7314
480.06        61.88175
480.50         61.8702
480.95        61.87522
481.39        61.83658
481.83        62.03813
482.27        62.28732
482.72        62.16299
483.16        62.32029
483.60        62.67191
484.04        62.59515
484.48        62.18165
484.93        62.06566
485.37        61.78513
485.81        62.27924
486.25        62.23312
486.69         63.2291
487.14        62.94446
487.58        62.41527
488.02        62.29405
488.46        61.68737
488.90        62.00488
489.34        61.77031
489.79        61.48676
490.23        62.05725
490.67        62.17953
491.11        62.20599
491.55        62.06263
491.99        61.85337
492.43        61.76335
492.88        61.81229
493.32        61.92685
493.76        62.00748
494.20        62.05742
494.64         62.0864
495.08        61.73915
495.52         61.6222
495.96         61.7038
496.41        62.03509
496.85         62.0181
497.29        61.66847
497.73        61.71164
498.17         61.7957
498.61        61.95906
499.05        62.01294
499.49        61.69258
499.93        61.19251
500.37        61.29439
500.82        61.90233
501.26        62.13544
501.70        62.15923
502.14        61.77343
502.58        61.65382
503.02        61.52429
503.46        61.51548
503.90        61.56175
504.34        61.59887
504.78        61.61787
505.22        61.61444
505.66         61.5402
506.10        61.43353
506.54        61.45459
506.98        61.63041
507.42        61.29388
507.86         62.0111
508.30        61.39041
508.74        61.81743
509.18        61.69109
509.62        61.60674
510.06        61.54848
510.50        61.50649
510.94        61.40346
511.38        61.24195
511.82        61.15262
512.26        61.14974
512.70        61.15667
513.14        61.16318
513.58         61.2402
514.02        61.39235
514.46        61.32525
514.90        61.49652
515.34        61.49083
515.78         61.4535
516.22         61.3531
516.66        61.07283
517.10        61.25329
517.54        61.02689
517.98        61.07336
518.42         61.1174
518.86        61.15508
519.30        61.17556
519.74         61.1515
520.18        61.12135
520.62        61.21941
521.06        61.40272
521.50        61.42993
521.93        61.30531
522.37        61.23513
522.81        61.23062
523.25        61.17781
523.69        61.06983
524.13        60.95194
524.57        60.83179
525.01        60.70139
525.45        60.59916
525.89        60.58305
526.32        60.65712
526.76        60.80856
527.20        60.97441
527.64        61.05599
528.08        61.02857
528.52        60.91926
528.96        60.78514
529.40        60.70977
529.83        60.71186
530.27        60.79498
530.71        60.89361
531.15        60.90236
531.59        60.80302
532.03        60.63686
532.46        60.46484
532.90        60.39436
533.34        60.44191
533.78        60.57015
534.22        60.71231
534.66        60.76794
535.09        60.70578
535.53         60.5806
535.97        60.43133
536.41        60.33434
536.85        60.31263
537.28        60.34314
537.72        60.40033
538.16         60.4457
538.60        60.46408
539.04        60.46783
539.47        60.45615
539.91        60.47671
540.35        60.51743
540.79        60.56846
541.22        60.60544
541.66        60.60637
542.10          60.563
542.54        60.48557
542.97        60.39649
543.41        60.36039
543.85        60.38533
544.29        60.46774
544.72        60.56194
545.16        60.64244
545.60        60.68734
546.04        60.65565
546.47        60.61032
546.91         60.7498
547.35        61.02331
547.79        61.20037
548.22        61.21526
548.66        61.11457
549.10        60.95995
549.53        60.90035
549.97        60.94722
550.41        60.92828
550.84        60.84533
551.28        60.81846
551.72        60.84978
552.15        60.87408
552.59        60.90044
553.03        60.84515
553.46        61.00082
553.90        60.78446
554.34        60.78301
554.77        60.63624
555.21        60.58832
555.65        60.44288
556.08        60.67189
556.52        60.91516
556.96        61.19069
557.39        61.25375
557.83        61.12386
558.27        60.98925
558.70        60.91023
559.14        60.85912
559.57        60.84841
560.01        60.99899
560.45        61.20774
560.88        61.22258
561.32        61.11359
561.75        60.97277
562.19        60.89929
562.63        61.10328
563.06        61.43993
563.50        61.31004
563.93         60.7422
564.37        60.56167
564.80        60.75452
565.24        60.93842
565.68         61.0518
566.11        61.12843
566.55        61.15813
566.98        61.20958
567.42        61.32623
567.85         61.1043
568.29        61.21795
568.72        61.24383
569.16        61.38339
569.60         61.5635
570.03        61.48577
570.47        61.62186
570.90        61.86817
571.34        61.62238
571.77         61.6812
572.21        61.87861
572.64        61.81975
573.08        61.62716
573.51        61.91692
573.95        62.34961
574.38        62.11222
574.82        62.62971
