SpectraSmart Spectrum 2.9.0.0
--------- Device Information -----------
Spectrum Name :  反射率_0
Saving Time :  2024/04/21 00:45:29
Spectro-Module Model Name : SE2030-DUVN
Spectro-Module Serial Number : OS361AC55029948
Wavelength Start : 200
Wavelength End : 1025
Wavelength Unit : Wavelength(nm)
Spectrum Unit : Reflectance(%)
-----------Spectrum Setting ------------
Integration Time : 20ms
Average : 10
Boxcar : 0
Background removal :  enabled
linearity correction :  enabled
SC :  disabled
Intensity correction :  disabled
DWT denoise :  enabled
savitzky-golay :  disabled
FFT :  disabled
Running average :  disabled
Kalman :  disabled
High pass :  disabled
---------------BEGIN--------------------
Wavelength(nm)             Reflectance(%)
200.29               0
200.75        -99.2461
201.21       -39.95607
201.67       -6.718156
202.13        9.433259
202.58        16.91585
203.04        20.55351
203.50        20.69321
203.96        16.53493
204.42        8.434242
204.88       -3.237847
205.34       -16.07489
205.80       -28.33807
206.26       -40.12951
206.72       -48.67139
207.18       -54.99311
207.64       -63.56416
208.10       -72.63719
208.55       -80.70232
209.01       -72.33927
209.47       -36.97467
209.93      -0.9536502
210.39        24.16571
210.85        39.20327
211.31        46.37333
211.77         48.7493
212.23          48.335
212.69        43.36244
213.14        28.94636
213.60       -7.672161
214.06       -136.0412
214.52       -456.6078
214.98       -186.0713
215.44       -15.62062
215.90         40.9837
216.36        58.90677
216.81        58.63283
217.27        41.54067
217.73       -41.31677
218.19        965.8016
218.65        449.0038
219.11       -984.5065
219.57        -35.7223
220.02         25.9627
220.48        38.32631
220.94        35.32201
221.40        18.01796
221.86       -25.95078
222.32       -57.42445
222.77       -20.76399
223.23        12.21433
223.69        28.81211
224.15        34.02855
224.61        33.17076
225.06        29.68728
225.52        24.36674
225.98        17.90091
226.44        11.15135
226.90        2.825043
227.36       -2.793996
227.81        1.916647
228.27        13.03142
228.73        24.75758
229.19        32.38495
229.65        33.49915
230.10        29.11113
230.56        20.77772
231.02        10.05447
231.48        3.180046
231.93        4.430113
232.39        11.27355
232.85        18.75198
233.31        22.70415
233.77        23.36281
234.22        22.57861
234.68        20.93967
235.14        19.45893
235.60        18.96179
236.05        18.28893
236.51        17.54997
236.97        23.10922
237.43        34.97372
237.88        42.81786
238.34        42.97121
238.80        64.20644
239.26        55.51805
239.71         53.9955
240.17        46.40288
240.63        38.35511
241.08        33.67175
241.54         35.1692
242.00        42.93105
242.46        46.98489
242.91        44.58172
243.37        36.67339
243.83        25.16139
244.28        18.46255
244.74        21.87004
245.20        30.19859
245.66        38.28239
246.11        41.66343
246.57        39.75685
247.03        34.44798
247.48        26.17123
247.94        15.50688
248.40      -0.5957639
248.85       -39.91026
249.31       -161.4402
249.77       -265.1735
250.22       -81.66794
250.68       -2.550771
251.14        22.98766
251.59        29.27523
252.05        27.19024
252.51        19.44396
252.96        7.017277
253.42       -1.056548
253.88        2.621857
254.33        14.39554
254.79        28.79393
255.25        39.90892
255.70         46.6942
256.16        50.82932
256.62        53.92156
257.07        57.04348
257.53        60.40674
257.99        63.38227
258.44        64.89914
258.90        64.71189
259.35        62.79129
259.81        60.33036
260.27         58.0116
260.72        56.62957
261.18         56.3661
261.63        56.40623
262.09        56.42044
262.55        55.67857
263.00        54.15491
263.46        52.38619
263.91        50.57238
264.37        49.39849
264.83        48.82104
265.28        48.53358
265.74        48.37422
266.19        47.93291
266.65        47.20123
267.11        46.25705
267.56        45.15019
268.02        44.04419
268.47        42.94435
268.93        41.84245
269.38        40.71912
269.84         39.6211
270.30         38.5497
270.75        37.52018
271.21        36.56332
271.66        35.64115
272.12        34.78323
272.57         33.9838
273.03        33.26391
273.48        32.60838
273.94        32.03063
274.39        31.48395
274.85        30.99924
275.31         30.5554
275.76        30.13292
276.22        29.76788
276.67        29.40368
277.13        29.04269
277.58        28.64602
278.04        28.24234
278.49        27.83472
278.95        27.51375
279.40        27.23593
279.86        27.00466
280.31        26.71798
280.77        26.31387
281.22        25.76247
281.68        25.17197
282.13        24.57417
282.59        24.09128
283.04        23.72549
283.50        23.45555
283.95        23.30044
284.41        23.31586
284.86        23.47474
285.32        23.77312
285.77        24.05775
286.22        24.12211
286.68        23.96506
287.13        23.61523
287.59        23.30944
288.04        23.30405
288.50        23.61574
288.95        24.26022
289.41        25.06018
289.86        25.27354
290.32        24.77441
290.77        25.55399
291.22          24.578
291.68        24.65923
292.13        24.92672
292.59        25.40823
293.04        26.04036
293.50        26.79806
293.95        27.67497
294.40        28.66264
294.86        29.75591
295.31         30.9264
295.77        32.15756
296.22        33.42609
296.68        34.71905
297.13        36.01823
297.58        37.33679
298.04        38.68025
298.49        40.07583
298.95        41.58806
299.40        43.20164
299.85        44.89906
300.31        46.61308
300.76        48.21505
301.21        49.69333
301.67        51.11146
302.12        52.52227
302.58        54.11214
303.03         55.8798
303.48        57.80515
303.94        59.81569
304.39         61.7466
304.84        63.55899
305.30        65.31024
305.75        66.99013
306.20        68.69205
306.66        70.43377
307.11         72.1307
307.57        73.78896
308.02        75.34733
308.47        76.81767
308.93        78.26472
309.38        79.63418
309.83        80.88875
310.29        82.10211
310.74        83.20018
311.19         84.2781
311.65        85.44263
312.10        86.68726
312.55        87.97908
313.00        89.20455
313.46        90.18675
313.91        90.87394
314.36        91.33437
314.82        91.69164
315.27        92.13287
315.72        92.71961
316.18        93.40388
316.63        94.10975
317.08        94.71427
317.53        95.17969
317.99        95.54565
318.44         95.8659
318.89        96.20704
319.35        96.58712
319.80        96.98558
320.25         97.3665
320.70        97.68368
321.16        97.91634
321.61        98.09689
322.06        98.25375
322.51        98.43911
322.97        98.65135
323.42        98.90624
323.87        99.15808
324.32        99.34922
324.78        99.45087
325.23          99.525
325.68        99.59318
326.13        99.71707
326.59        99.89332
327.04        100.1546
327.49         100.465
327.94        100.7968
328.39        101.1367
328.85        101.4636
329.30        101.8252
329.75        102.1768
330.20        102.5069
330.66        102.7668
331.11        103.0388
331.56        103.3336
332.01        103.6645
332.46        104.0425
332.92         104.363
333.37        104.5848
333.82        104.6576
334.27        104.6167
334.72        104.6312
335.17        104.9791
335.63        105.6839
336.08        106.7173
336.53        107.8179
336.98        108.5942
337.43         108.932
337.88        108.9293
338.34        108.7628
338.79        108.7992
339.24        109.1223
339.69         109.631
340.14        110.1925
340.59        110.6038
341.05        110.8134
341.50        110.9083
341.95        110.9818
342.40        111.1758
342.85        111.5294
343.30        111.9887
343.75        112.4706
344.20        112.8553
344.66        113.1192
345.11        113.2844
345.56        113.4197
346.01        113.6283
346.46        113.9345
346.91        114.2838
347.36        114.6028
347.81        114.8337
348.26        114.9615
348.72        114.8424
349.17        114.8283
349.62        114.7675
350.07        114.7759
350.52        114.8157
350.97        114.8249
351.42        114.6984
351.87        114.4158
352.32        114.0246
352.77        113.5979
353.22          113.24
353.67        112.9754
354.13        112.7849
354.58        112.5938
355.03         112.337
355.48        111.9942
355.93        111.5898
356.38        111.1559
356.83        110.7388
357.28        110.3403
357.73        109.9307
358.18        109.4788
358.63        108.9456
359.08        108.3277
359.53        107.6527
359.98        106.9355
360.43          106.19
360.88        105.4256
361.33        104.6389
361.78          103.86
362.23         103.138
362.68        102.4815
363.13         101.881
363.58        101.2805
364.03        100.5868
364.48        99.77962
364.93        98.88358
365.38        97.96836
365.83        97.15086
366.28        96.45882
366.73        95.85506
367.18        95.27483
367.63        94.61516
368.08        93.85447
368.53        93.03719
368.98        92.20503
369.43        91.40935
369.88        90.66402
370.33        89.94703
370.78        89.25919
371.23        88.61909
371.68         88.0341
372.13         87.5034
372.58        87.01288
373.03        86.52559
373.48        86.02032
373.93        85.49856
374.38        84.94832
374.83        84.36438
375.28        83.75963
375.72        83.12795
376.17        82.52565
376.62        81.96441
377.07        81.43722
377.52        80.92752
377.97         80.4219
378.42        79.91216
378.87        79.40697
379.32        78.92139
379.77         78.4479
380.22        77.95996
380.67        77.44325
381.11        76.90002
381.56        76.34649
382.01        75.83703
382.46        75.39539
382.91        75.01562
383.36        74.65908
383.81        74.26054
384.26          73.805
384.71        73.31239
385.15        72.81618
385.60        72.42939
386.05        72.14554
386.50        71.93338
386.95        71.73331
387.40        71.46164
387.85        71.10631
388.29        70.65465
388.74        70.24496
389.19        69.88794
389.64        69.58147
390.09        69.29404
390.54        69.00404
390.98        68.67036
391.43        68.34264
391.88        68.04426
392.33        67.77661
392.78        67.57782
393.23        67.45628
393.67        67.23345
394.12        67.03922
394.57        67.18954
395.02        67.53998
395.47        67.40622
395.91        66.83823
396.36        66.49276
396.81        66.42871
397.26         66.2995
397.71        66.05139
398.15        65.75465
398.60        65.47913
399.05        65.08268
399.50        64.70676
399.95        64.67432
400.39        64.90893
400.84        65.07434
401.29        65.04859
401.74        64.58383
402.18        63.86412
402.63         63.6746
403.08        63.95805
403.53        63.85823
403.97        63.35018
404.42        63.00043
404.87        62.85174
405.32        62.75618
405.76        62.71062
406.21        62.68177
406.66        62.64209
407.11        62.72193
407.55        62.81818
408.00        62.56183
408.45        61.95137
408.90        61.48953
409.34        61.30155
409.79        61.50602
410.24        61.92843
410.68        62.07891
411.13        61.89901
411.58        61.65613
412.03        61.44596
412.47        61.33184
412.92        61.33504
413.37        61.44121
413.81        61.57106
414.26        61.65884
414.71        61.66301
415.15        61.61852
415.60        61.52265
416.05        61.42527
416.49        61.34501
416.94        61.25977
417.39        61.15864
417.83        61.01776
418.28        60.84042
418.73        60.64264
419.17        60.45296
419.62        60.32491
420.07         60.2707
420.51        60.26486
420.96        60.30647
421.41        60.35106
421.85        60.35651
422.30         60.3616
422.74         60.3418
423.19        60.36338
423.64        60.41392
424.08        60.49871
424.53        60.53419
424.98        60.54189
425.42        60.53828
425.87        60.37976
426.31        60.18851
426.76        60.42353
427.21        60.98586
427.65        61.19483
428.10        60.98983
428.54         60.9101
428.99        60.99258
429.44        60.92285
429.88        60.69576
430.33         60.5288
430.77        60.41374
431.22        60.38013
431.66         60.4115
432.11        60.60894
432.56        60.93378
433.00        60.96301
433.45        60.60473
433.89        60.66849
434.34        61.15393
434.78        60.63615
435.23        60.33023
435.67        60.59766
436.12        61.21968
436.57        61.27763
437.01        60.78659
437.46        60.43435
437.90        60.88042
438.35        61.27141
438.79        61.25217
439.24         61.3108
439.68        61.31451
440.13        61.18565
440.57        60.99826
441.02        61.14614
441.46        61.55601
441.91        61.62843
442.35        61.39673
442.80        61.75085
443.24        62.49415
443.69        62.58771
444.13        62.05575
444.58        61.75015
445.02        61.69698
445.47        61.85316
445.91        62.09761
446.36        62.14354
446.80        61.94349
447.24        61.74755
447.69        61.68794
448.13        61.48272
448.58        61.85025
449.02        61.87163
449.47        61.76199
449.91         61.7421
450.36        61.82959
450.80         61.7804
451.25        61.64078
451.69        61.66173
452.13        61.80275
452.58        61.73878
453.02         61.4755
453.47          61.298
453.91        61.21124
454.36        61.07472
454.80        60.88792
455.24        60.74998
455.69        60.68638
456.13        60.60168
456.58        60.52454
457.02        60.63823
457.46        60.57058
457.91        60.65876
458.35        60.59297
458.79        60.54653
459.24        60.46514
459.68         60.3794
460.13        60.33111
460.57        60.14684
461.01        59.82407
461.46        60.10649
461.90        59.54511
462.34        59.78798
462.79        59.58544
463.23        59.74031
463.68        59.91663
464.12        59.67928
464.56        59.16926
465.01        59.31441
465.45        59.86703
465.89        59.75822
466.34        59.12277
466.78         58.7935
467.22        58.88479
467.67        59.06998
468.11        59.38078
468.55        59.29308
468.99        58.89784
469.44        58.72577
469.88        58.80247
470.32        58.75934
470.77        58.59443
471.21        58.50643
471.65        58.50033
472.10        58.51962
472.54        58.53709
472.98        58.52521
473.42        58.47679
473.87        58.43768
474.31        58.38564
474.75        58.33227
475.20        58.27775
475.64        58.26812
476.08        58.32352
476.52        58.29578
476.97        58.13647
477.41         58.2741
477.85        58.58783
478.29        57.81792
478.74        58.01113
479.18        57.88346
479.62        58.04245
480.06        58.00365
480.50        58.04851
480.95        58.01769
481.39        57.90748
481.83        58.24888
482.27        58.46177
482.72        58.19513
483.16        58.41723
483.60        58.71499
484.04        58.63932
484.48        58.35391
484.93        58.36268
485.37        57.91729
485.81        58.04488
486.25         57.7352
486.69        58.65387
487.14        58.62239
487.58        58.40604
488.02        58.28709
488.46        58.38608
488.90         58.2384
489.34        57.94157
489.79        57.51341
490.23        57.82201
490.67        57.87587
491.11        57.87937
491.55         57.8044
491.99        57.69258
492.43        57.67402
492.88        57.74592
493.32        57.81569
493.76        57.80999
494.20        57.80421
494.64        57.82191
495.08        57.44883
495.52         57.3321
495.96        57.37512
496.41         57.6567
496.85        57.59092
497.29          57.207
497.73        57.29689
498.17        57.52111
498.61        57.64345
499.05        57.52419
499.49        57.42024
499.93         57.3971
500.37        57.38641
500.82          57.382
501.26        57.57259
501.70        57.86124
502.14        57.51192
502.58        57.09612
503.02          56.911
503.46        57.10431
503.90        57.09547
504.34        57.30611
504.78        57.34445
505.22        57.33878
505.66        57.25199
506.10        57.13424
506.54        57.14058
506.98        57.29431
507.42        57.25376
507.86        57.48812
508.30        57.55977
508.74        57.48103
509.18         57.3573
509.62        57.19375
510.06         57.0836
510.50        57.02937
510.94        56.95137
511.38        56.85631
511.82        56.81351
512.26        56.82147
512.70        56.83969
513.14        56.85997
513.58         56.8852
514.02        56.90889
514.46        56.92543
514.90        56.91512
515.34        56.89488
515.78        56.87165
516.22        56.79926
516.66        56.55212
517.10        56.80259
517.54        56.58415
517.98        56.65331
518.42        56.70304
518.86        56.72633
519.30        56.71315
519.74         56.6429
520.18        56.56748
520.62        56.63215
521.06        56.80438
521.50        56.85846
521.93        56.78691
522.37        56.76073
522.81         56.7831
523.25        56.74896
523.69        56.66392
524.13        56.58928
524.57        56.53372
525.01         56.4834
525.45        56.44606
525.89        56.43332
526.32         56.4428
526.76        56.47617
527.20        56.51979
527.64        56.55202
528.08        56.56582
528.52        56.56926
528.96        56.56454
529.40        56.54904
529.83         56.5247
530.27        56.51913
530.71        56.52697
531.15        56.53915
531.59        56.55351
532.03        56.57173
532.46        56.58849
532.90        56.60785
533.34        56.62207
533.78         56.6317
534.22        56.61827
534.66        56.55384
535.09        56.43221
535.53        56.28632
535.97        56.14291
536.41        56.05857
536.85        56.04716
537.28        56.09342
537.72        56.17139
538.16        56.23724
538.60        56.27451
539.04        56.29509
539.47         56.2941
539.91        56.31283
540.35        56.34149
540.79        56.37042
541.22         56.3922
541.66        56.41141
542.10        56.42158
542.54        56.42194
542.97        56.40636
543.41        56.39351
543.85        56.38339
544.29        56.38626
544.72        56.38274
545.16        56.39279
545.60        56.40714
546.04        56.35546
546.47        56.28753
546.91        56.41701
547.35        56.66758
547.79        56.74176
548.22         56.6134
548.66        56.42995
549.10        56.27871
549.53         56.3108
549.97        56.49534
550.41        56.55299
550.84        56.47258
551.28        56.40808
551.72        56.35991
552.15        56.34887
552.59         56.4122
553.03        56.10668
553.46         56.2486
553.90        56.16273
554.34        56.06859
554.77          56.078
555.21        56.25044
555.65        55.96984
556.08         56.3074
556.52         56.3789
556.96        56.47117
557.39        56.56887
557.83         56.6545
558.27        56.59566
558.70        56.42288
559.14        56.32833
559.57        56.32304
560.01        56.38842
560.45        56.40052
560.88        56.40639
561.32        56.40966
561.75        56.26075
562.19        56.07676
562.63        56.21255
563.06        56.56511
563.50        56.59468
563.93        56.30571
564.37        56.12925
564.80         56.1053
565.24        56.19051
565.68        56.33499
566.11        56.39937
566.55        56.38655
566.98        56.39049
567.42         56.4332
567.85        56.43947
568.29         56.4511
568.72        56.45559
569.16        56.49306
569.60        56.57573
570.03        56.58696
570.47        56.66193
570.90        56.73143
571.34        56.62662
571.77        57.10185
572.21          56.588
572.64        56.78318
573.08        56.50751
573.51        56.58441
573.95        56.97953
574.38        56.93211
574.82        57.32969
