SpectraSmart Spectrum 2.9.0.0
--------- Device Information -----------
Spectrum Name :  反射率_0
Saving Time :  2024/04/21 00:51:50
Spectro-Module Model Name : SE2030-DUVN
Spectro-Module Serial Number : OS361AC55029948
Wavelength Start : 200
Wavelength End : 1025
Wavelength Unit : Wavelength(nm)
Spectrum Unit : Reflectance(%)
-----------Spectrum Setting ------------
Integration Time : 20ms
Average : 10
Boxcar : 0
Background removal :  enabled
linearity correction :  enabled
SC :  disabled
Intensity correction :  disabled
DWT denoise :  enabled
savitzky-golay :  disabled
FFT :  disabled
Running average :  disabled
Kalman :  disabled
High pass :  disabled
---------------BEGIN--------------------
Wavelength(nm)             Reflectance(%)
200.29               0
200.75       -74.11027
201.21       -12.45715
201.67        22.90178
202.13        37.68411
202.58        40.94049
203.04        38.06754
203.50        30.49913
203.96        22.33518
204.42        16.36567
204.88        10.39882
205.34        5.263651
205.80        1.473632
206.26       -1.170271
206.72       0.8961494
207.18        2.906395
207.64       -8.135493
208.10       -34.06853
208.55       -70.04688
209.01       -87.72446
209.47       -56.89337
209.93       -11.87346
210.39        23.95327
210.85         46.6393
211.31        56.57582
211.77        57.54265
212.23        51.49643
212.69         35.0181
213.14        3.696762
213.60       -52.00662
214.06       -210.2366
214.52       -550.1006
214.98        -210.478
215.44        -24.1001
215.90        35.13689
216.36        53.63138
216.81         53.9502
217.27        38.09558
217.73       -40.98259
218.19        929.7336
218.65        437.9175
219.11       -1000.729
219.57       -45.56131
220.02        16.90958
220.48        29.11037
220.94        25.47642
221.40        6.637052
221.86       -38.80046
222.32       -63.64447
222.77       -17.38986
223.23        19.88254
223.69        37.47578
224.15        42.01739
224.61        39.51857
225.06        33.41929
225.52        25.47647
225.98        18.26485
226.44        13.29171
226.90        8.973198
227.36        8.066832
227.81        14.47632
228.27        24.10659
228.73        33.18542
229.19        38.78735
229.65        39.40777
230.10        35.85276
230.56        29.44482
231.02        20.97302
231.48        14.32084
231.93        13.00024
232.39        16.04966
232.85        20.54608
233.31         23.7639
233.77        25.71331
234.22        27.64708
234.68        29.36449
235.14        30.28022
235.60        30.47275
236.05        29.27545
236.51        27.19245
236.97        30.84811
237.43        40.85429
237.88        47.55614
238.34        47.31453
238.80        66.67515
239.26        58.21205
239.71        56.55613
240.17        49.38522
240.63        41.92854
241.08        37.84324
241.54        39.89099
242.00        47.78203
242.46        51.75318
242.91        49.06014
243.37        39.94458
243.83        27.18549
244.28         22.0687
244.74         30.2505
245.20        44.93943
245.66        57.40657
246.11        59.24923
246.57        49.79864
247.03        31.78546
247.48        7.904468
247.94       -17.83343
248.40       -49.33244
248.85       -115.0962
249.31       -305.5206
249.77        -457.605
250.22       -169.1058
250.68       -46.96118
251.14       -7.027566
251.59        4.740365
252.05        5.489413
252.51       0.3722854
252.96       -9.205172
253.42       -14.37551
253.88       -8.228765
254.33        5.047535
254.79        22.25537
255.25        39.12563
255.70        51.98165
256.16        60.73671
256.62        65.97623
257.07        68.23255
257.53        69.00655
257.99        68.91372
258.44        67.82297
258.90        66.32752
259.35        64.22134
259.81        62.11898
260.27        60.42957
260.72        59.68365
261.18        59.95223
261.63        60.45605
262.09        60.78216
262.55        60.07203
263.00        58.35452
263.46        56.26259
263.91          54.138
264.37        52.89083
264.83        52.47438
265.28        52.47013
265.74        52.61529
266.19        52.34801
266.65        51.64658
267.11        50.65499
267.56        49.44829
268.02        48.22794
268.47        47.02585
268.93        45.82691
269.38        44.66528
269.84        43.67936
270.30        42.86939
270.75        42.20642
271.21        41.62844
271.66        40.94756
272.12        40.15429
272.57        39.27774
273.03        38.39039
273.48        37.54695
273.94        36.79623
274.39        36.07499
274.85        35.42193
275.31        34.82112
275.76        34.25363
276.22        33.76406
276.67        33.29748
277.13        32.86295
277.58        32.41068
278.04        31.97194
278.49        31.51663
278.95        31.10097
279.40        30.67864
279.86        30.27631
280.31         29.8296
280.77        29.34297
281.22        28.78903
281.68        28.24917
282.13         27.7191
282.59        27.27613
283.04         26.9068
283.50        26.61362
283.95        26.40962
284.41        26.34937
284.86        26.40993
285.32        26.58663
285.77        26.76184
286.22        26.78919
286.68        26.66871
287.13        26.40498
287.59        26.17203
288.04        26.12588
288.50        26.27393
288.95        26.66611
289.41        27.19591
289.86        27.23134
290.32         26.6753
290.77         27.4435
291.22        26.54539
291.68        26.67026
292.13        26.95257
292.59        27.43367
293.04        28.07509
293.50        28.88864
293.95        29.87127
294.40        30.99887
294.86        32.22522
295.31        33.46093
295.77        34.68053
296.22        35.88175
296.68        37.10592
297.13         38.4162
297.58        39.84286
298.04        41.36471
298.49        42.95799
298.95        44.60633
299.40        46.27314
299.85        47.96837
300.31        49.66157
300.76        51.27861
301.21         52.8215
301.67         54.3317
302.12        55.84473
302.58        57.52631
303.03        59.37067
303.48        61.37998
303.94        63.47664
304.39         65.4822
304.84         67.3597
305.30        69.16096
305.75         70.9163
306.20        72.78634
306.66        74.78938
307.11        76.81203
307.57        78.76962
308.02        80.46124
308.47        81.87935
308.93        83.12437
309.38        84.25455
309.83        85.42301
310.29        86.72678
310.74        88.05132
311.19        89.35744
311.65        90.54488
312.10        91.56814
312.55        92.46838
313.00        93.28317
313.46        94.07227
313.91        94.83777
314.36        95.57051
314.82        96.25623
315.27        96.86578
315.72         97.4081
316.18        97.90418
316.63        98.37978
317.08        98.87643
317.53        99.39647
317.99        99.91178
318.44        100.4039
318.89        100.8296
319.35        101.1735
319.80        101.4634
320.25        101.6865
320.70        101.8284
321.16         101.894
321.61        101.9102
322.06        101.9428
322.51        102.1065
322.97        102.4042
323.42         102.831
323.87        103.2852
324.32        103.6109
324.78        103.7443
325.23        103.7705
325.68         103.728
326.13        103.7148
326.59         103.747
327.04        103.8497
327.49        104.0089
327.94        104.2366
328.39        104.5269
328.85        104.8521
329.30        105.2352
329.75        105.5748
330.20        105.8464
330.66        106.0237
331.11        106.1953
331.56        106.3849
332.01        106.6095
332.46        106.8523
332.92        107.0559
333.37        107.2654
333.82         107.437
334.27        107.5973
334.72        107.7685
335.17        107.9798
335.63        108.2163
336.08        108.5278
336.53        108.9008
336.98        109.3593
337.43        109.8936
337.88        110.4846
338.34        111.0541
338.79        111.5322
339.24        111.8726
339.69        112.1041
340.14        112.2746
340.59        112.4713
341.05        112.7242
341.50        113.0099
341.95        113.3323
342.40        113.6992
342.85        114.0989
343.30         114.535
343.75        114.9335
344.20        115.1772
344.66        115.2573
345.11        115.1867
345.56        115.0812
346.01         115.127
346.46        115.3636
346.91        115.7189
347.36        116.0605
347.81        116.2336
348.26        116.2093
348.72        115.8717
349.17         115.655
349.62        115.4804
350.07        115.4937
350.52        115.6196
350.97        115.7724
351.42        115.8101
351.87        115.6828
352.32        115.4366
352.77         115.112
353.22        114.7654
353.67        114.4172
354.13         114.064
354.58        113.6685
355.03        113.2313
355.48        112.7586
355.93        112.2651
356.38        111.7802
356.83        111.3384
357.28        110.9343
357.73        110.5439
358.18        110.1217
358.63        109.6029
359.08        108.9763
359.53        108.2687
359.98        107.5092
360.43        106.7382
360.88        105.9689
361.33        105.1886
361.78        104.4096
362.23         103.652
362.68        102.9217
363.13         102.225
363.58        101.5257
364.03        100.7599
364.48        99.91681
364.93        99.01041
365.38        98.10506
365.83        97.30972
366.28        96.64167
366.73        96.05861
367.18        95.48148
367.63        94.78553
368.08        93.94589
368.53         93.0172
368.98        92.04668
369.43        91.09486
369.88        90.18295
370.33        89.28722
370.78        88.43513
371.23        87.69016
371.68        87.06932
372.13        86.56324
372.58        86.11179
373.03        85.60098
373.48        84.99429
373.93        84.31618
374.38        83.60367
374.83        82.93582
375.28        82.34352
375.72        81.78578
376.17        81.27885
376.62        80.77751
377.07        80.26048
377.52        79.73808
377.97        79.19922
378.42        78.63901
378.87        78.07772
379.32        77.52574
379.77        77.01527
380.22        76.58234
380.67        76.21231
381.11        75.88254
381.56        75.54076
382.01        75.12138
382.46        74.62223
382.91         74.0854
383.36        73.53133
383.81        72.98637
384.26        72.46736
384.71        71.96567
385.15        71.52007
385.60        71.24985
386.05        71.13459
386.50        71.13815
386.95        71.14108
387.40        70.96136
387.85        70.56899
388.29         69.9825
388.74        69.40906
389.19        68.95437
389.64        68.64046
390.09        68.42033
390.54        68.21927
390.98        67.90677
391.43        67.50167
391.88        67.04889
392.33        66.63091
392.78        66.33971
393.23        66.17999
393.67        66.12045
394.12        66.14713
394.57        65.97018
395.02        65.61127
395.47        65.37728
395.91        65.26173
396.36        64.97765
396.81        64.55288
397.26        64.19208
397.71        63.90869
398.15        63.63427
398.60         63.4438
399.05        63.20247
399.50        62.98416
399.95         63.0805
400.39        63.38467
400.84        63.41377
401.29        63.11639
401.74        62.63662
402.18        62.11233
402.63        61.83865
403.08        61.78825
403.53         61.5547
403.97        61.14011
404.42        60.86549
404.87        60.74914
405.32        60.70874
405.76        60.72713
406.21        60.74056
406.66        60.73172
407.11         60.8414
407.55         60.9678
408.00        60.74942
408.45        60.24221
408.90        59.64865
409.34        59.18379
409.79        59.28773
410.24        59.78069
410.68        59.91776
411.13        59.63554
411.58        59.35492
412.03        59.17364
412.47        59.07758
412.92        59.08339
413.37        59.20031
413.81        59.34354
414.26        59.43702
414.71        59.44212
415.15        59.39236
415.60        59.30454
416.05        59.26367
416.49         59.2889
416.94        59.33539
417.39        59.36339
417.83        59.31036
418.28         59.1656
418.73        58.95391
419.17        58.70734
419.62        58.48885
420.07        58.32951
420.51        58.21437
420.96         58.1617
421.41        58.18182
421.85        58.24699
422.30        58.30213
422.74        58.32563
423.19        58.57387
423.64        58.93904
424.08        58.97358
424.53        58.66908
424.98        58.58255
425.42        58.77125
425.87        58.84022
426.31        58.79833
426.76        58.96064
427.21        59.24612
427.65        59.24881
428.10        58.96839
428.54        58.78033
428.99        58.73799
429.44         58.6682
429.88        58.54629
430.33        58.43311
430.77        58.31652
431.22        58.36928
431.66        58.54288
432.11        58.70553
432.56        58.84795
433.00        58.83408
433.45        58.49345
433.89        58.46412
434.34        58.89328
434.78        58.01831
435.23        57.50874
435.67        59.05015
436.12        59.09435
436.57        59.27317
437.01        58.59401
437.46        58.17731
437.90         58.6555
438.35        58.81695
438.79        58.74378
439.24        58.75076
439.68        58.81562
440.13        58.89712
440.57        58.95876
441.02        58.97771
441.46        58.95418
441.91         58.9079
442.35        58.84109
442.80        59.09465
443.24        59.52427
443.69        59.60497
444.13        59.34013
444.58         59.1529
445.02        59.10929
445.47        59.26722
445.91        59.51326
446.36        59.55767
446.80        59.36625
447.24        59.06824
447.69         58.7863
448.13        58.80512
448.58        58.93895
449.02        59.00324
449.47        58.91467
449.91        58.86049
450.36        58.84562
450.80        58.66541
451.25        58.40768
451.69        58.35242
452.13        58.47543
452.58        58.45314
453.02        58.26506
453.47        58.14302
453.91        58.07791
454.36        57.94265
454.80         57.7509
455.24         57.6173
455.69        57.55919
456.13        57.50665
456.58          57.477
457.02        57.53899
457.46        57.29666
457.91        57.52959
458.35        57.11076
458.79        57.08211
459.24        57.13138
459.68        57.24136
460.13        57.41219
460.57        57.32558
461.01        56.93739
461.46         57.2598
461.90        56.86699
462.34        56.42204
462.79        56.48969
463.23        56.44567
463.68        56.50995
464.12        56.23145
464.56        55.77377
465.01        56.01322
465.45        56.68994
465.89        56.77048
466.34        56.30611
466.78        56.05769
467.22        56.11769
467.67        55.95651
468.11        55.92186
468.55        55.72466
468.99         55.4883
469.44        55.29246
469.88        55.14734
470.32        54.96851
470.77        54.77905
471.21        54.67315
471.65        54.65671
472.10        54.70045
472.54        54.76091
472.98        54.78871
473.42        54.77022
473.87        54.73083
474.31        54.66079
474.75        54.63562
475.20         54.6448
475.64        54.61614
476.08        54.55378
476.52        54.51777
476.97        54.49948
477.41        54.53023
477.85        54.55584
478.29        54.46275
478.74        54.15376
479.18         54.0816
479.62        54.42942
480.06        54.42709
480.50        54.48738
480.95        54.55636
481.39        54.67391
481.83        54.70129
482.27        54.92009
482.72        54.55265
483.16        54.53722
483.60        54.75387
484.04        54.75997
484.48        54.60479
484.93        54.65851
485.37        54.58923
485.81        55.25598
486.25        54.78913
486.69        56.59672
487.14        57.05831
487.58        55.69565
488.02        54.68571
488.46        54.64585
488.90        54.56409
489.34        54.33597
489.79        53.66867
490.23        54.00863
490.67        53.93476
491.11        53.88625
491.55         53.8343
491.99        53.80014
492.43         53.7824
492.88        53.77991
493.32        53.82832
493.76        53.85046
494.20        53.86749
494.64        53.90261
495.08        53.46997
495.52         53.3195
495.96        53.49769
496.41        54.03384
496.85        54.06735
497.29        53.59475
497.73        53.45119
498.17         53.4045
498.61        53.48923
499.05        53.55405
499.49        53.49458
499.93        53.36367
500.37        53.33248
500.82        53.40305
501.26        53.64745
501.70        53.94681
502.14        53.61453
502.58        53.18906
503.02        52.94161
503.46        53.00052
503.90        53.05752
504.34        53.05374
504.78        53.07914
505.22        53.13254
505.66        53.12404
506.10        53.04565
506.54        53.08445
506.98        53.28186
507.42        52.73749
507.86        53.18715
508.30        52.84653
508.74        52.94321
509.18          52.849
509.62        52.80034
510.06        52.81139
510.50        52.85471
510.94        52.86818
511.38        52.83043
511.82        52.78845
512.26        52.73875
512.70        52.64918
513.14        52.53754
513.58        52.45173
514.02        52.40143
514.46        52.37263
514.90        52.33896
515.34        52.30897
515.78        52.28519
516.22        52.21095
516.66        51.95813
517.10        52.23231
517.54        51.96764
517.98        52.00072
518.42        52.01331
518.86        52.03269
519.30        52.05262
519.74        52.04558
520.18        52.03808
520.62        52.12572
521.06        52.27213
521.50        52.28346
521.93        52.17163
522.37        52.12419
522.81        52.15263
523.25        52.14756
523.69        52.10895
524.13        52.08555
524.57        52.07946
525.01        52.08158
525.45        52.08392
525.89        52.07271
526.32        52.04408
526.76        52.00574
527.20          51.973
527.64        51.97536
528.08        52.01505
528.52        52.07375
528.96         52.1234
529.40        52.13609
529.83        52.09171
530.27         51.9844
530.71        51.84314
531.15         51.7548
531.59        51.73543
532.03        51.74754
532.46        51.76989
532.90         51.7928
533.34        51.80169
533.78        51.80102
534.22        51.78695
534.66        51.75217
535.09        51.69197
535.53        51.62791
535.97        51.56117
536.41        51.50891
536.85          51.478
537.28        51.46533
537.72         51.4748
538.16        51.51216
538.60         51.5705
539.04        51.64183
539.47        51.69644
539.91         51.7331
540.35        51.73479
540.79        51.71199
541.22        51.66617
541.66        51.61384
542.10           51.56
542.54        51.50084
542.97        51.45327
543.41        51.46999
543.85        51.55035
544.29        51.68819
544.72        51.82424
545.16        51.91096
545.60        51.92466
546.04        51.82297
546.47        51.68045
546.91        51.73643
547.35        51.94195
547.79        52.01874
548.22        51.92955
548.66        51.79494
549.10        51.67694
549.53        51.68488
549.97        51.80369
550.41         51.8323
550.84        51.75937
551.28        51.71475
551.72        51.70843
552.15        51.70036
552.59        51.70744
553.03        51.65047
553.46         51.7173
553.90        51.63113
554.34         51.6258
554.77        51.54806
555.21        51.49794
555.65        51.52372
556.08        51.62083
556.52         51.7817
556.96        51.93727
557.39        51.99873
557.83        51.96119
558.27        51.83708
558.70        51.67968
559.14         51.5944
559.57        51.59452
560.01        51.67222
560.45        51.77278
560.88        51.81663
561.32        51.82275
561.75        51.75801
562.19         51.6883
562.63        51.71902
563.06        51.80999
563.50        51.78421
563.93        51.64381
564.37        51.53289
564.80        51.48341
565.24        51.59993
565.68        51.82696
566.11        51.94368
566.55        51.94484
566.98        51.96361
567.42        52.02106
567.85        51.99432
568.29        51.94012
568.72        51.95989
569.16        52.12062
569.60         52.1818
570.03        52.38707
570.47        52.62326
570.90        52.88636
571.34        52.82722
571.77        53.35263
572.21        52.85897
572.64        53.00646
573.08        52.94707
573.51        52.76278
573.95        53.23614
574.38         53.2729
574.82        53.98549
